Sample Weight (mg):	1.99
Heating Rate (C/s):	0.5
Combustor Temp (C):	900
N2 Flow Rate (cc/min):	80
O2 Flow Rate (cc/min):	20
Time (s)	Temperature (C)	N2 flow rate (cc/min)	O2 flow rate (cc/min)	Flow Rate (cc/min)	Oxygen (%)	HRR (W/g)	Heating rate (C/s)
0.000	88.918	80.004	20.009	100.175	20.063	-1.242	0.013
0.500	88.977	80.005	20.010	100.174	20.064	-1.352	0.005
1.000	89.012	80.005	20.009	100.183	20.064	-1.359	0.063
1.500	89.022	80.004	20.009	100.199	20.066	-1.562	0.069
2.000	89.068	80.006	20.009	100.223	20.065	-1.435	0.050
2.500	89.048	80.006	20.009	100.241	20.062	-0.946	0.041
3.000	89.084	80.005	20.009	100.252	20.060	-0.733	0.022
3.500	89.143	80.004	20.009	100.250	20.063	-1.155	0.055
4.000	89.159	80.005	20.009	100.243	20.067	-1.754	0.084
4.500	89.183	80.004	20.009	100.240	20.063	-1.149	0.057
5.000	89.184	80.005	20.009	100.242	20.067	-1.795	0.033
5.500	89.211	80.004	20.009	100.250	20.065	-1.432	0.027
6.000	89.237	80.004	20.009	100.258	20.063	-1.145	0.041
6.500	89.240	80.004	20.009	100.266	20.063	-1.119	0.041
7.000	89.256	80.005	20.009	100.262	20.059	-0.519	0.024
7.500	89.282	80.005	20.009	100.251	20.060	-0.746	0.030
8.000	89.344	80.006	20.009	100.232	20.062	-0.955	0.065
8.500	89.415	80.006	20.010	100.218	20.059	-0.543	0.111
9.001	89.431	80.005	20.009	100.212	20.058	-0.383	0.110
9.501	89.461	80.006	20.009	100.217	20.060	-0.679	0.066
10.000	89.524	80.004	20.009	100.228	20.057	-0.210	0.069
10.500	89.543	80.005	20.009	100.240	20.056	-0.070	0.087
11.000	89.543	80.005	20.009	100.244	20.056	-0.120	0.050
11.500	89.623	80.005	20.009	100.242	20.056	-0.067	0.049
12.000	89.654	80.004	20.010	100.235	20.056	-0.037	0.095
12.500	89.644	80.005	20.009	100.227	20.056	-0.080	0.066
13.000	89.665	80.006	20.009	100.227	20.058	-0.336	0.016
13.500	89.751	80.005	20.009	100.234	20.058	-0.347	0.059
14.000	89.751	80.004	20.009	100.242	20.056	-0.077	0.096
14.500	89.864	80.006	20.009	100.250	20.054	0.227	0.100
15.000	89.903	80.005	20.009	100.252	20.055	0.037	0.133
15.500	89.894	80.004	20.010	100.246	20.054	0.267	0.091
16.000	89.932	80.005	20.009	100.239	20.054	0.307	0.030
16.500	89.929	80.005	20.009	100.231	20.052	0.530	0.032
17.000	89.994	80.005	20.009	100.223	20.055	0.060	0.048
17.500	90.060	80.006	20.009	100.224	20.053	0.390	0.096
18.000	90.019	80.004	20.008	100.232	20.054	0.237	0.078
18.500	90.042	80.005	20.009	100.238	20.055	0.043	0.004
19.000	90.054	80.005	20.010	100.241	20.055	0.053	0.009
19.500	90.176	80.005	20.009	100.240	20.054	0.303	0.085
20.000	90.188	80.006	20.010	100.237	20.053	0.350	0.134
20.500	90.276	80.004	20.009	100.230	20.052	0.517	0.117
21.000	90.315	80.006	20.009	100.228	20.049	1.043	0.113
21.500	90.360	80.004	20.010	100.234	20.051	0.743	0.106
22.000	90.389	80.004	20.010	100.247	20.051	0.750	0.079
22.500	90.396	80.004	20.009	100.256	20.050	0.954	0.055
23.000	90.484	80.003	20.009	100.264	20.051	0.693	0.065
23.500	90.505	80.006	20.010	100.264	20.051	0.703	0.102
24.000	90.553	80.005	20.010	100.262	20.046	1.547	0.089
24.500	90.561	80.004	20.010	100.257	20.049	0.964	0.062
25.000	90.600	80.006	20.009	100.264	20.045	1.611	0.051
25.500	90.633	80.005	20.009	100.277	20.044	1.848	0.059
26.000	90.686	80.004	20.009	100.296	20.044	1.858	0.079
26.500	90.797	80.004	20.009	100.314	20.042	2.108	0.125
27.000	90.815	80.005	20.010	100.329	20.041	2.268	0.146
27.500	90.883	80.004	20.010	100.337	20.037	2.868	0.107
28.000	90.916	80.005	20.010	100.340	20.038	2.794	0.093
28.500	90.967	80.005	20.010	100.339	20.038	2.835	0.092
29.000	91.068	80.005	20.010	100.341	20.032	3.659	0.118
29.500	91.067	80.005	20.009	100.349	20.036	3.078	0.126
30.001	91.159	80.004	20.009	100.352	20.036	3.152	0.096
30.501	91.192	80.005	20.009	100.354	20.035	3.262	0.108
31.000	91.256	80.005	20.010	100.353	20.038	2.822	0.111
31.500	91.292	80.006	20.009	100.352	20.034	3.422	0.098
32.001	91.374	80.003	20.010	100.343	20.032	3.692	0.109
32.501	91.437	80.005	20.010	100.340	20.035	3.242	0.132
33.000	91.525	80.005	20.009	100.340	20.033	3.572	0.148
33.500	91.571	80.004	20.009	100.347	20.035	3.276	0.142
34.000	91.638	80.006	20.010	100.355	20.032	3.666	0.124
34.500	91.748	80.004	20.010	100.363	20.032	3.750	0.145
35.000	91.722	80.005	20.009	100.371	20.032	3.664	0.131
35.500	91.846	80.006	20.009	100.374	20.029	4.221	0.091
36.000	91.868	80.004	20.010	100.369	20.030	4.017	0.122
36.500	91.942	80.004	20.010	100.368	20.026	4.661	0.121
37.000	91.976	80.004	20.009	100.370	20.025	4.791	0.102
37.500	92.040	80.005	20.009	100.376	20.024	5.011	0.103
38.001	92.149	80.003	20.009	100.387	20.022	5.282	0.136
38.501	92.280	80.004	20.008	100.401	20.022	5.280	0.207
39.000	92.360	80.005	20.009	100.405	20.023	5.086	0.225
39.500	92.457	80.004	20.009	100.408	20.022	5.290	0.194
40.000	92.483	80.004	20.009	100.401	20.021	5.426	0.150
40.500	92.616	80.006	20.009	100.394	20.020	5.562	0.141
41.000	92.661	80.005	20.009	100.394	20.021	5.391	0.168
41.500	92.794	80.005	20.009	100.399	20.021	5.494	0.178
42.000	92.897	80.003	20.009	100.403	20.016	6.195	0.207
42.500	92.957	80.004	20.009	100.411	20.017	6.072	0.200
43.000	93.074	80.004	20.009	100.419	20.017	6.026	0.170
43.500	93.127	80.004	20.009	100.420	20.015	6.417	0.174
44.000	93.225	80.004	20.010	100.418	20.017	6.149	0.160
44.500	93.320	80.004	20.009	100.415	20.015	6.439	0.172
45.000	93.402	80.006	20.009	100.414	20.014	6.495	0.185
45.500	93.531	80.004	20.009	100.415	20.014	6.558	0.194
46.000	93.661	80.004	20.009	100.418	20.013	6.682	0.235
46.500	93.718	80.004	20.009	100.427	20.014	6.532	0.223
47.000	93.842	80.004	20.009	100.437	20.013	6.746	0.184
47.500	93.951	80.006	20.010	100.445	20.014	6.513	0.208
48.001	94.038	80.004	20.009	100.449	20.014	6.627	0.214
48.501	94.194	80.005	20.009	100.446	20.009	7.328	0.219
49.000	94.260	80.004	20.009	100.439	20.013	6.667	0.232
49.500	94.428	80.005	20.010	100.436	20.013	6.751	0.228
50.000	94.513	80.005	20.009	100.438	20.011	6.997	0.244
50.500	94.625	80.005	20.009	100.445	20.012	6.921	0.225
51.000	94.786	80.005	20.009	100.460	20.011	7.088	0.235
51.500	94.857	80.004	20.009	100.472	20.011	7.079	0.252
52.000	94.987	80.006	20.009	100.477	20.010	7.196	0.217
52.500	95.133	80.005	20.009	100.475	20.011	7.056	0.238
53.000	95.262	80.006	20.009	100.462	20.013	6.635	0.276
53.500	95.330	80.004	20.009	100.447	20.010	7.255	0.237
54.000	95.496	80.004	20.009	100.435	20.011	6.954	0.216
54.500	95.582	80.004	20.009	100.429	20.013	6.654	0.243
55.000	95.760	80.004	20.009	100.431	20.013	6.784	0.258
55.500	95.874	80.006	20.009	100.440	20.012	6.872	0.278
56.000	96.005	80.005	20.009	100.448	20.011	7.020	0.269
56.500	96.180	80.005	20.009	100.454	20.012	6.850	0.276
57.000	96.338	80.004	20.009	100.452	20.009	7.385	0.319
57.500	96.468	80.005	20.009	100.443	20.011	7.044	0.310
58.000	96.563	80.006	20.009	100.435	20.012	6.917	0.256
58.500	96.723	80.004	20.009	100.428	20.011	7.070	0.240
59.000	96.876	80.005	20.009	100.429	20.012	6.827	0.285
59.500	96.980	80.004	20.009	100.436	20.013	6.694	0.285
60.000	97.145	80.006	20.009	100.446	20.014	6.531	0.263
60.501	97.288	80.005	20.009	100.454	20.014	6.612	0.289
61.001	97.464	80.004	20.009	100.460	20.011	6.999	0.314
61.500	97.551	80.005	20.008	100.461	20.013	6.728	0.291
62.000	97.735	80.005	20.009	100.461	20.013	6.714	0.267
62.500	97.893	80.004	20.010	100.459	20.013	6.713	0.306
63.001	98.013	80.005	20.009	100.459	20.015	6.395	0.310
63.501	98.201	80.004	20.009	100.464	20.012	6.803	0.293
64.000	98.359	80.005	20.009	100.472	20.013	6.750	0.327
64.500	98.506	80.004	20.009	100.480	20.013	6.770	0.325
65.000	98.696	80.003	20.009	100.485	20.013	6.687	0.321
65.500	98.848	80.005	20.009	100.486	20.014	6.551	0.340
66.000	98.991	80.005	20.009	100.481	20.015	6.340	0.318
66.500	99.139	80.004	20.009	100.471	20.014	6.537	0.293
67.000	99.276	80.005	20.009	100.462	20.010	7.120	0.288
67.500	99.425	80.005	20.010	100.457	20.013	6.663	0.286
68.000	99.617	80.005	20.009	100.464	20.011	7.077	0.313
68.500	99.810	80.003	20.009	100.477	20.011	7.044	0.363
69.000	99.992	80.006	20.009	100.489	20.012	6.831	0.380
69.500	100.100	80.004	20.009	100.498	20.014	6.575	0.332
70.000	100.311	80.005	20.009	100.506	20.014	6.578	0.304
70.500	100.492	80.005	20.009	100.506	20.012	6.919	0.355
71.000	100.628	80.004	20.010	100.499	20.009	7.379	0.354
71.500	100.795	80.005	20.009	100.498	20.009	7.342	0.311
72.000	100.966	80.006	20.009	100.504	20.009	7.352	0.321
72.500	101.151	80.003	20.009	100.511	20.009	7.372	0.347
73.000	101.324	80.006	20.009	100.519	20.008	7.432	0.357
73.500	101.482	80.005	20.009	100.527	20.008	7.577	0.345
74.000	101.684	80.003	20.009	100.527	20.003	8.298	0.346
74.500	101.836	80.005	20.010	100.520	20.003	8.348	0.357
75.000	102.036	80.005	20.009	100.510	20.001	8.678	0.353
75.501	102.262	80.005	20.010	100.498	20.001	8.637	0.389
76.001	102.445	80.004	20.009	100.491	20.000	8.757	0.417
76.501	102.572	80.006	20.010	100.489	20.000	8.751	0.360
77.000	102.800	80.006	20.009	100.495	20.000	8.762	0.333
77.500	102.993	80.005	20.009	100.506	20.000	8.747	0.388
78.000	103.196	80.006	20.010	100.514	20.002	8.494	0.408
78.500	103.408	80.006	20.009	100.515	20.004	8.178	0.405
79.000	103.621	80.003	20.009	100.515	19.999	8.859	0.420
79.500	103.769	80.006	20.009	100.507	20.001	8.584	0.393
80.001	103.978	80.006	20.009	100.497	20.001	8.656	0.359
80.501	104.175	80.005	20.009	100.492	20.000	8.822	0.382
81.001	104.366	80.005	20.010	100.496	19.999	8.958	0.397
81.500	104.565	80.005	20.009	100.505	20.001	8.548	0.389
82.000	104.831	80.005	20.009	100.516	20.002	8.491	0.427
82.500	104.990	80.005	20.009	100.526	20.001	8.572	0.445
83.000	105.156	80.004	20.009	100.531	20.002	8.432	0.375
83.500	105.390	80.005	20.010	100.525	20.001	8.642	0.363
84.000	105.598	80.004	20.010	100.518	20.003	8.347	0.421
84.500	105.764	80.004	20.009	100.512	20.009	7.355	0.408
85.000	106.031	80.006	20.009	100.511	20.013	6.717	0.404
85.500	106.192	80.005	20.009	100.513	20.001	8.593	0.430
86.001	106.419	80.006	20.009	100.521	20.002	8.427	0.408
86.501	106.617	80.004	20.009	100.528	20.002	8.492	0.407
87.001	106.887	80.005	20.009	100.532	20.004	8.112	0.447
87.500	107.034	80.006	20.010	100.525	20.000	8.730	0.442
88.000	107.248	80.005	20.009	100.518	20.001	8.660	0.389
88.500	107.477	80.005	20.010	100.511	20.001	8.579	0.402
89.000	107.638	80.005	20.010	100.508	20.003	8.314	0.417
89.500	107.903	80.004	20.009	100.512	20.001	8.523	0.408
90.001	108.087	80.005	20.009	100.527	19.999	8.937	0.438
90.501	108.320	80.006	20.010	100.546	20.007	7.675	0.433
91.000	108.524	80.005	20.009	100.562	20.002	8.504	0.427
91.500	108.726	80.005	20.009	100.571	20.002	8.385	0.421
92.000	108.961	80.005	20.009	100.569	20.001	8.594	0.422
92.500	109.162	80.006	20.009	100.558	19.999	8.968	0.436
93.000	109.364	80.005	20.009	100.540	20.002	8.470	0.419
93.500	109.683	80.006	20.009	100.527	19.999	8.922	0.462
94.000	109.860	80.003	20.009	100.521	20.001	8.663	0.509
94.500	110.140	80.004	20.009	100.520	20.000	8.782	0.476
95.001	110.416	80.007	20.009	100.523	19.999	8.835	0.506
95.501	110.604	80.004	20.009	100.530	19.997	9.239	0.510
96.001	110.843	80.006	20.009	100.534	19.998	9.096	0.446
96.500	111.061	80.005	20.009	100.529	19.996	9.418	0.442
97.000	111.277	80.006	20.009	100.523	19.996	9.382	0.446
97.500	111.496	80.005	20.010	100.514	19.996	9.455	0.434
98.001	111.749	80.005	20.009	100.509	19.994	9.765	0.454
98.501	111.991	80.005	20.009	100.508	19.996	9.418	0.484
99.000	112.286	80.004	20.009	100.516	19.997	9.206	0.516
99.500	112.504	80.005	20.009	100.529	19.996	9.383	0.524
100.001	112.738	80.005	20.009	100.540	20.000	8.782	0.482
100.501	112.982	80.005	20.009	100.546	19.994	9.677	0.465
101.001	113.235	80.004	20.009	100.542	19.994	9.648	0.488
101.501	113.489	80.005	20.009	100.532	19.993	9.830	0.502
102.000	113.738	80.005	20.009	100.520	19.994	9.700	0.505
102.500	113.976	80.006	20.009	100.510	19.994	9.719	0.495
103.000	114.230	80.005	20.009	100.507	19.993	9.889	0.490
103.500	114.500	80.005	20.009	100.511	19.993	9.937	0.508
104.000	114.721	80.005	20.009	100.522	19.991	10.130	0.507
104.500	115.014	80.005	20.009	100.538	20.000	8.698	0.502
105.000	115.319	80.005	20.009	100.550	19.992	10.058	0.556
105.500	115.529	80.006	20.009	100.554	19.995	9.575	0.557
106.000	115.731	80.005	20.009	100.546	19.993	9.863	0.464
106.500	115.993	80.005	20.010	100.530	19.994	9.633	0.438
107.000	116.262	80.006	20.009	100.507	19.996	9.442	0.497
107.500	116.533	80.004	20.010	100.493	19.992	10.092	0.536
108.000	116.752	80.005	20.009	100.486	19.995	9.597	0.514
108.500	117.082	80.004	20.009	100.488	19.995	9.590	0.519
109.000	117.295	80.006	20.009	100.498	19.992	9.964	0.546
109.500	117.569	80.005	20.009	100.509	19.991	10.241	0.515
110.000	117.852	80.005	20.009	100.513	19.990	10.368	0.522
110.500	118.133	80.004	20.009	100.513	19.991	10.112	0.561
111.000	118.388	80.005	20.009	100.510	19.989	10.426	0.550
111.500	118.591	80.005	20.009	100.504	19.992	9.992	0.497
112.000	118.832	80.005	20.009	100.496	19.994	9.687	0.451
112.501	119.148	80.005	20.009	100.493	19.992	9.960	0.501
113.001	119.387	80.005	20.009	100.494	19.992	9.985	0.556
113.500	119.635	80.005	20.010	100.499	19.993	9.845	0.521
114.001	119.924	80.005	20.009	100.508	19.994	9.658	0.512
114.501	120.177	80.005	20.009	100.519	19.994	9.699	0.539
115.000	120.438	80.003	20.009	100.521	19.994	9.630	0.528
115.500	120.741	80.006	20.009	100.519	19.994	9.707	0.539
116.000	120.967	80.005	20.010	100.508	19.992	10.091	0.547
116.500	121.257	80.004	20.009	100.493	19.991	10.173	0.523
117.000	121.502	80.004	20.009	100.486	19.993	9.832	0.526
117.500	121.784	80.005	20.009	100.486	19.993	9.878	0.530
118.000	122.069	80.004	20.009	100.494	19.994	9.737	0.547
118.500	122.285	80.005	20.009	100.509	19.991	10.175	0.534
119.000	122.566	80.006	20.009	100.523	19.995	9.548	0.499
119.500	122.844	80.004	20.009	100.523	19.992	9.956	0.528
120.001	123.044	80.005	20.009	100.520	19.991	10.153	0.518
120.501	123.368	80.004	20.009	100.507	19.991	10.200	0.501
121.000	123.722	80.004	20.010	100.497	19.988	10.650	0.601
121.500	123.971	80.005	20.009	100.488	19.991	10.104	0.640
122.000	124.281	80.004	20.009	100.489	19.991	10.194	0.581
122.500	124.546	80.005	20.009	100.490	19.990	10.357	0.567
123.000	124.838	80.005	20.009	100.498	19.989	10.491	0.566
123.500	125.130	80.004	20.009	100.504	19.994	9.745	0.570
124.000	125.349	80.005	20.009	100.507	19.988	10.714	0.548
124.500	125.685	80.004	20.010	100.503	20.002	8.465	0.533
125.000	125.904	80.005	20.010	100.495	19.992	10.075	0.555
125.500	126.203	80.005	20.009	100.485	19.989	10.555	0.537
126.000	126.461	80.006	20.009	100.473	19.989	10.414	0.538
126.500	126.757	80.004	20.009	100.472	19.988	10.609	0.556
127.000	126.996	80.005	20.009	100.475	19.990	10.348	0.544
127.500	127.272	80.005	20.009	100.483	19.987	10.774	0.525
128.000	127.624	80.006	20.010	100.490	19.986	10.935	0.571
128.500	127.853	80.005	20.009	100.498	19.986	10.896	0.604
129.000	128.118	80.005	20.009	100.492	19.987	10.753	0.537
129.500	128.456	80.006	20.010	100.484	19.990	10.362	0.548
130.000	128.718	80.005	20.010	100.474	19.987	10.829	0.601
130.500	129.021	80.004	20.010	100.466	19.988	10.624	0.583
131.000	129.261	80.004	20.009	100.459	19.990	10.349	0.554
131.500	129.598	80.006	20.009	100.464	19.988	10.639	0.560
132.000	129.827	80.004	20.009	100.472	19.985	11.036	0.571
132.500	130.147	80.006	20.009	100.481	19.988	10.700	0.557
133.000	130.389	80.005	20.009	100.485	19.988	10.594	0.555
133.500	130.704	80.006	20.010	100.483	19.988	10.685	0.560
134.000	131.014	80.004	20.009	100.476	19.990	10.257	0.591
134.500	131.293	80.005	20.009	100.464	19.988	10.587	0.607
135.000	131.568	80.006	20.009	100.456	19.988	10.579	0.572
135.500	131.842	80.005	20.009	100.452	19.991	10.181	0.551
136.000	132.084	80.005	20.009	100.460	19.989	10.468	0.532
136.500	132.398	80.005	20.010	100.470	19.989	10.535	0.536
137.000	132.663	80.005	20.009	100.487	19.990	10.346	0.568
137.500	132.942	80.006	20.009	100.496	19.993	9.830	0.562
138.000	133.207	80.005	20.009	100.503	19.990	10.372	0.544
138.500	133.536	80.004	20.009	100.495	20.000	8.701	0.569
139.000	133.839	80.005	20.009	100.484	20.002	8.507	0.613
139.500	134.120	80.005	20.009	100.467	20.001	8.563	0.608
140.000	134.348	80.006	20.010	100.459	19.992	10.037	0.546
140.500	134.675	80.004	20.009	100.455	19.989	10.456	0.532
141.000	134.958	80.006	20.009	100.462	19.986	10.973	0.583
141.500	135.223	80.003	20.009	100.469	19.989	10.533	0.579
142.000	135.557	80.005	20.009	100.474	19.986	10.897	0.573
142.500	135.853	80.004	20.009	100.473	19.991	10.207	0.615
143.000	136.116	80.005	20.009	100.464	19.991	10.188	0.594
143.500	136.384	80.003	20.009	100.449	19.988	10.698	0.545
144.000	136.679	80.005	20.009	100.437	19.989	10.540	0.547
144.500	136.957	80.005	20.009	100.433	19.987	10.802	0.568
145.000	137.283	80.005	20.009	100.433	19.989	10.541	0.588
145.500	137.515	80.005	20.009	100.443	19.986	10.901	0.581
146.000	137.846	80.004	20.009	100.451	19.987	10.754	0.561
146.500	138.120	80.006	20.009	100.459	19.988	10.702	0.584
147.000	138.432	80.004	20.009	100.457	19.989	10.466	0.596
147.500	138.698	80.004	20.009	100.451	19.988	10.626	0.582
148.000	138.991	80.005	20.010	100.440	19.987	10.733	0.568
148.500	139.303	80.004	20.010	100.432	19.991	10.118	0.582
149.000	139.590	80.005	20.010	100.429	19.988	10.578	0.602
149.500	139.887	80.005	20.009	100.432	19.988	10.583	0.592
150.000	140.179	80.006	20.009	100.442	19.989	10.489	0.586
150.500	140.486	80.004	20.009	100.458	19.988	10.663	0.594
151.000	140.800	80.006	20.009	100.473	19.990	10.401	0.611
151.500	141.040	80.004	20.009	100.479	19.989	10.448	0.588
152.001	141.350	80.006	20.009	100.480	19.989	10.480	0.552
152.500	141.627	80.005	20.009	100.471	19.990	10.380	0.569
153.000	141.907	80.006	20.010	100.456	19.989	10.449	0.572
153.500	142.221	80.005	20.010	100.443	19.988	10.671	0.575
154.000	142.582	80.005	20.009	100.440	19.985	11.073	0.635
154.500	142.800	80.004	20.009	100.441	19.986	10.982	0.627
155.000	143.039	80.005	20.009	100.449	19.986	10.905	0.518
155.500	143.301	80.005	20.009	100.458	19.985	11.176	0.479
156.000	143.617	80.004	20.009	100.461	19.986	10.914	0.539
156.500	143.950	80.006	20.009	100.457	19.985	11.062	0.614
157.000	144.221	80.004	20.009	100.448	19.986	10.963	0.627
157.500	144.521	80.006	20.010	100.437	19.985	11.087	0.587
158.000	144.797	80.005	20.009	100.427	19.986	10.896	0.573
158.500	145.153	80.004	20.010	100.420	19.985	11.068	0.604
159.000	145.426	80.005	20.009	100.422	19.983	11.433	0.631
159.500	145.731	80.006	20.009	100.430	19.984	11.188	0.603
160.000	146.013	80.005	20.009	100.438	19.984	11.231	0.583
160.500	146.266	80.004	20.009	100.444	19.986	10.959	0.561
161.000	146.587	80.005	20.009	100.444	19.983	11.414	0.554
161.500	146.833	80.005	20.010	100.436	19.984	11.245	0.571
162.000	147.091	80.006	20.009	100.425	19.982	11.599	0.536
162.500	147.456	80.007	20.010	100.413	19.980	11.862	0.563
163.000	147.658	80.004	20.010	100.406	19.983	11.448	0.595
163.500	147.959	80.005	20.010	100.411	19.977	12.387	0.535
164.000	148.263	80.005	20.009	100.422	19.977	12.396	0.554
164.500	148.561	80.005	20.009	100.433	19.978	12.248	0.604
165.000	148.846	80.005	20.009	100.444	19.978	12.219	0.592
165.500	149.099	80.006	20.009	100.446	19.980	11.970	0.560
166.000	149.391	80.003	20.010	100.440	19.979	12.092	0.542
166.500	149.695	80.005	20.009	100.426	19.980	11.946	0.570
167.000	149.937	80.004	20.009	100.411	19.979	12.063	0.570
167.500	150.262	80.005	20.009	100.402	19.978	12.172	0.556
168.000	150.520	80.005	20.009	100.402	19.979	12.120	0.575
168.500	150.872	80.005	20.010	100.407	19.978	12.284	0.596
169.000	151.130	80.006	20.009	100.420	19.987	10.859	0.610
169.500	151.391	80.004	20.009	100.435	19.979	12.109	0.565
170.000	151.706	80.004	20.009	100.445	19.976	12.454	0.548
170.500	151.968	80.004	20.009	100.445	19.975	12.728	0.576
171.000	152.228	80.005	20.009	100.436	19.987	10.839	0.549
171.500	152.551	80.005	20.009	100.421	19.981	11.687	0.553
172.000	152.795	80.006	20.010	100.406	19.981	11.678	0.575
172.500	153.068	80.005	20.009	100.395	19.969	13.685	0.542
173.000	153.378	80.004	20.009	100.395	19.970	13.494	0.550
173.500	153.649	80.004	20.009	100.402	19.969	13.593	0.582
174.000	153.983	80.006	20.009	100.414	19.968	13.755	0.593
174.500	154.225	80.005	20.009	100.425	19.969	13.601	0.591
175.000	154.482	80.004	20.009	100.429	19.968	13.801	0.537
175.500	154.777	80.004	20.009	100.428	19.968	13.859	0.526
176.000	155.023	80.005	20.009	100.419	19.968	13.817	0.547
176.500	155.361	80.004	20.009	100.406	19.967	13.964	0.563
177.000	155.652	80.005	20.009	100.398	19.965	14.314	0.607
177.500	155.932	80.005	20.009	100.394	19.963	14.595	0.600
178.000	156.211	80.006	20.009	100.396	19.964	14.373	0.565
178.500	156.496	80.006	20.009	100.406	19.965	14.241	0.561
179.000	156.736	80.005	20.009	100.421	19.962	14.729	0.544
179.500	157.012	80.004	20.009	100.429	19.959	15.156	0.520
180.000	157.287	80.004	20.009	100.430	19.957	15.571	0.533
180.500	157.546	80.006	20.009	100.422	19.957	15.570	0.543
181.000	157.830	80.005	20.009	100.408	19.959	15.194	0.539
181.500	158.149	80.005	20.009	100.388	19.958	15.322	0.573
182.000	158.427	80.005	20.009	100.377	19.957	15.488	0.600
182.500	158.686	80.005	20.010	100.374	19.958	15.420	0.567
183.000	158.980	80.005	20.009	100.382	19.957	15.574	0.545
183.500	159.283	80.005	20.009	100.392	19.955	15.856	0.575
184.000	159.559	80.005	20.009	100.405	19.956	15.616	0.588
184.500	159.780	80.004	20.009	100.414	19.953	16.160	0.538
185.000	160.144	80.006	20.009	100.419	19.962	14.718	0.541
185.500	160.388	80.005	20.009	100.414	19.953	16.160	0.596
186.000	160.700	80.005	20.009	100.406	19.948	16.912	0.582
186.500	160.968	80.004	20.009	100.397	19.954	15.968	0.568
187.000	161.242	80.005	20.009	100.389	19.961	14.954	0.561
187.500	161.459	80.005	20.009	100.383	19.960	15.056	0.516
188.000	161.767	80.004	20.009	100.386	19.957	15.485	0.507
188.500	161.988	80.006	20.010	100.394	19.958	15.290	0.527
189.000	162.359	80.004	20.008	100.403	19.958	15.403	0.561
189.500	162.599	80.005	20.009	100.406	19.947	17.081	0.601
190.000	162.933	80.004	20.010	100.403	19.946	17.197	0.592
190.500	163.155	80.005	20.010	100.390	19.944	17.523	0.565
191.000	163.490	80.005	20.009	100.375	19.944	17.548	0.557
191.500	163.726	80.005	20.010	100.359	19.943	17.678	0.564
192.000	164.016	80.004	20.009	100.349	19.942	17.901	0.548
192.500	164.284	80.006	20.009	100.351	19.943	17.692	0.542
193.000	164.555	80.005	20.009	100.358	19.942	17.886	0.549
193.500	164.834	80.006	20.009	100.373	19.940	18.141	0.545
194.000	165.108	80.004	20.009	100.381	19.939	18.311	0.552
194.500	165.417	80.004	20.009	100.387	19.937	18.679	0.568
195.000	165.669	80.004	20.009	100.383	19.939	18.361	0.572
195.500	165.940	80.005	20.009	100.373	19.938	18.440	0.542
196.000	166.201	80.006	20.010	100.357	19.938	18.531	0.527
196.500	166.487	80.004	20.009	100.349	19.937	18.707	0.540
197.000	166.781	80.004	20.009	100.349	19.933	19.252	0.564
197.500	167.058	80.005	20.009	100.353	19.937	18.736	0.575
198.000	167.348	80.004	20.009	100.363	19.936	18.762	0.569
198.500	167.605	80.005	20.009	100.374	19.933	19.229	0.557
199.000	167.944	80.005	20.009	100.382	19.934	19.117	0.572
199.500	168.165	80.005	20.009	100.382	19.936	18.889	0.578
200.000	168.452	80.005	20.009	100.380	19.933	19.301	0.534
200.500	168.730	80.005	20.009	100.371	19.933	19.274	0.537
201.001	168.945	80.005	20.010	100.361	19.934	19.149	0.529
201.500	169.234	80.007	20.009	100.353	19.933	19.287	0.498
202.000	169.508	80.004	20.009	100.352	19.933	19.237	0.533
202.500	169.700	80.005	20.009	100.357	19.934	19.156	0.515
203.000	170.025	80.005	20.009	100.371	19.936	18.787	0.492
203.500	170.315	80.004	20.009	100.386	19.935	18.906	0.565
204.000	170.524	80.004	20.009	100.399	19.936	18.839	0.557
204.500	170.871	80.005	20.009	100.400	19.935	19.009	0.528
205.000	171.160	80.004	20.009	100.396	19.936	18.877	0.596
205.500	171.474	80.005	20.009	100.384	19.936	18.887	0.619
206.000	171.675	80.005	20.009	100.369	19.938	18.572	0.559
206.500	171.965	80.005	20.010	100.359	19.935	19.005	0.504
207.000	172.211	80.005	20.009	100.360	19.937	18.700	0.514
207.500	172.543	80.005	20.009	100.364	19.935	19.026	0.557
208.000	172.815	80.004	20.009	100.376	19.935	19.048	0.591
208.500	173.063	80.005	20.009	100.389	19.936	18.816	0.562
209.000	173.369	80.006	20.009	100.395	19.937	18.597	0.536
209.500	173.629	80.005	20.009	100.389	19.936	18.841	0.560
210.000	173.882	80.004	20.009	100.379	19.933	19.310	0.540
210.500	174.167	80.004	20.009	100.367	19.934	19.061	0.526
211.000	174.386	80.005	20.010	100.361	19.936	18.828	0.520
211.500	174.696	80.004	20.009	100.362	19.936	18.828	0.516
212.000	174.960	80.005	20.010	100.371	19.939	18.264	0.551
212.500	175.224	80.005	20.009	100.385	19.937	18.728	0.551
213.000	175.471	80.005	20.009	100.390	19.939	18.316	0.520
213.500	175.773	80.005	20.009	100.390	19.941	18.081	0.530
214.000	176.048	80.005	20.009	100.382	19.939	18.275	0.563
214.500	176.275	80.005	20.009	100.370	19.940	18.229	0.539
215.000	176.578	80.005	20.010	100.355	19.941	17.982	0.516
215.500	176.833	80.005	20.009	100.351	19.942	17.867	0.545
216.000	177.059	80.004	20.009	100.356	19.942	17.909	0.520
216.500	177.321	80.004	20.009	100.367	19.937	18.629	0.484
217.000	177.656	80.005	20.009	100.382	19.940	18.172	0.542
217.500	177.835	80.004	20.010	100.398	19.943	17.657	0.555
218.000	178.164	80.006	20.010	100.409	19.943	17.673	0.511
218.500	178.462	80.005	20.009	100.406	19.948	16.911	0.567
219.000	178.727	80.005	20.009	100.402	19.952	16.231	0.595
219.500	178.974	80.005	20.010	100.396	19.954	15.911	0.538
220.000	179.257	80.005	20.011	100.388	19.943	17.683	0.521
220.500	179.532	80.004	20.010	100.386	19.947	17.163	0.544
221.000	179.769	80.006	20.010	100.393	19.947	17.038	0.535
221.500	180.021	80.004	20.010	100.401	19.950	16.534	0.500
222.000	180.299	80.005	20.010	100.409	19.951	16.451	0.510
222.500	180.603	80.004	20.010	100.412	19.950	16.589	0.556
223.000	180.879	80.005	20.010	100.407	19.952	16.378	0.581
223.500	181.116	80.005	20.009	100.391	19.950	16.539	0.547
224.000	181.354	80.005	20.010	100.377	19.949	16.769	0.494
224.500	181.631	80.006	20.010	100.362	19.952	16.359	0.495
225.000	181.876	80.005	20.009	100.359	19.954	15.941	0.519
225.500	182.122	80.005	20.010	100.359	19.952	16.310	0.507
226.000	182.366	80.005	20.010	100.367	19.955	15.870	0.490
226.500	182.667	80.005	20.010	100.375	19.956	15.625	0.517
227.000	182.910	80.005	20.009	100.382	19.957	15.493	0.544
227.500	183.195	80.004	20.010	100.383	19.957	15.472	0.536
228.000	183.472	80.005	20.011	100.382	19.958	15.410	0.545
228.501	183.716	80.005	20.010	100.376	19.959	15.167	0.542
229.000	183.966	80.004	20.010	100.367	19.961	14.955	0.507
229.500	184.214	80.004	20.010	100.365	19.964	14.351	0.496
230.001	184.513	80.006	20.011	100.365	19.961	14.849	0.522
230.500	184.767	80.004	20.010	100.374	19.964	14.489	0.550
231.000	185.051	80.005	20.010	100.387	19.964	14.396	0.546
231.500	185.291	80.004	20.010	100.400	19.964	14.447	0.532
232.000	185.515	80.004	20.010	100.402	19.974	12.871	0.494
232.500	185.783	80.006	20.010	100.402	19.982	11.640	0.478
233.000	186.004	80.004	20.010	100.388	19.973	12.954	0.490
233.500	186.327	80.004	20.010	100.372	19.966	14.106	0.516
234.000	186.569	80.004	20.011	100.359	19.967	13.917	0.554
234.500	186.818	80.005	20.009	100.358	19.968	13.706	0.528
235.000	186.993	80.004	20.011	100.357	19.971	13.266	0.458
235.500	187.271	80.004	20.010	100.366	19.974	12.796	0.439
236.000	187.571	80.004	20.010	100.379	19.972	13.164	0.516
236.500	187.806	80.005	20.010	100.387	19.971	13.353	0.556
237.000	188.077	80.003	20.011	100.388	19.976	12.472	0.520
237.500	188.341	80.005	20.010	100.386	19.979	12.085	0.520
238.000	188.641	80.005	20.009	100.378	19.980	11.848	0.550
238.500	188.833	80.005	20.010	100.373	19.977	12.320	0.528
239.000	189.264	80.004	20.010	100.373	19.981	11.786	0.557
239.501	189.409	80.004	20.011	100.382	19.981	11.689	0.600
240.000	189.683	80.006	20.010	100.391	19.981	11.727	0.498
240.500	189.872	80.005	20.010	100.409	19.979	12.008	0.441
241.000	190.192	80.005	20.010	100.417	19.982	11.631	0.486
241.500	190.554	80.004	20.010	100.418	19.985	11.140	0.596
242.000	190.707	80.005	20.011	100.411	19.984	11.249	0.598
242.500	190.970	80.005	20.010	100.404	19.985	11.168	0.465
243.000	191.114	80.006	20.009	100.393	19.986	10.986	0.412
243.500	191.473	80.004	20.009	100.390	19.988	10.656	0.455
244.000	191.689	80.005	20.009	100.395	19.987	10.755	0.539
244.500	191.989	80.005	20.009	100.402	19.987	10.859	0.546
245.000	192.267	80.006	20.009	100.409	19.986	10.903	0.547
245.500	192.493	80.005	20.009	100.411	19.988	10.701	0.541
246.000	192.726	80.007	20.010	100.406	19.988	10.638	0.481
246.500	192.967	80.004	20.010	100.395	19.985	11.039	0.466
247.000	193.237	80.005	20.009	100.382	19.991	10.209	0.493
247.500	193.446	80.005	20.009	100.373	19.988	10.586	0.495
248.000	193.744	80.006	20.009	100.370	19.990	10.259	0.493
248.500	193.951	80.005	20.009	100.375	19.992	9.930	0.506
249.000	194.228	80.005	20.009	100.384	19.988	10.592	0.495
249.500	194.468	80.004	20.010	100.397	19.996	9.373	0.500
250.000	194.745	80.005	20.009	100.398	19.996	9.424	0.517
250.500	195.075	80.004	20.009	100.396	19.999	8.897	0.562
251.000	195.294	80.006	20.009	100.388	20.006	7.750	0.578
251.500	195.555	80.006	20.009	100.381	19.996	9.436	0.515
252.000	195.767	80.005	20.009	100.373	19.995	9.561	0.476
252.500	196.070	80.004	20.009	100.374	19.995	9.453	0.494
253.000	196.368	80.006	20.010	100.381	19.994	9.744	0.558
253.500	196.612	80.005	20.009	100.389	19.993	9.904	0.572
254.000	196.891	80.004	20.010	100.389	19.993	9.804	0.532
254.500	197.121	80.005	20.010	100.386	19.994	9.710	0.515
255.001	197.378	80.005	20.010	100.377	19.996	9.335	0.498
255.501	197.614	80.004	20.010	100.363	19.994	9.680	0.490
256.000	197.909	80.005	20.009	100.350	19.994	9.736	0.512
256.500	198.128	80.006	20.010	100.343	19.995	9.524	0.523
257.000	198.405	80.005	20.011	100.340	19.995	9.501	0.505
257.500	198.663	80.005	20.009	100.343	19.996	9.370	0.516
258.000	198.934	80.005	20.010	100.352	19.995	9.525	0.532
258.500	199.158	80.005	20.009	100.360	19.997	9.155	0.512
259.000	199.442	80.005	20.011	100.366	20.002	8.455	0.501
259.500	199.692	80.005	20.010	100.372	20.002	8.475	0.521
260.000	199.957	80.005	20.009	100.376	19.999	8.851	0.524
260.500	200.216	80.005	20.010	100.376	20.003	8.270	0.520
261.000	200.435	80.005	20.010	100.378	20.002	8.440	0.501
261.500	200.670	80.005	20.009	100.388	20.000	8.743	0.466
262.000	200.958	80.006	20.009	100.405	20.000	8.815	0.488
262.500	201.165	80.005	20.009	100.421	19.999	8.969	0.509
263.000	201.430	80.001	20.012	100.433	19.999	8.887	0.483
263.500	201.724	80.006	20.007	100.469	19.999	8.905	0.515
264.000	201.920	80.004	20.014	100.435	20.000	8.751	0.524
264.500	202.220	80.005	20.010	100.376	20.000	8.820	0.493
265.000	202.464	80.005	20.005	100.330	20.004	8.139	0.520
265.500	202.674	80.006	20.014	100.276	20.005	7.917	0.499
266.000	202.951	80.005	20.012	100.219	20.003	8.310	0.471
266.500	203.187	80.005	20.008	100.290	20.006	7.860	0.500
267.000	203.450	80.005	20.008	100.390	20.004	8.181	0.506
267.500	203.720	80.005	20.009	100.456	20.004	8.191	0.516
268.000	203.967	80.006	20.009	100.513	20.002	8.497	0.525
268.500	204.216	80.005	20.009	100.530	20.006	7.749	0.506
269.000	204.470	80.006	20.010	100.485	20.007	7.675	0.500
269.500	204.691	80.005	20.009	100.428	20.009	7.307	0.489
270.000	204.931	80.006	20.009	100.398	20.004	8.126	0.468
270.500	205.224	80.005	20.010	100.391	20.008	7.449	0.497
271.000	205.454	80.006	20.009	100.401	20.007	7.627	0.528
271.500	205.651	80.005	20.009	100.410	20.006	7.864	0.475
272.000	205.979	80.005	20.009	100.416	20.007	7.638	0.476
272.500	206.197	80.006	20.009	100.411	20.006	7.758	0.535
273.000	206.406	80.005	20.009	100.404	20.007	7.631	0.487
273.500	206.666	80.004	20.009	100.395	20.008	7.440	0.448
274.000	206.878	80.005	20.009	100.388	20.011	7.003	0.470
274.500	207.182	80.005	20.009	100.390	20.006	7.863	0.494
275.000	207.469	80.007	20.009	100.404	20.007	7.573	0.554
275.500	207.683	80.004	20.009	100.420	20.009	7.400	0.546
276.000	207.955	80.005	20.009	100.435	20.013	6.667	0.493
276.500	208.163	80.006	20.010	100.446	20.011	7.087	0.483
277.000	208.437	80.005	20.008	100.445	20.007	7.601	0.481
277.500	208.649	80.004	20.010	100.433	20.008	7.543	0.484
278.000	208.925	80.005	20.010	100.418	20.010	7.142	0.487
278.500	209.149	80.005	20.009	100.405	20.008	7.472	0.494
279.001	209.373	80.006	20.009	100.397	20.007	7.572	0.474
279.500	209.614	80.005	20.009	100.397	20.007	7.566	0.456
280.000	209.894	80.005	20.009	100.401	20.011	7.014	0.493
280.500	210.108	80.005	20.010	100.401	20.009	7.298	0.508
281.000	210.378	80.004	20.010	100.396	20.008	7.501	0.489
281.500	210.667	80.005	20.010	100.383	20.008	7.457	0.522
282.000	210.903	80.005	20.009	100.369	20.006	7.769	0.542
282.500	211.125	80.005	20.009	100.355	20.004	8.145	0.491
283.000	211.368	80.005	20.010	100.347	20.005	7.967	0.461
283.500	211.620	80.006	20.010	100.344	20.001	8.618	0.480
284.000	211.863	80.006	20.010	100.351	20.003	8.329	0.495
284.500	212.139	80.003	20.010	100.359	20.003	8.217	0.507
285.000	212.375	80.004	20.010	100.366	20.004	8.141	0.516
285.500	212.614	80.005	20.010	100.370	20.003	8.281	0.493
286.000	212.860	80.005	20.010	100.365	20.005	7.884	0.480
286.500	213.147	80.006	20.011	100.358	20.003	8.276	0.509
287.000	213.361	80.006	20.010	100.350	20.004	8.058	0.517
287.500	213.608	80.005	20.009	100.343	20.001	8.534	0.481
288.000	213.870	80.004	20.011	100.347	20.005	7.984	0.485
288.500	214.063	80.004	20.010	100.356	20.001	8.591	0.482
289.000	214.355	80.005	20.010	100.364	20.003	8.262	0.470
289.500	214.584	80.005	20.010	100.363	20.002	8.473	0.503
290.000	214.862	80.006	20.010	100.362	20.002	8.429	0.514
290.500	215.096	80.005	20.009	100.350	20.004	8.138	0.510
291.000	215.312	80.004	20.009	100.340	20.004	8.124	0.481
291.500	215.580	80.005	20.009	100.333	20.004	8.070	0.467
292.000	215.851	80.005	20.009	100.337	20.006	7.737	0.512
292.500	216.112	80.004	20.009	100.345	20.005	7.920	0.536
293.000	216.353	80.006	20.009	100.357	20.004	8.115	0.517
293.500	216.559	80.004	20.009	100.366	20.005	7.953	0.474
294.000	216.841	80.004	20.009	100.366	20.004	8.064	0.467
294.500	217.090	80.005	20.009	100.357	20.003	8.227	0.510
295.000	217.347	80.005	20.009	100.343	20.004	8.124	0.519
295.500	217.619	80.005	20.010	100.327	20.005	7.913	0.518
296.000	217.908	80.005	20.010	100.320	20.008	7.562	0.545
296.500	218.174	80.005	20.009	100.324	20.007	7.709	0.558
297.000	218.370	80.005	20.009	100.336	20.006	7.862	0.508
297.500	218.616	80.004	20.009	100.351	20.008	7.553	0.452
298.000	218.861	80.006	20.010	100.364	20.007	7.567	0.467
298.500	219.105	80.005	20.009	100.365	20.005	7.935	0.490
299.000	219.333	80.005	20.010	100.359	20.005	8.035	0.480
299.500	219.534	80.005	20.009	100.344	20.006	7.861	0.450
300.000	219.815	80.006	20.009	100.329	20.002	8.377	0.455
300.500	220.063	80.006	20.009	100.323	20.005	7.937	0.505
301.000	220.342	80.004	20.010	100.323	20.003	8.246	0.528
301.500	220.586	80.004	20.009	100.328	20.005	7.919	0.525
302.000	220.832	80.005	20.009	100.337	20.005	7.930	0.507
302.500	221.087	80.005	20.009	100.344	20.006	7.778	0.495
303.000	221.363	80.005	20.010	100.341	20.007	7.635	0.516
303.500	221.558	80.005	20.010	100.332	20.007	7.626	0.501
304.000	221.858	80.004	20.010	100.321	20.008	7.535	0.484
304.500	222.046	80.005	20.010	100.311	20.007	7.631	0.492
305.000	222.318	80.005	20.009	100.309	20.005	7.893	0.474
305.500	222.535	80.005	20.009	100.315	20.007	7.673	0.474
306.000	222.859	80.005	20.009	100.331	20.004	8.060	0.515
306.500	223.048	80.005	20.009	100.347	20.005	7.997	0.527
307.000	223.290	80.005	20.009	100.356	20.005	7.911	0.472
307.500	223.573	80.005	20.009	100.358	20.007	7.695	0.478
308.000	223.812	80.006	20.009	100.355	20.004	8.075	0.524
308.500	224.085	80.004	20.010	100.345	20.007	7.604	0.517
309.000	224.319	80.005	20.009	100.336	20.006	7.757	0.509
309.500	224.564	80.005	20.009	100.335	20.009	7.340	0.493
310.001	224.830	80.005	20.009	100.341	20.005	7.886	0.495
310.501	225.047	80.004	20.009	100.351	20.005	8.012	0.497
311.001	225.287	80.005	20.009	100.361	20.007	7.696	0.470
311.500	225.558	80.005	20.009	100.370	20.005	8.006	0.484
312.000	225.869	80.005	20.009	100.374	20.006	7.853	0.546
312.500	226.044	80.005	20.010	100.368	20.005	7.983	0.534
313.000	226.336	80.006	20.009	100.358	20.005	7.979	0.477
313.500	226.574	80.005	20.009	100.351	20.006	7.871	0.499
314.000	226.854	80.005	20.010	100.343	20.006	7.737	0.524
314.500	227.086	80.004	20.010	100.346	20.004	8.040	0.515
315.000	227.330	80.005	20.009	100.358	20.005	7.917	0.494
315.500	227.553	80.006	20.009	100.369	20.006	7.794	0.471
316.000	227.831	80.004	20.009	100.377	20.007	7.595	0.484
316.500	228.095	80.005	20.009	100.383	20.008	7.462	0.522
317.000	228.316	80.006	20.009	100.374	20.007	7.716	0.513
317.500	228.565	80.004	20.009	100.361	20.008	7.505	0.477
318.000	228.808	80.006	20.010	100.351	20.007	7.595	0.481
318.500	229.082	80.005	20.010	100.344	20.006	7.837	0.505
319.000	229.345	80.006	20.010	100.347	20.007	7.570	0.527
319.500	229.596	80.005	20.009	100.356	20.006	7.874	0.525
320.000	229.837	80.005	20.009	100.367	20.008	7.544	0.503
320.501	230.105	80.004	20.009	100.375	20.008	7.419	0.500
321.000	230.289	80.005	20.009	100.375	20.007	7.576	0.480
321.500	230.559	80.005	20.009	100.367	20.007	7.633	0.453
322.000	230.766	80.004	20.010	100.358	20.008	7.440	0.466
322.500	231.027	80.005	20.010	100.349	20.008	7.496	0.473
323.000	231.294	80.005	20.010	100.341	20.008	7.538	0.498
323.501	231.551	80.005	20.009	100.340	20.010	7.131	0.526
324.000	231.771	80.005	20.009	100.343	20.009	7.251	0.500
324.500	232.040	80.004	20.009	100.346	20.010	7.155	0.483
325.000	232.296	80.005	20.009	100.346	20.009	7.369	0.507
325.500	232.557	80.004	20.009	100.343	20.008	7.453	0.521
326.000	232.776	80.005	20.009	100.335	20.008	7.521	0.498
326.501	233.018	80.005	20.010	100.325	20.010	7.207	0.471
327.001	233.303	80.005	20.009	100.315	20.009	7.310	0.494
327.500	233.536	80.004	20.009	100.313	20.009	7.348	0.523
328.000	233.766	80.005	20.009	100.316	20.011	7.011	0.490
328.500	234.037	80.006	20.009	100.323	20.009	7.270	0.482
329.000	234.243	80.005	20.009	100.330	20.008	7.557	0.489
329.500	234.531	80.006	20.009	100.338	20.009	7.299	0.486
330.000	234.783	80.006	20.009	100.339	20.010	7.106	0.517
330.500	235.034	80.005	20.009	100.333	20.009	7.340	0.522
331.000	235.275	80.005	20.010	100.325	20.008	7.427	0.498
331.500	235.532	80.005	20.011	100.318	20.009	7.356	0.495
332.001	235.803	80.005	20.010	100.315	20.011	7.052	0.513
332.500	236.065	80.004	20.009	100.315	20.009	7.345	0.530
333.000	236.336	80.006	20.009	100.323	20.010	7.228	0.533
333.501	236.552	80.005	20.009	100.337	20.010	7.152	0.510
334.001	236.820	80.006	20.009	100.346	20.009	7.280	0.486
334.501	237.119	80.004	20.009	100.350	20.010	7.184	0.526
335.001	237.324	80.005	20.010	100.350	20.012	6.811	0.536
335.500	237.596	80.006	20.009	100.346	20.008	7.467	0.490
336.000	237.816	80.004	20.009	100.332	20.010	7.136	0.484
336.500	238.107	80.005	20.009	100.325	20.008	7.465	0.501
337.001	238.351	80.004	20.009	100.325	20.010	7.188	0.523
337.501	238.634	80.005	20.009	100.329	20.010	7.245	0.530
338.000	238.905	80.005	20.009	100.338	20.010	7.205	0.540
338.500	239.100	80.004	20.009	100.353	20.011	6.943	0.511
339.000	239.379	80.005	20.009	100.360	20.011	7.070	0.471
339.500	239.608	80.005	20.009	100.358	20.010	7.193	0.491
340.000	239.956	80.005	20.009	100.347	20.009	7.300	0.542
340.500	240.158	80.005	20.010	100.332	20.009	7.369	0.564
341.000	240.431	80.005	20.009	100.317	20.009	7.328	0.513
341.500	240.692	80.004	20.010	100.313	20.009	7.284	0.504
342.000	240.933	80.006	20.009	100.318	20.009	7.285	0.517
342.500	241.175	80.005	20.009	100.333	20.012	6.899	0.492
343.000	241.432	80.005	20.009	100.346	20.012	6.783	0.491
343.500	241.697	80.005	20.009	100.355	20.009	7.389	0.511
344.000	241.967	80.004	20.009	100.355	20.007	7.599	0.529
344.500	242.233	80.006	20.010	100.344	20.006	7.738	0.535
345.000	242.470	80.004	20.010	100.330	20.008	7.497	0.519
345.500	242.712	80.005	20.009	100.325	20.010	7.200	0.491
346.000	242.975	80.005	20.009	100.329	20.005	7.900	0.492
346.500	243.283	80.005	20.009	100.339	20.005	7.881	0.538
347.000	243.473	80.005	20.009	100.354	20.007	7.605	0.535
347.500	243.761	80.005	20.009	100.366	20.007	7.609	0.488
348.000	244.018	80.006	20.009	100.366	20.010	7.139	0.512
348.500	244.315	80.005	20.009	100.360	20.011	7.035	0.549
349.000	244.540	80.005	20.010	100.346	20.012	6.781	0.538
349.500	244.824	80.004	20.009	100.335	20.014	6.565	0.516
350.000	245.075	80.006	20.009	100.330	20.012	6.935	0.522
350.500	245.290	80.004	20.009	100.331	20.013	6.736	0.500
351.000	245.548	80.006	20.009	100.335	20.012	6.857	0.470
351.500	245.809	80.004	20.009	100.344	20.009	7.332	0.496
352.000	246.069	80.005	20.009	100.351	20.010	7.229	0.520
352.500	246.285	80.004	20.009	100.350	20.010	7.159	0.499
353.000	246.525	80.005	20.009	100.346	20.011	7.074	0.466
353.500	246.776	80.005	20.009	100.335	20.010	7.205	0.473
354.000	247.066	80.006	20.010	100.325	20.007	7.570	0.516
354.500	247.366	80.005	20.009	100.322	20.010	7.184	0.566
355.000	247.584	80.006	20.009	100.326	20.009	7.372	0.554
355.500	247.851	80.005	20.009	100.334	20.008	7.450	0.501
356.000	248.086	80.005	20.009	100.342	20.006	7.789	0.493
356.501	248.301	80.004	20.009	100.342	20.005	8.028	0.476
357.001	248.586	80.005	20.009	100.334	20.007	7.659	0.475
357.500	248.798	80.005	20.009	100.323	20.009	7.381	0.499
358.000	249.121	80.006	20.010	100.311	20.007	7.707	0.516
358.500	249.394	80.005	20.009	100.308	20.006	7.757	0.565
359.000	249.626	80.005	20.009	100.313	20.006	7.760	0.550
359.500	249.820	80.006	20.009	100.321	20.007	7.694	0.466
360.000	250.105	80.003	20.009	100.330	20.006	7.833	0.453
360.501	250.346	80.006	20.009	100.337	20.005	7.949	0.503
361.000	250.600	80.005	20.010	100.334	20.005	7.964	0.511
361.500	250.865	80.005	20.010	100.327	20.000	8.800	0.507
362.000	251.072	80.005	20.009	100.325	20.001	8.580	0.495
362.500	251.391	80.002	20.010	100.328	20.004	8.045	0.499
363.000	251.610	80.006	20.009	100.373	20.003	8.205	0.532
363.500	251.866	80.004	20.012	100.342	20.006	7.743	0.507
364.000	252.157	80.006	20.010	100.310	20.006	7.797	0.511
364.500	252.392	80.002	20.007	100.283	20.009	7.300	0.536
365.000	252.638	80.008	20.012	100.248	20.006	7.826	0.503
365.500	252.880	80.004	20.011	100.152	20.008	7.426	0.484
366.000	253.140	80.006	20.009	100.224	20.008	7.513	0.495
366.500	253.433	80.005	20.008	100.324	20.009	7.387	0.528
367.000	253.653	80.005	20.009	100.398	20.008	7.448	0.533
367.500	253.899	80.004	20.009	100.459	20.006	7.741	0.490
368.000	254.167	80.005	20.009	100.523	20.005	7.921	0.490
368.500	254.408	80.004	20.008	100.490	20.005	7.894	0.511
369.000	254.613	80.005	20.008	100.427	20.007	7.564	0.478
369.500	254.940	80.005	20.009	100.372	20.005	7.917	0.489
370.000	255.134	80.005	20.009	100.335	20.007	7.681	0.526
370.500	255.397	80.006	20.009	100.315	20.005	7.952	0.489
371.001	255.659	80.004	20.009	100.307	20.007	7.650	0.491
371.501	255.931	80.005	20.009	100.310	20.007	7.644	0.530
372.000	256.146	80.005	20.009	100.313	20.007	7.587	0.510
372.500	256.354	80.004	20.009	100.313	20.005	7.957	0.454
373.000	256.622	80.004	20.009	100.304	20.005	7.963	0.450
373.500	256.872	80.004	20.009	100.295	20.006	7.862	0.497
374.000	257.133	80.006	20.009	100.280	20.010	7.195	0.514
374.500	257.370	80.005	20.010	100.273	20.007	7.652	0.505
375.000	257.637	80.005	20.009	100.275	20.007	7.712	0.501
375.500	257.893	80.005	20.009	100.287	20.005	7.968	0.514
376.000	258.098	80.006	20.010	100.297	20.004	8.138	0.492
376.500	258.378	80.005	20.009	100.306	20.001	8.507	0.473
377.000	258.600	80.006	20.009	100.310	19.999	8.883	0.493
377.500	258.859	80.005	20.009	100.309	20.004	8.153	0.491
378.000	259.140	80.005	20.010	100.304	19.998	9.046	0.510
378.500	259.378	80.006	20.010	100.301	19.996	9.303	0.530
379.000	259.613	80.005	20.009	100.304	19.996	9.347	0.497
379.500	259.875	80.004	20.009	100.312	19.998	9.045	0.485
380.000	260.182	80.004	20.009	100.319	19.999	8.915	0.533
380.500	260.389	80.005	20.009	100.326	20.001	8.595	0.541
381.000	260.643	80.005	20.009	100.327	19.998	9.087	0.488
381.500	260.911	80.005	20.009	100.322	19.997	9.160	0.492
382.000	261.148	80.004	20.010	100.315	19.999	8.904	0.514
382.500	261.381	80.004	20.010	100.316	19.995	9.462	0.487
383.000	261.642	80.005	20.009	100.325	19.997	9.203	0.482
383.500	261.869	80.005	20.008	100.338	19.996	9.397	0.491
384.000	262.101	80.004	20.009	100.353	19.996	9.403	0.474
384.500	262.340	80.006	20.009	100.361	19.994	9.717	0.465
385.000	262.601	80.004	20.009	100.361	19.997	9.149	0.486
385.501	262.875	80.004	20.009	100.352	19.993	9.869	0.517
386.000	263.104	80.005	20.009	100.343	19.995	9.566	0.518
386.500	263.277	80.005	20.009	100.335	19.992	9.926	0.452
387.000	263.587	80.005	20.009	100.336	19.991	10.166	0.443
387.500	263.840	80.005	20.009	100.336	19.990	10.360	0.523
388.000	264.075	80.004	20.008	100.337	19.990	10.356	0.525
388.500	264.340	80.005	20.010	100.332	19.990	10.332	0.494
389.000	264.626	80.005	20.010	100.326	19.989	10.468	0.525
389.500	264.889	80.004	20.010	100.317	19.988	10.708	0.550
390.000	265.152	80.005	20.009	100.308	19.985	11.032	0.537
390.500	265.365	80.005	20.009	100.303	19.987	10.856	0.501
391.000	265.605	80.006	20.009	100.310	19.985	11.100	0.465
391.501	265.908	80.004	20.009	100.318	19.989	10.503	0.498
392.000	266.133	80.005	20.009	100.326	19.988	10.655	0.536
392.500	266.356	80.004	20.009	100.335	19.987	10.757	0.488
393.000	266.567	80.005	20.009	100.337	19.985	11.046	0.441
393.500	266.859	80.005	20.009	100.328	19.983	11.399	0.468
394.000	267.056	80.005	20.010	100.322	19.983	11.353	0.496
394.500	267.318	80.005	20.008	100.321	19.982	11.541	0.474
395.000	267.544	80.003	20.009	100.324	19.983	11.417	0.474
395.501	267.797	80.006	20.009	100.334	19.980	11.813	0.483
396.000	268.108	80.004	20.009	100.347	19.982	11.502	0.521
396.500	268.357	80.004	20.009	100.354	19.981	11.731	0.562
397.000	268.600	80.006	20.009	100.354	19.980	11.904	0.526
397.500	268.852	80.004	20.009	100.351	19.980	11.828	0.493
398.000	269.034	80.005	20.009	100.344	19.980	11.870	0.464
398.500	269.322	80.006	20.010	100.339	19.979	12.117	0.452
399.000	269.552	80.003	20.008	100.343	19.979	12.094	0.494
399.500	269.815	80.004	20.009	100.348	19.978	12.277	0.506
400.000	270.001	80.005	20.009	100.348	19.976	12.593	0.471
400.500	270.318	80.005	20.009	100.348	19.976	12.558	0.476
401.000	270.520	80.005	20.009	100.344	19.979	12.039	0.511
401.500	270.760	80.005	20.009	100.337	19.975	12.606	0.481
402.000	271.007	80.004	20.009	100.332	19.973	13.037	0.464
402.500	271.257	80.005	20.010	100.337	19.974	12.904	0.492
403.000	271.521	80.003	20.009	100.344	19.972	13.175	0.505
403.500	271.758	80.004	20.009	100.350	19.974	12.894	0.508
404.001	271.944	80.005	20.008	100.355	19.972	13.149	0.462
404.501	272.257	80.005	20.010	100.348	19.971	13.275	0.461
405.000	272.494	80.006	20.009	100.336	19.972	13.171	0.524
405.500	272.762	80.003	20.009	100.321	19.970	13.493	0.527
406.000	272.961	80.006	20.010	100.315	19.966	14.010	0.486
406.500	273.243	80.005	20.009	100.315	19.967	13.906	0.474
407.000	273.473	80.006	20.009	100.322	19.963	14.595	0.496
407.500	273.748	80.004	20.009	100.329	19.966	14.144	0.508
408.000	274.008	80.005	20.009	100.331	19.964	14.347	0.520
408.500	274.237	80.005	20.010	100.323	19.961	14.823	0.512
409.000	274.489	80.005	20.010	100.313	19.962	14.741	0.486
409.500	274.737	80.004	20.009	100.305	19.962	14.783	0.491
410.000	274.967	80.005	20.009	100.303	19.962	14.642	0.489
410.500	275.254	80.004	20.009	100.309	19.959	15.117	0.497
411.000	275.463	80.004	20.010	100.321	19.960	15.031	0.507
411.500	275.702	80.005	20.009	100.331	19.958	15.403	0.472
412.000	276.054	80.005	20.009	100.333	19.959	15.129	0.519
412.500	276.256	80.006	20.010	100.328	19.959	15.239	0.572
413.000	276.527	80.005	20.010	100.320	19.956	15.689	0.514
413.500	276.783	80.006	20.009	100.313	19.958	15.375	0.500
414.000	276.994	80.006	20.009	100.313	19.956	15.696	0.496
414.500	277.263	80.005	20.010	100.318	19.955	15.863	0.473
415.000	277.497	80.004	20.009	100.327	19.951	16.497	0.492
415.500	277.791	80.004	20.009	100.334	19.953	16.203	0.516
416.000	277.979	80.007	20.009	100.339	19.950	16.564	0.505
416.500	278.298	80.005	20.010	100.330	19.954	16.050	0.494
417.000	278.554	80.004	20.009	100.322	19.950	16.568	0.541
417.500	278.800	80.006	20.009	100.314	19.951	16.489	0.539
418.000	279.051	80.005	20.009	100.307	19.948	16.853	0.500
418.500	279.291	80.004	20.009	100.299	19.945	17.466	0.494
419.000	279.537	80.006	20.009	100.302	19.945	17.335	0.488
419.500	279.805	80.005	20.009	100.300	19.943	17.779	0.500
420.000	280.077	80.006	20.009	100.293	19.945	17.350	0.527
420.500	280.282	80.005	20.010	100.285	19.946	17.203	0.508
421.000	280.578	80.005	20.010	100.282	19.942	17.796	0.489
421.500	280.818	80.004	20.010	100.281	19.943	17.663	0.518
422.000	281.065	80.005	20.009	100.289	19.941	18.091	0.511
422.500	281.290	80.004	20.009	100.307	19.944	17.496	0.480
423.000	281.557	80.006	20.009	100.322	19.943	17.669	0.482
423.500	281.800	80.006	20.009	100.332	19.943	17.758	0.501
424.000	282.020	80.005	20.009	100.334	19.943	17.687	0.486
424.500	282.309	80.005	20.009	100.330	19.942	17.796	0.486
425.000	282.543	80.006	20.009	100.324	19.944	17.576	0.516
425.500	282.809	80.006	20.009	100.323	19.939	18.263	0.512
426.000	283.091	80.005	20.009	100.326	19.940	18.107	0.525
426.500	283.328	80.005	20.009	100.339	19.940	18.221	0.534
427.000	283.585	80.005	20.009	100.349	19.941	18.044	0.506
427.500	283.784	80.004	20.010	100.352	19.941	18.049	0.475
428.000	284.083	80.004	20.009	100.352	19.939	18.409	0.477
428.500	284.322	80.005	20.009	100.349	19.937	18.679	0.518
429.001	284.546	80.005	20.010	100.338	19.937	18.577	0.500
429.500	284.811	80.005	20.010	100.333	19.936	18.839	0.476
430.000	285.034	80.005	20.010	100.339	19.936	18.812	0.488
430.500	285.284	80.005	20.008	100.346	19.937	18.619	0.480
431.000	285.515	80.005	20.009	100.349	19.936	18.789	0.477
431.500	285.766	80.005	20.009	100.351	19.937	18.624	0.481
432.001	286.038	80.006	20.009	100.342	19.936	18.870	0.502
432.501	286.264	80.004	20.009	100.328	19.938	18.485	0.511
433.000	286.502	80.006	20.010	100.313	19.936	18.845	0.481
433.500	286.780	80.005	20.009	100.310	19.934	19.060	0.490
434.000	287.027	80.005	20.009	100.314	19.935	19.013	0.521
434.500	287.235	80.005	20.009	100.329	19.932	19.384	0.490
435.000	287.461	80.004	20.009	100.340	19.932	19.390	0.444
435.500	287.731	80.005	20.011	100.349	19.932	19.383	0.465
436.000	287.976	80.004	20.010	100.348	19.934	19.202	0.506
436.500	288.249	80.005	20.009	100.342	19.934	19.140	0.516
437.000	288.472	80.005	20.009	100.334	19.930	19.729	0.507
437.500	288.738	80.005	20.009	100.332	19.929	19.958	0.493
438.000	289.000	80.004	20.009	100.331	19.931	19.614	0.509
438.500	289.289	80.006	20.009	100.334	19.927	20.278	0.539
439.001	289.576	80.005	20.009	100.338	19.928	20.121	0.563
439.500	289.788	80.005	20.009	100.338	19.930	19.742	0.537
440.000	290.062	80.005	20.009	100.336	19.928	20.094	0.493
440.500	290.319	80.005	20.009	100.331	19.925	20.593	0.508
441.000	290.582	80.004	20.009	100.330	19.926	20.353	0.525
441.500	290.853	80.005	20.009	100.330	19.927	20.174	0.527
442.000	291.054	80.004	20.009	100.339	19.926	20.332	0.503
442.500	291.319	80.004	20.008	100.348	19.924	20.664	0.470
443.001	291.578	80.005	20.009	100.361	19.927	20.305	0.495
443.500	291.852	80.005	20.009	100.367	19.922	20.982	0.528
444.000	292.109	80.006	20.009	100.367	19.922	21.050	0.532
444.500	292.291	80.005	20.009	100.359	19.924	20.732	0.485
445.000	292.597	80.007	20.009	100.351	19.921	21.109	0.463
445.500	292.833	80.004	20.009	100.345	19.922	21.032	0.515
446.000	293.136	80.005	20.009	100.345	19.923	20.851	0.541
446.500	293.320	80.005	20.009	100.351	19.922	20.969	0.513
447.000	293.632	80.004	20.009	100.353	19.924	20.742	0.491
447.500	293.909	80.005	20.009	100.355	19.923	20.814	0.542
448.000	294.128	80.005	20.009	100.355	19.923	20.926	0.543
448.500	294.372	80.005	20.009	100.349	19.924	20.725	0.480
449.000	294.613	80.005	20.010	100.347	19.923	20.928	0.474
449.500	294.858	80.005	20.009	100.354	19.921	21.098	0.485
450.000	295.124	80.006	20.009	100.364	19.925	20.611	0.499
450.500	295.363	80.005	20.009	100.378	19.923	20.898	0.508
451.001	295.639	80.005	20.009	100.388	19.923	20.904	0.510
451.500	295.995	80.006	20.009	100.391	19.925	20.566	0.573
452.000	296.166	80.005	20.009	100.389	19.921	21.098	0.580
452.500	296.439	80.004	20.009	100.381	19.921	21.169	0.486
453.000	296.681	80.005	20.010	100.370	19.919	21.406	0.479
453.500	296.877	80.006	20.009	100.369	19.918	21.659	0.476
454.000	297.172	80.005	20.009	100.369	19.920	21.362	0.464
454.500	297.420	80.004	20.009	100.373	19.916	21.920	0.517
455.000	297.667	80.005	20.009	100.377	19.916	21.985	0.519
455.500	297.927	80.005	20.010	100.374	19.917	21.854	0.502
456.000	298.195	80.005	20.010	100.362	19.916	21.995	0.517
456.500	298.444	80.005	20.010	100.347	19.914	22.192	0.522
457.000	298.637	80.004	20.009	100.337	19.915	22.157	0.479
457.500	298.949	80.005	20.009	100.330	19.913	22.450	0.474
458.000	299.156	80.005	20.008	100.333	19.913	22.359	0.512
458.500	299.420	80.005	20.009	100.345	19.916	21.931	0.495
459.000	299.651	80.005	20.009	100.359	19.913	22.475	0.483
459.500	299.883	80.005	20.009	100.362	19.912	22.525	0.479
460.000	300.150	80.006	20.010	100.363	19.912	22.539	0.481
460.500	300.434	80.006	20.010	100.358	19.913	22.438	0.525
461.000	300.647	80.005	20.010	100.349	19.913	22.449	0.524
461.500	300.928	80.005	20.009	100.344	19.908	23.257	0.495
462.000	301.180	80.006	20.009	100.342	19.909	23.045	0.513
462.500	301.394	80.006	20.010	100.342	19.907	23.367	0.499
463.000	301.679	80.005	20.009	100.342	19.905	23.612	0.483
463.500	301.949	80.005	20.009	100.343	19.902	24.229	0.527
464.000	302.223	80.006	20.009	100.340	19.906	23.541	0.550
464.500	302.402	80.005	20.010	100.334	19.905	23.729	0.498
465.000	302.656	80.004	20.010	100.325	19.903	24.060	0.442
465.500	302.884	80.005	20.009	100.317	19.900	24.486	0.457
466.000	303.195	80.005	20.009	100.316	19.899	24.624	0.511
466.500	303.471	80.005	20.009	100.318	19.901	24.303	0.563
467.000	303.651	80.004	20.009	100.330	19.901	24.251	0.521
467.500	303.927	80.005	20.009	100.339	19.898	24.825	0.456
468.000	304.211	80.005	20.009	100.346	19.896	25.064	0.508
468.500	304.396	80.005	20.010	100.338	19.894	25.402	0.515
469.000	304.605	80.004	20.009	100.330	19.893	25.513	0.431
469.500	304.824	80.006	20.009	100.317	19.891	25.891	0.411
470.000	305.139	80.005	20.009	100.308	19.888	26.329	0.481
470.500	305.303	80.006	20.009	100.309	19.886	26.654	0.506
471.000	305.621	80.005	20.009	100.317	19.884	27.063	0.480
471.500	305.877	80.005	20.009	100.324	19.886	26.718	0.528
472.000	306.081	80.006	20.009	100.328	19.885	26.863	0.517
472.500	306.295	80.005	20.009	100.328	19.880	27.555	0.439
473.001	306.602	80.006	20.010	100.321	19.882	27.362	0.469
473.500	306.856	80.005	20.010	100.312	19.881	27.527	0.542
474.000	307.114	80.005	20.010	100.305	19.878	27.906	0.536
474.500	307.401	80.005	20.010	100.309	19.879	27.720	0.528
475.000	307.595	80.004	20.010	100.318	19.876	28.242	0.513
475.500	307.851	80.004	20.009	100.326	19.876	28.320	0.465
476.000	308.143	80.005	20.009	100.334	19.874	28.570	0.499
476.500	308.399	80.006	20.009	100.336	19.874	28.571	0.549
477.000	308.634	80.005	20.010	100.327	19.869	29.374	0.520
477.500	308.890	80.005	20.009	100.318	19.865	29.937	0.491
478.000	309.125	80.005	20.009	100.310	19.864	30.150	0.491
478.500	309.366	80.005	20.009	100.307	19.861	30.559	0.484
479.000	309.603	80.004	20.009	100.314	19.860	30.846	0.477
479.500	309.831	80.005	20.009	100.323	19.860	30.777	0.471
480.000	310.108	80.005	20.009	100.330	19.857	31.307	0.484
480.501	310.374	80.007	20.009	100.332	19.854	31.697	0.524
481.000	310.611	80.005	20.009	100.328	19.852	31.964	0.523
481.500	310.829	80.005	20.009	100.320	19.849	32.490	0.479
482.000	311.049	80.007	20.009	100.312	19.845	33.104	0.446
482.500	311.370	80.005	20.009	100.305	19.843	33.384	0.490
483.000	311.675	80.005	20.009	100.309	19.841	33.728	0.583
483.500	311.910	80.006	20.009	100.317	19.844	33.301	0.583
484.000	312.109	80.005	20.009	100.325	19.840	33.898	0.487
484.500	312.370	80.005	20.009	100.333	19.838	34.287	0.447
485.000	312.626	80.005	20.009	100.339	19.834	34.805	0.488
485.500	312.876	80.005	20.009	100.334	19.832	35.169	0.511
486.000	313.073	80.006	20.010	100.325	19.829	35.608	0.476
486.500	313.299	80.005	20.010	100.317	19.828	35.770	0.435
487.000	313.544	80.004	20.009	100.315	19.826	36.056	0.447
487.500	313.831	80.006	20.009	100.317	19.821	36.947	0.502
488.000	314.081	80.005	20.009	100.323	19.819	37.149	0.534
488.500	314.300	80.005	20.009	100.330	19.817	37.518	0.503
489.000	314.587	80.006	20.009	100.330	19.810	38.598	0.488
489.500	314.861	80.005	20.009	100.331	19.808	38.886	0.534
490.000	315.062	80.006	20.009	100.330	19.806	39.303	0.518
490.500	315.379	80.005	20.009	100.330	19.803	39.718	0.497
491.000	315.574	80.005	20.010	100.332	19.799	40.276	0.515
491.500	315.860	80.005	20.009	100.338	19.796	40.802	0.496
492.000	316.155	80.005	20.009	100.341	19.788	42.145	0.531
492.500	316.359	80.005	20.009	100.341	19.789	41.912	0.540
493.000	316.647	80.005	20.009	100.333	19.787	42.242	0.495
493.500	316.821	80.004	20.009	100.323	19.780	43.304	0.477
494.000	317.071	80.005	20.009	100.311	19.780	43.368	0.443
494.500	317.314	80.005	20.010	100.300	19.775	44.071	0.459
495.000	317.611	80.005	20.009	100.293	19.769	45.050	0.516
495.500	317.856	80.006	20.009	100.296	19.770	44.942	0.541
496.000	318.150	80.005	20.009	100.306	19.762	46.143	0.540
496.500	318.374	80.006	20.009	100.315	19.761	46.329	0.529
497.000	318.629	80.005	20.009	100.317	19.755	47.241	0.499
497.500	318.885	80.006	20.009	100.315	19.752	47.663	0.495
498.000	319.111	80.004	20.010	100.308	19.747	48.479	0.497
498.500	319.287	80.006	20.010	100.301	19.746	48.618	0.442
499.000	319.609	80.005	20.009	100.299	19.741	49.502	0.449
499.500	319.904	80.006	20.010	100.306	19.734	50.598	0.557
500.000	320.219	80.005	20.008	100.314	19.731	51.029	0.614
500.500	320.429	80.004	20.009	100.319	19.726	51.772	0.568
501.000	320.650	80.004	20.009	100.313	19.722	52.476	0.478
501.500	320.880	80.006	20.009	100.302	19.721	52.600	0.441
502.000	321.143	80.005	20.009	100.287	19.714	53.721	0.472
502.500	321.475	80.005	20.010	100.272	19.710	54.332	0.544
503.000	321.673	80.006	20.009	100.266	19.705	55.180	0.562
503.500	321.941	80.005	20.009	100.271	19.700	55.949	0.498
504.000	322.172	80.005	20.009	100.277	19.697	56.341	0.482
504.500	322.412	80.005	20.009	100.285	19.693	56.925	0.485
505.000	322.672	80.004	20.009	100.292	19.689	57.588	0.486
505.500	322.949	80.006	20.010	100.293	19.683	58.528	0.519
506.000	323.155	80.004	20.010	100.287	19.679	59.194	0.510
506.500	323.444	80.005	20.009	100.284	19.675	59.868	0.489
507.000	323.643	80.005	20.009	100.286	19.669	60.797	0.491
507.500	323.951	80.004	20.009	100.287	19.666	61.238	0.498
508.000	324.145	80.006	20.009	100.292	19.660	62.178	0.505
508.500	324.457	80.006	20.009	100.298	19.655	62.999	0.504
509.000	324.704	80.004	20.008	100.300	19.651	63.653	0.533
509.500	324.977	80.005	20.009	100.293	19.646	64.388	0.540
510.000	325.205	80.005	20.010	100.285	19.640	65.282	0.511
510.500	325.477	80.004	20.009	100.281	19.637	65.787	0.501
511.000	325.724	80.005	20.010	100.282	19.632	66.644	0.509
511.500	325.917	80.005	20.009	100.287	19.627	67.372	0.479
512.000	326.244	80.005	20.009	100.296	19.621	68.380	0.480
512.500	326.473	80.006	20.009	100.302	19.618	68.776	0.538
513.000	326.685	80.005	20.009	100.297	19.611	69.899	0.499
513.500	326.967	80.006	20.009	100.286	19.604	70.938	0.468
514.000	327.198	80.005	20.009	100.268	19.603	71.199	0.503
514.500	327.484	80.006	20.009	100.258	19.594	72.566	0.515
515.001	327.725	80.005	20.009	100.256	19.590	73.176	0.522
515.500	327.919	80.006	20.009	100.264	19.586	73.781	0.481
516.000	328.246	80.004	20.009	100.273	19.577	75.207	0.478
516.500	328.477	80.004	20.009	100.279	19.572	76.055	0.540
517.000	328.723	80.006	20.009	100.277	19.568	76.597	0.518
517.500	329.029	80.005	20.009	100.267	19.560	77.856	0.515
518.000	329.274	80.006	20.010	100.251	19.554	78.837	0.551
518.500	329.489	80.006	20.009	100.240	19.551	79.337	0.506
519.000	329.761	80.005	20.009	100.240	19.545	80.197	0.474
519.500	329.975	80.005	20.009	100.243	19.541	80.801	0.486
520.000	330.266	80.006	20.009	100.249	19.535	81.779	0.495
520.500	330.565	80.005	20.009	100.256	19.529	82.733	0.548
521.000	330.763	80.005	20.009	100.257	19.523	83.682	0.544
521.500	331.032	80.004	20.010	100.249	19.518	84.408	0.482
522.000	331.230	80.006	20.010	100.242	19.514	85.117	0.467
522.500	331.557	80.005	20.009	100.236	19.510	85.716	0.496
523.000	331.772	80.005	20.009	100.237	19.504	86.612	0.534
523.500	332.025	80.006	20.009	100.241	19.498	87.614	0.505
524.000	332.264	80.004	20.009	100.248	19.490	88.924	0.480
524.500	332.509	80.005	20.009	100.251	19.488	89.224	0.488
525.000	332.718	80.006	20.009	100.250	19.480	90.382	0.469
525.500	333.008	80.005	20.009	100.240	19.477	90.908	0.477
526.000	333.260	80.005	20.010	100.232	19.472	91.696	0.520
526.500	333.535	80.006	20.009	100.227	19.468	92.308	0.534
527.000	333.774	80.005	20.009	100.233	19.463	93.105	0.521
527.500	334.045	80.005	20.009	100.241	19.457	94.110	0.512
528.000	334.280	80.005	20.009	100.251	19.451	95.044	0.508
528.501	334.555	80.005	20.009	100.258	19.446	95.794	0.508
529.000	334.818	80.005	20.009	100.256	19.438	97.075	0.524
529.500	335.003	80.005	20.010	100.246	19.433	97.848	0.493
530.000	335.365	80.005	20.009	100.231	19.426	98.896	0.498
530.500	335.546	80.006	20.009	100.223	19.421	99.739	0.545
531.000	335.820	80.005	20.009	100.217	19.415	100.640	0.499
531.500	336.100	80.005	20.009	100.218	19.411	101.353	0.505
532.000	336.299	80.005	20.009	100.220	19.407	101.948	0.517
532.500	336.538	80.006	20.009	100.226	19.397	103.517	0.458
533.000	336.807	80.005	20.010	100.220	19.390	104.537	0.473
533.501	336.998	80.006	20.009	100.211	19.386	105.231	0.483
534.001	337.234	80.005	20.010	100.203	19.382	105.865	0.443
534.500	337.534	80.006	20.010	100.199	19.376	106.743	0.482
535.000	337.852	80.004	20.009	100.199	19.372	107.418	0.578
535.500	338.057	80.006	20.009	100.211	19.366	108.444	0.571
536.000	338.332	80.005	20.009	100.224	19.362	109.083	0.502
536.500	338.558	80.006	20.009	100.232	19.357	109.789	0.490
537.000	338.859	80.004	20.010	100.230	19.351	110.783	0.513
537.500	339.118	80.005	20.009	100.226	19.346	111.568	0.543
538.000	339.414	80.006	20.010	100.219	19.339	112.681	0.558
538.500	339.623	80.005	20.010	100.214	19.334	113.444	0.530
539.000	339.938	80.004	20.009	100.221	19.329	114.223	0.515
539.500	340.142	80.006	20.009	100.234	19.324	114.933	0.522
540.000	340.379	80.005	20.009	100.240	19.317	116.090	0.480
540.500	340.662	80.005	20.009	100.235	19.314	116.506	0.481
541.000	340.892	80.005	20.009	100.226	19.306	117.773	0.516
541.500	341.146	80.004	20.009	100.210	19.304	118.067	0.498
542.000	341.481	80.005	20.010	100.189	19.299	118.960	0.536
542.500	341.723	80.006	20.010	100.180	19.295	119.542	0.583
543.000	342.022	80.006	20.009	100.183	19.288	120.578	0.559
543.500	342.223	80.005	20.009	100.191	19.286	120.994	0.521
544.000	342.424	80.006	20.009	100.200	19.280	121.890	0.451
544.500	342.741	80.005	20.010	100.214	19.274	122.845	0.460
545.000	342.986	80.005	20.009	100.219	19.269	123.647	0.540
545.500	343.194	80.005	20.009	100.214	19.266	124.110	0.508
546.000	343.405	80.004	20.010	100.206	19.264	124.392	0.436
546.500	343.733	80.005	20.010	100.201	19.258	125.390	0.479
547.000	343.953	80.005	20.009	100.200	19.258	125.428	0.543
547.500	344.157	80.006	20.009	100.205	19.249	126.760	0.486
548.000	344.474	80.004	20.009	100.220	19.247	127.130	0.473
548.500	344.711	80.005	20.009	100.236	19.242	127.851	0.538
549.000	344.905	80.004	20.009	100.248	19.236	128.802	0.493
549.500	345.195	80.004	20.009	100.248	19.232	129.482	0.457
550.000	345.467	80.005	20.010	100.244	19.232	129.537	0.523
550.500	345.672	80.005	20.009	100.237	19.226	130.419	0.520
551.000	345.942	80.005	20.009	100.232	19.218	131.619	0.476
551.500	346.202	80.005	20.009	100.232	19.215	132.140	0.502
552.000	346.439	80.004	20.009	100.241	19.214	132.372	0.513
552.500	346.697	80.006	20.009	100.250	19.207	133.397	0.496
553.000	346.995	80.005	20.009	100.258	19.205	133.757	0.526
553.500	347.219	80.006	20.009	100.260	19.203	134.051	0.539
554.000	347.464	80.005	20.009	100.253	19.195	135.236	0.496
554.500	347.710	80.004	20.009	100.245	19.193	135.634	0.480
555.000	347.939	80.006	20.009	100.237	19.188	136.359	0.483
555.500	348.232	80.004	20.009	100.237	19.186	136.673	0.498
556.000	348.433	80.006	20.009	100.240	19.186	136.673	0.508
556.500	348.729	80.006	20.009	100.248	19.180	137.721	0.495
557.000	349.001	80.004	20.009	100.257	19.174	138.688	0.533
557.500	349.229	80.004	20.010	100.264	19.172	138.977	0.534
558.000	349.470	80.005	20.009	100.261	19.169	139.364	0.485
558.500	349.778	80.006	20.009	100.256	19.165	140.123	0.509
559.000	349.981	80.005	20.010	100.252	19.160	140.908	0.530
559.500	350.218	80.005	20.009	100.251	19.155	141.563	0.476
560.001	350.509	80.006	20.009	100.252	19.151	142.250	0.484
560.500	350.760	80.004	20.010	100.261	19.148	142.754	0.535
561.000	350.968	80.004	20.009	100.273	19.143	143.530	0.501
561.500	351.217	80.005	20.009	100.283	19.139	144.241	0.458
562.000	351.474	80.004	20.009	100.284	19.135	144.842	0.481
562.500	351.719	80.006	20.010	100.284	19.134	144.963	0.504
563.000	352.006	80.006	20.010	100.278	19.126	146.261	0.517
563.500	352.205	80.005	20.010	100.272	19.123	146.749	0.509
564.000	352.502	80.005	20.008	100.273	19.119	147.276	0.491
564.500	352.707	80.005	20.009	100.279	19.114	148.140	0.500
565.000	352.950	80.004	20.009	100.286	19.110	148.699	0.475
565.500	353.206	80.005	20.009	100.293	19.106	149.384	0.473
566.000	353.468	80.006	20.009	100.291	19.101	150.201	0.508
566.500	353.642	80.006	20.009	100.284	19.096	150.975	0.477
567.000	353.898	80.005	20.009	100.276	19.091	151.785	0.433
567.500	354.152	80.004	20.009	100.272	19.085	152.694	0.470
568.000	354.408	80.005	20.009	100.274	19.079	153.612	0.510
568.500	354.644	80.004	20.009	100.281	19.075	154.241	0.501
569.000	354.913	80.005	20.009	100.291	19.072	154.806	0.499
569.500	355.178	80.006	20.009	100.300	19.064	155.971	0.520
570.000	355.380	80.006	20.009	100.303	19.062	156.271	0.500
570.500	355.632	80.005	20.009	100.302	19.055	157.292	0.461
571.000	355.864	80.005	20.009	100.302	19.052	157.927	0.469
571.500	356.160	80.005	20.009	100.300	19.047	158.697	0.506
572.000	356.426	80.006	20.009	100.306	19.040	159.790	0.545
572.500	356.639	80.006	20.009	100.315	19.034	160.695	0.520
573.000	356.909	80.005	20.009	100.329	19.033	160.773	0.481
573.500	357.174	80.005	20.009	100.337	19.025	161.944	0.510
574.000	357.368	80.006	20.010	100.346	19.020	162.717	0.497
574.500	357.648	80.005	20.009	100.344	19.014	163.705	0.466
575.000	357.885	80.006	20.009	100.340	19.010	164.255	0.495
575.500	358.103	80.006	20.009	100.331	19.002	165.491	0.486
576.000	358.353	80.003	20.009	100.330	18.995	166.646	0.461
576.500	358.607	80.006	20.009	100.329	18.990	167.402	0.486
577.000	358.831	80.005	20.009	100.332	18.984	168.318	0.491
577.500	359.054	80.006	20.009	100.332	18.976	169.538	0.462
578.000	359.277	80.005	20.010	100.327	18.966	171.112	0.447
578.500	359.571	80.005	20.009	100.326	18.960	172.029	0.481
579.000	359.750	80.005	20.009	100.327	18.952	173.368	0.495
579.500	360.057	80.005	20.010	100.332	18.947	174.159	0.479
580.000	360.289	80.005	20.009	100.343	18.939	175.422	0.513
580.500	360.607	80.006	20.009	100.357	18.932	176.529	0.545
581.000	360.818	80.005	20.009	100.361	18.922	178.086	0.540
581.500	361.056	80.005	20.010	100.353	18.918	178.745	0.489
582.000	361.261	80.005	20.009	100.341	18.914	179.297	0.446
582.500	361.526	80.005	20.009	100.326	18.909	180.168	0.456
583.000	361.731	80.004	20.009	100.315	18.906	180.717	0.470
583.500	361.997	80.004	20.009	100.313	18.902	181.272	0.470
584.000	362.201	80.005	20.010	100.321	18.899	181.819	0.471
584.501	362.500	80.005	20.009	100.325	18.898	181.939	0.487
585.000	362.762	80.005	20.009	100.321	18.901	181.575	0.532
585.500	363.001	80.005	20.009	100.310	18.901	181.636	0.531
586.000	363.185	80.004	20.010	100.288	18.903	181.393	0.462
586.500	363.476	80.005	20.009	100.264	18.903	181.342	0.449
587.000	363.763	80.006	20.009	100.240	18.908	180.679	0.527
587.500	364.011	80.004	20.010	100.229	18.912	179.968	0.557
588.000	364.237	80.005	20.009	100.225	18.919	179.028	0.505
588.500	364.463	80.004	20.009	100.220	18.920	178.812	0.463
589.000	364.755	80.006	20.009	100.206	18.922	178.506	0.485
589.500	364.963	80.006	20.010	100.202	18.929	177.457	0.509
590.000	365.181	80.005	20.009	100.193	18.930	177.252	0.463
590.500	365.460	80.006	20.010	100.182	18.936	176.337	0.462
591.000	365.732	80.004	20.009	100.178	18.943	175.282	0.524
591.500	365.957	80.004	20.009	100.189	18.949	174.387	0.524
592.000	366.190	80.006	20.009	100.190	18.956	173.244	0.477
592.501	366.411	80.004	20.009	100.189	18.958	172.967	0.456
593.001	366.656	80.006	20.009	100.180	18.968	171.336	0.460
593.500	366.913	80.004	20.009	100.180	18.971	170.976	0.484
594.000	367.162	80.006	20.009	100.176	18.976	170.152	0.504
594.500	367.434	80.005	20.009	100.180	18.980	169.458	0.513
595.000	367.667	80.006	20.009	100.189	18.987	168.474	0.513
595.500	367.900	80.006	20.009	100.209	18.988	168.184	0.486
596.000	368.210	80.005	20.009	100.227	18.994	167.309	0.504
596.500	368.466	80.006	20.009	100.251	19.000	166.380	0.554
597.000	368.676	80.005	20.010	100.270	19.006	165.505	0.516
597.500	368.952	80.005	20.010	100.288	19.008	165.104	0.477
598.000	369.172	80.006	20.009	100.308	19.014	164.109	0.491
598.500	369.405	80.005	20.010	100.327	19.015	163.906	0.474
599.000	369.676	80.006	20.009	100.343	19.021	162.973	0.478
599.500	369.877	80.006	20.009	100.366	19.024	162.587	0.488
600.000	370.131	80.006	20.009	100.391	19.027	162.130	0.463
600.500	370.374	80.005	20.009	100.415	19.032	161.311	0.476
601.000	370.621	80.006	20.009	100.432	19.035	160.854	0.493
601.500	370.891	80.006	20.009	100.440	19.041	159.840	0.504
602.000	371.142	80.005	20.010	100.446	19.043	159.485	0.519
602.500	371.336	80.006	20.010	100.451	19.044	159.293	0.483
603.000	371.642	80.005	20.009	100.458	19.046	159.087	0.472
603.500	371.893	80.005	20.009	100.473	19.049	158.618	0.528
604.000	372.151	80.006	20.009	100.491	19.052	158.115	0.533
604.500	372.370	80.006	20.009	100.506	19.059	157.080	0.493
605.000	372.577	80.006	20.009	100.513	19.059	157.084	0.451
605.500	372.833	80.006	20.009	100.514	19.063	156.381	0.444
606.000	373.021	80.005	20.010	100.508	19.065	156.113	0.454
606.500	373.272	80.005	20.009	100.503	19.066	155.901	0.442
607.000	373.545	80.005	20.009	100.499	19.066	155.806	0.481
607.500	373.778	80.004	20.010	100.506	19.073	154.822	0.515
608.000	374.045	80.006	20.009	100.514	19.075	154.464	0.503
608.500	374.284	80.006	20.009	100.523	19.077	154.107	0.503
609.000	374.551	80.004	20.009	100.530	19.080	153.643	0.506
609.500	374.785	80.006	20.009	100.536	19.083	153.308	0.504
610.000	375.061	80.005	20.009	100.532	19.085	152.873	0.506
610.500	375.285	80.005	20.010	100.523	19.088	152.361	0.505
611.000	375.548	80.005	20.009	100.515	19.089	152.227	0.493
611.500	375.747	80.005	20.009	100.510	19.092	151.762	0.474
612.000	376.008	80.004	20.009	100.509	19.097	150.947	0.461
612.500	376.286	80.004	20.009	100.513	19.101	150.392	0.500
613.000	376.510	80.005	20.009	100.518	19.102	150.182	0.521
613.500	376.789	80.005	20.009	100.517	19.101	150.377	0.502
614.000	377.095	80.006	20.009	100.512	19.108	149.329	0.544
614.500	377.221	80.004	20.009	100.497	19.112	148.657	0.509
615.000	377.535	80.006	20.009	100.482	19.118	147.751	0.436
615.500	377.800	80.006	20.009	100.470	19.121	147.216	0.509
616.000	378.037	80.004	20.010	100.467	19.123	146.820	0.541
616.500	378.280	80.005	20.009	100.469	19.125	146.518	0.491
617.000	378.554	80.006	20.009	100.478	19.133	145.363	0.498
617.500	378.821	80.005	20.009	100.491	19.137	144.743	0.529
618.000	379.082	80.007	20.009	100.500	19.143	143.886	0.534
618.500	379.300	80.005	20.009	100.501	19.147	143.112	0.504
619.000	379.585	80.006	20.009	100.494	19.150	142.667	0.491
619.500	379.821	80.005	20.009	100.485	19.154	142.016	0.511
620.000	380.048	80.005	20.009	100.473	19.157	141.620	0.492
620.500	380.300	80.004	20.009	100.471	19.163	140.605	0.471
621.000	380.568	80.006	20.008	100.472	19.169	139.751	0.500
621.500	380.791	80.005	20.009	100.481	19.170	139.556	0.505
622.000	381.041	80.005	20.009	100.489	19.174	138.913	0.482
622.500	381.302	80.006	20.009	100.491	19.180	138.008	0.492
623.000	381.528	80.005	20.010	100.484	19.186	137.108	0.499
623.500	381.821	80.006	20.009	100.478	19.196	135.480	0.503
624.000	382.061	80.005	20.009	100.476	19.200	134.830	0.526
624.500	382.290	80.006	20.009	100.475	19.202	134.592	0.501
625.000	382.555	80.005	20.009	100.482	19.210	133.246	0.482
625.500	382.788	80.005	20.008	100.496	19.213	132.791	0.497
626.000	383.052	80.005	20.009	100.503	19.216	132.373	0.497
626.500	383.286	80.005	20.009	100.504	19.224	131.012	0.497
627.000	383.503	80.005	20.009	100.497	19.233	129.676	0.475
627.500	383.757	80.006	20.009	100.488	19.235	129.270	0.461
628.000	384.071	80.005	20.010	100.473	19.245	127.797	0.519
628.500	384.246	80.006	20.009	100.466	19.249	127.103	0.528
629.000	384.525	80.006	20.009	100.466	19.255	126.253	0.472
629.500	384.718	80.007	20.009	100.475	19.262	125.071	0.463
630.000	384.998	80.005	20.009	100.490	19.269	124.064	0.473
630.500	385.252	80.005	20.009	100.505	19.272	123.553	0.503
631.000	385.471	80.007	20.009	100.515	19.280	122.370	0.503
631.500	385.745	80.003	20.010	100.515	19.284	121.587	0.483
632.000	385.995	80.006	20.009	100.515	19.294	120.131	0.508
632.500	386.221	80.006	20.010	100.508	19.299	119.345	0.500
633.000	386.480	80.005	20.010	100.502	19.307	118.019	0.481
633.500	386.741	80.005	20.009	100.504	19.312	117.295	0.503
634.000	387.022	80.005	20.009	100.511	19.320	115.937	0.531
634.500	387.295	80.005	20.009	100.518	19.327	114.899	0.548
635.000	387.511	80.006	20.010	100.526	19.332	114.069	0.522
635.500	387.769	80.006	20.009	100.533	19.339	112.951	0.481
636.000	388.026	80.006	20.009	100.535	19.347	111.725	0.494
636.500	388.246	80.006	20.009	100.533	19.352	110.879	0.496
637.000	388.542	80.004	20.010	100.534	19.359	109.768	0.497
637.500	388.682	80.006	20.009	100.533	19.366	108.751	0.476
638.000	389.000	80.004	20.009	100.533	19.375	107.405	0.447
638.500	389.281	80.006	20.009	100.535	19.381	106.420	0.528
639.000	389.568	80.006	20.009	100.537	19.387	105.492	0.584
639.500	389.808	80.005	20.009	100.538	19.393	104.488	0.548
640.000	390.058	80.005	20.009	100.533	19.402	103.165	0.509
640.500	390.275	80.005	20.009	100.526	19.409	102.074	0.478
641.000	390.564	80.006	20.009	100.523	19.415	101.078	0.486
641.500	390.800	80.005	20.009	100.524	19.421	100.064	0.515
642.000	391.026	80.005	20.009	100.530	19.428	99.025	0.493
642.500	391.280	80.006	20.009	100.544	19.437	97.662	0.471
643.000	391.578	80.005	20.009	100.558	19.445	96.366	0.516
643.500	391.779	80.005	20.009	100.569	19.453	95.097	0.525
644.000	392.021	80.006	20.009	100.572	19.459	94.030	0.471
644.500	392.289	80.005	20.009	100.565	19.468	92.660	0.477
645.000	392.574	80.005	20.009	100.557	19.472	91.989	0.531
645.500	392.823	80.006	20.009	100.556	19.482	90.504	0.544
646.000	393.054	80.006	20.009	100.559	19.488	89.440	0.507
646.500	393.352	80.005	20.009	100.571	19.494	88.608	0.504
647.000	393.554	80.005	20.009	100.584	19.500	87.556	0.515
647.500	393.819	80.005	20.009	100.591	19.510	85.973	0.484
648.000	394.096	80.005	20.009	100.587	19.519	84.643	0.504
648.500	394.354	80.006	20.009	100.576	19.526	83.416	0.538
649.000	394.607	80.005	20.009	100.561	19.533	82.351	0.523
649.500	394.834	80.007	20.009	100.554	19.541	81.143	0.496
650.000	395.150	80.005	20.009	100.558	19.547	80.154	0.512
650.500	395.348	80.006	20.009	100.573	19.555	78.879	0.528
651.000	395.583	80.006	20.009	100.595	19.560	78.116	0.473
651.500	395.858	80.004	20.009	100.617	19.567	76.966	0.472
652.000	396.129	80.006	20.009	100.628	19.572	76.189	0.528
652.500	396.407	80.005	20.009	100.630	19.582	74.598	0.547
653.000	396.611	80.006	20.009	100.627	19.587	73.870	0.515
653.500	396.856	80.006	20.009	100.619	19.594	72.748	0.465
654.000	397.085	80.005	20.009	100.613	19.601	71.703	0.461
654.500	397.377	80.005	20.009	100.615	19.607	70.729	0.497
655.000	397.616	80.005	20.009	100.625	19.608	70.621	0.526
655.500	397.902	80.007	20.010	100.629	19.618	69.027	0.528
656.000	398.080	80.005	20.009	100.631	19.624	68.150	0.495
656.500	398.376	80.005	20.009	100.624	19.628	67.436	0.469
657.000	398.615	80.007	20.009	100.613	19.634	66.542	0.504
657.500	398.880	80.004	20.010	100.598	19.639	65.623	0.519
658.000	399.159	80.007	20.009	100.589	19.644	64.951	0.524
658.500	399.366	80.006	20.009	100.583	19.656	62.998	0.515
659.000	399.659	80.005	20.009	100.581	19.659	62.466	0.493
659.500	399.902	80.005	20.009	100.581	19.664	61.682	0.518
660.000	400.150	80.005	20.009	100.574	19.666	61.468	0.513
660.500	400.419	80.006	20.009	100.567	19.675	59.941	0.504
661.000	400.650	80.005	20.010	100.558	19.682	58.891	0.509
661.500	400.971	80.005	20.008	100.557	19.685	58.387	0.526
662.000	401.161	80.006	20.009	100.549	19.692	57.345	0.532
662.500	401.400	80.008	20.010	100.530	19.698	56.329	0.470
663.000	401.638	80.005	20.009	100.517	19.702	55.673	0.453
663.500	401.919	80.005	20.009	100.513	19.710	54.385	0.498
664.000	402.170	80.007	20.009	100.506	19.714	53.803	0.526
664.500	402.408	80.005	20.009	100.504	19.722	52.530	0.511
665.000	402.700	80.005	20.009	100.523	19.727	51.844	0.510
665.500	402.966	80.006	20.010	100.534	19.732	50.984	0.544
666.000	403.195	80.006	20.010	100.544	19.737	50.185	0.526
666.500	403.417	80.005	20.009	100.561	19.742	49.362	0.473
667.000	403.672	80.005	20.008	100.590	19.747	48.691	0.464
667.500	403.890	80.005	20.008	100.611	19.754	47.621	0.475
668.000	404.118	80.006	20.009	100.624	19.760	46.633	0.459
668.500	404.379	80.004	20.009	100.621	19.769	45.242	0.467
669.000	404.604	80.006	20.009	100.603	19.771	44.903	0.488
669.500	404.817	80.005	20.009	100.576	19.774	44.365	0.462
670.000	405.083	80.005	20.009	100.557	19.780	43.494	0.458
670.501	405.301	80.006	20.009	100.552	19.784	42.769	0.481
671.000	405.531	80.005	20.009	100.555	19.789	42.097	0.466
671.500	405.807	80.005	20.009	100.557	19.795	41.109	0.477
672.000	406.051	80.005	20.009	100.556	19.797	40.788	0.513
672.500	406.268	80.006	20.009	100.552	19.803	39.810	0.491
673.000	406.518	80.006	20.009	100.545	19.806	39.333	0.464
673.500	406.788	80.004	20.012	100.539	19.811	38.538	0.493
674.000	407.038	80.005	20.005	100.571	19.816	37.782	0.520
674.501	407.310	80.005	20.013	100.559	19.819	37.298	0.521
675.001	407.578	80.005	20.010	100.531	19.824	36.466	0.531
675.500	407.865	80.005	20.009	100.512	19.828	35.785	0.548
676.000	408.042	80.005	20.008	100.503	19.834	34.985	0.510
676.500	408.356	80.006	20.009	100.460	19.838	34.279	0.477
677.000	408.570	80.005	20.009	100.470	19.841	33.815	0.510
677.500	408.841	80.004	20.008	100.499	19.845	33.180	0.506
678.000	409.120	80.005	20.009	100.522	19.851	32.296	0.517
678.500	409.352	80.007	20.008	100.537	19.854	31.696	0.530
679.000	409.583	80.007	20.009	100.549	19.857	31.286	0.487
679.500	409.852	80.004	20.010	100.547	19.862	30.533	0.482
680.000	410.032	80.005	20.008	100.555	19.868	29.489	0.475
680.501	410.304	80.005	20.008	100.558	19.871	29.004	0.451
681.001	410.560	80.005	20.010	100.553	19.875	28.479	0.490
681.500	410.814	80.005	20.009	100.549	19.879	27.890	0.518
682.000	411.045	80.006	20.009	100.554	19.883	27.180	0.497
682.500	411.364	80.005	20.009	100.546	19.883	27.204	0.518
683.000	411.597	80.006	20.009	100.540	19.889	26.290	0.551
683.500	411.809	80.005	20.009	100.537	19.893	25.665	0.499
684.000	412.085	80.006	20.009	100.536	19.897	25.046	0.466
684.500	412.348	80.005	20.009	100.530	19.897	24.905	0.514
685.000	412.601	80.006	20.009	100.520	19.898	24.890	0.527
685.500	412.816	80.006	20.009	100.513	19.900	24.454	0.492
686.000	413.088	80.006	20.009	100.504	19.905	23.718	0.478
686.500	413.367	80.005	20.009	100.503	19.907	23.326	0.519
687.000	413.558	80.005	20.009	100.507	19.910	22.865	0.510
687.500	413.799	80.006	20.009	100.508	19.914	22.289	0.451
688.000	414.080	80.006	20.009	100.506	19.917	21.877	0.477
688.500	414.333	80.005	20.009	100.498	19.918	21.624	0.528
689.000	414.541	80.006	20.009	100.492	19.922	21.057	0.498
689.500	414.840	80.006	20.009	100.487	19.925	20.643	0.484
690.000	415.068	80.005	20.009	100.487	19.926	20.408	0.517
690.500	415.291	80.005	20.009	100.494	19.930	19.844	0.489
691.000	415.540	80.006	20.009	100.506	19.930	19.780	0.461
691.500	415.810	80.005	20.009	100.509	19.934	19.090	0.495
692.000	416.014	80.005	20.009	100.510	19.937	18.670	0.497
692.500	416.305	80.005	20.009	100.506	19.941	18.073	0.485
693.000	416.554	80.005	20.009	100.498	19.943	17.732	0.517
693.500	416.797	80.006	20.009	100.493	19.947	17.123	0.516
694.000	417.039	80.007	20.010	100.492	19.946	17.199	0.489
694.500	417.323	80.003	20.010	100.496	19.948	17.012	0.505
695.000	417.556	80.006	20.008	100.525	19.950	16.572	0.521
695.500	417.834	80.006	20.010	100.513	19.950	16.633	0.514
696.000	418.068	80.005	20.009	100.492	19.950	16.572	0.512
696.500	418.299	80.005	20.009	100.475	19.953	16.136	0.488
697.000	418.544	80.006	20.009	100.457	19.956	15.633	0.470
697.500	418.802	80.006	20.009	100.425	19.955	15.828	0.489
698.000	419.047	80.004	20.008	100.434	19.955	15.787	0.503
698.500	419.273	80.004	20.009	100.451	19.960	15.041	0.487
699.000	419.485	80.006	20.010	100.456	19.962	14.735	0.454
699.500	419.832	80.006	20.012	100.435	19.965	14.239	0.498
700.000	420.091	80.005	20.008	100.447	19.967	13.906	0.583
700.500	420.322	80.005	20.007	100.482	19.966	14.086	0.548
701.000	420.569	80.006	20.008	100.506	19.966	14.149	0.484
701.500	420.783	80.005	20.009	100.524	19.969	13.701	0.469
702.000	421.038	80.006	20.009	100.559	19.973	12.994	0.465
702.500	421.236	80.005	20.008	100.546	19.976	12.530	0.461
703.000	421.520	80.006	20.009	100.509	19.975	12.706	0.467
703.500	421.784	80.006	20.009	100.474	19.979	12.040	0.515
704.000	422.054	80.006	20.009	100.452	19.979	12.062	0.541
704.500	422.271	80.006	20.009	100.440	19.980	11.906	0.511
705.000	422.517	80.007	20.009	100.441	19.982	11.664	0.475
705.500	422.760	80.006	20.010	100.443	19.980	11.881	0.476
706.000	423.043	80.004	20.008	100.458	19.983	11.473	0.507
706.500	423.273	80.006	20.009	100.468	19.983	11.462	0.520
707.000	423.501	80.006	20.011	100.447	19.986	11.017	0.485
707.500	423.732	80.006	20.009	100.422	19.986	10.910	0.458
708.000	424.006	80.006	20.009	100.404	19.988	10.712	0.482
708.500	424.222	80.005	20.009	100.388	19.990	10.250	0.498
709.000	424.506	80.007	20.009	100.384	19.990	10.354	0.495
709.500	424.698	80.005	20.009	100.410	19.995	9.545	0.488
710.000	424.960	80.005	20.009	100.435	19.995	9.581	0.465
710.500	425.231	80.008	20.009	100.446	19.996	9.363	0.493
711.000	425.458	80.005	20.010	100.442	19.998	9.044	0.515
711.500	425.755	80.006	20.008	100.445	19.995	9.480	0.511
712.000	425.959	80.006	20.009	100.456	19.996	9.371	0.513
712.500	426.181	80.005	20.009	100.463	19.995	9.492	0.464
713.000	426.464	80.009	20.011	100.469	19.996	9.335	0.466
713.500	426.712	80.002	20.006	100.493	19.999	8.837	0.518
714.000	426.945	80.007	20.012	100.508	20.000	8.674	0.506
714.500	427.145	80.006	20.011	100.455	20.001	8.531	0.457
715.000	427.366	80.006	20.009	100.410	20.003	8.287	0.427
715.500	427.648	80.006	20.008	100.382	20.001	8.615	0.462
716.000	427.887	80.006	20.013	100.318	20.003	8.303	0.513
716.500	428.118	80.005	20.009	100.293	20.001	8.636	0.496
717.000	428.381	80.006	20.008	100.365	20.005	7.973	0.482
717.500	428.639	80.006	20.008	100.431	20.005	8.020	0.507
718.000	428.916	80.005	20.008	100.473	20.004	8.184	0.528
718.500	429.130	80.005	20.009	100.526	20.009	7.367	0.513
719.000	429.379	80.005	20.009	100.526	20.005	7.887	0.477
719.500	429.651	80.006	20.009	100.488	20.007	7.629	0.492
720.000	429.906	80.005	20.009	100.443	20.006	7.769	0.524
720.500	430.127	80.006	20.009	100.415	20.008	7.503	0.502
721.000	430.373	80.005	20.010	100.405	20.011	7.077	0.471
721.500	430.604	80.005	20.008	100.415	20.010	7.130	0.472
722.000	430.903	80.006	20.008	100.422	20.010	7.161	0.504
722.500	431.108	80.006	20.010	100.408	20.010	7.227	0.517
723.000	431.359	80.006	20.009	100.394	20.009	7.270	0.480
723.500	431.570	80.005	20.009	100.383	20.012	6.862	0.459
724.000	431.852	80.006	20.009	100.365	20.010	7.109	0.478
724.500	432.096	80.006	20.008	100.351	20.014	6.485	0.510
725.000	432.342	80.007	20.011	100.362	20.015	6.345	0.508
725.500	432.574	80.005	20.009	100.376	20.015	6.429	0.484
726.000	432.873	80.005	20.008	100.403	20.015	6.316	0.504
726.501	433.090	80.005	20.008	100.428	20.016	6.192	0.523
727.000	433.361	80.006	20.009	100.441	20.017	6.122	0.502
727.500	433.566	80.006	20.009	100.447	20.017	6.138	0.483
728.000	433.858	80.007	20.010	100.442	20.016	6.272	0.487
728.500	434.079	80.005	20.009	100.415	20.016	6.206	0.505
729.000	434.293	80.004	20.009	100.391	20.016	6.256	0.474
729.500	434.573	80.007	20.009	100.383	20.018	5.896	0.465
730.000	434.850	80.006	20.009	100.387	20.019	5.825	0.525
730.500	435.116	80.006	20.009	100.396	20.013	6.631	0.550
731.000	435.300	80.006	20.009	100.398	20.016	6.186	0.497
731.500	435.531	80.006	20.009	100.398	20.019	5.726	0.433
732.000	435.815	80.006	20.009	100.393	20.017	6.075	0.465
732.500	436.002	80.006	20.009	100.386	20.017	6.139	0.493
733.000	436.257	80.006	20.009	100.383	20.020	5.580	0.457
733.500	436.524	80.006	20.009	100.391	20.019	5.783	0.482
734.000	436.762	80.005	20.009	100.399	20.021	5.407	0.513
734.500	437.003	80.006	20.009	100.406	20.021	5.463	0.492
735.000	437.221	80.006	20.009	100.408	20.020	5.609	0.469
735.500	437.471	80.006	20.010	100.403	20.018	5.869	0.463
736.000	437.777	80.005	20.009	100.393	20.021	5.362	0.512
736.500	438.011	80.006	20.009	100.385	20.020	5.659	0.548
737.000	438.312	80.007	20.009	100.379	20.022	5.313	0.538
737.500	438.564	80.006	20.009	100.379	20.017	6.020	0.544
738.000	438.758	80.005	20.009	100.385	20.019	5.760	0.500
738.500	439.043	80.005	20.008	100.390	20.021	5.476	0.462
739.000	439.283	80.007	20.009	100.389	20.022	5.236	0.502
739.500	439.482	80.005	20.009	100.388	20.022	5.273	0.482
740.000	439.740	80.006	20.009	100.386	20.019	5.706	0.448
740.500	439.984	80.005	20.009	100.381	20.019	5.683	0.479
741.001	440.264	80.005	20.009	100.381	20.019	5.823	0.513
741.500	440.480	80.006	20.009	100.389	20.018	5.840	0.510
742.000	440.755	80.005	20.009	100.393	20.018	5.989	0.493
742.500	440.963	80.007	20.009	100.391	20.019	5.786	0.487
743.000	441.265	80.006	20.009	100.382	20.018	5.929	0.497
743.500	441.488	80.004	20.009	100.370	20.020	5.600	0.518
744.000	441.731	80.008	20.009	100.350	20.020	5.547	0.496
744.500	441.973	80.006	20.009	100.337	20.019	5.680	0.476
745.000	442.158	80.004	20.009	100.331	20.021	5.497	0.456
745.500	442.460	80.007	20.009	100.337	20.017	6.084	0.457
746.000	442.699	80.007	20.009	100.344	20.016	6.203	0.514
746.500	442.920	80.007	20.009	100.349	20.017	6.070	0.500
747.000	443.163	80.006	20.010	100.351	20.021	5.477	0.462
747.500	443.409	80.006	20.010	100.345	20.016	6.197	0.476
748.000	443.637	80.006	20.010	100.337	20.016	6.204	0.481
748.500	443.877	80.006	20.009	100.331	20.020	5.524	0.471
749.000	444.116	80.005	20.009	100.336	20.020	5.637	0.474
749.500	444.430	80.005	20.009	100.343	20.020	5.566	0.517
750.000	444.655	80.006	20.009	100.356	20.020	5.649	0.546
750.500	444.904	80.006	20.009	100.360	20.019	5.732	0.506
751.000	445.146	80.007	20.009	100.358	20.020	5.576	0.482
751.500	445.357	80.005	20.009	100.349	20.019	5.776	0.472
752.000	445.623	80.006	20.009	100.343	20.020	5.550	0.465
752.500	445.863	80.005	20.009	100.337	20.017	6.103	0.491
753.000	446.132	80.007	20.009	100.336	20.018	5.856	0.507
753.500	446.318	80.005	20.008	100.343	20.019	5.679	0.482
754.000	446.598	80.006	20.009	100.346	20.018	5.893	0.460
754.500	446.874	80.007	20.009	100.345	20.021	5.426	0.511
755.000	447.121	80.006	20.009	100.344	20.018	5.840	0.540
755.500	447.350	80.006	20.009	100.343	20.023	5.130	0.500
756.000	447.548	80.006	20.009	100.342	20.022	5.303	0.451
756.500	447.768	80.005	20.009	100.349	20.023	5.146	0.422
757.000	447.995	80.006	20.008	100.356	20.021	5.469	0.432
757.500	448.229	80.006	20.009	100.360	20.021	5.492	0.454
758.000	448.529	80.006	20.010	100.360	20.023	5.122	0.498
758.500	448.735	80.006	20.010	100.359	20.023	5.132	0.520
759.000	448.995	80.006	20.009	100.352	20.023	5.075	0.486
759.500	449.260	80.005	20.009	100.349	20.023	5.075	0.496
760.000	449.531	80.005	20.009	100.354	20.024	4.916	0.531
760.500	449.790	80.005	20.009	100.362	20.026	4.662	0.533
761.000	449.978	80.006	20.008	100.367	20.022	5.291	0.488
761.500	450.209	80.005	20.009	100.366	20.022	5.245	0.433
762.000	450.468	80.006	20.009	100.361	20.022	5.271	0.455
762.500	450.661	80.006	20.009	100.347	20.023	5.135	0.471
763.000	450.940	80.007	20.009	100.339	20.023	5.119	0.462
763.500	451.159	80.006	20.009	100.334	20.021	5.389	0.485
764.000	451.410	80.006	20.009	100.336	20.021	5.396	0.484
764.500	451.666	80.005	20.009	100.340	20.021	5.395	0.488
765.000	451.938	80.006	20.009	100.346	20.025	4.768	0.518
765.500	452.184	80.006	20.010	100.346	20.024	5.035	0.523
766.000	452.397	80.006	20.010	100.346	20.023	5.185	0.488
766.500	452.625	80.006	20.010	100.341	20.020	5.668	0.449
767.000	452.899	80.006	20.009	100.340	20.022	5.282	0.472
767.500	453.077	80.006	20.009	100.339	20.021	5.389	0.478
768.000	453.340	80.005	20.009	100.345	20.023	5.056	0.447
768.500	453.560	80.006	20.009	100.350	20.022	5.275	0.462
769.000	453.839	80.005	20.009	100.350	20.020	5.665	0.491
769.500	454.093	80.006	20.009	100.344	20.023	5.108	0.516
770.000	454.338	80.007	20.010	100.336	20.020	5.625	0.516
770.500	454.569	80.005	20.009	100.323	20.020	5.606	0.487
771.000	454.838	80.006	20.009	100.317	20.022	5.350	0.488
771.500	455.101	80.006	20.009	100.319	20.020	5.560	0.516
772.000	455.316	80.005	20.009	100.325	20.021	5.436	0.505
772.500	455.600	80.007	20.009	100.329	20.019	5.752	0.488
773.000	455.792	80.006	20.009	100.329	20.019	5.785	0.487
773.500	456.081	80.005	20.009	100.323	20.020	5.621	0.479
774.000	456.298	80.006	20.009	100.316	20.019	5.822	0.494
774.500	456.570	80.006	20.009	100.313	20.020	5.536	0.498
775.000	456.808	80.005	20.009	100.316	20.019	5.694	0.500
775.500	457.100	80.006	20.009	100.324	20.021	5.374	0.520
776.000	457.340	80.005	20.009	100.331	20.020	5.610	0.531
776.500	457.612	80.006	20.009	100.335	20.023	5.100	0.522
777.000	457.771	80.006	20.009	100.331	20.022	5.216	0.471
777.500	458.075	80.006	20.010	100.324	20.025	4.876	0.447
778.000	458.313	80.006	20.009	100.317	20.021	5.403	0.503
778.500	458.522	80.005	20.009	100.314	20.023	5.129	0.494
779.000	458.791	80.006	20.009	100.316	20.024	4.909	0.462
779.500	459.039	80.006	20.009	100.324	20.025	4.809	0.498
780.000	459.306	80.006	20.009	100.332	20.023	5.132	0.516
780.500	459.530	80.005	20.009	100.338	20.027	4.435	0.503
781.000	459.805	80.006	20.010	100.333	20.020	5.534	0.495
781.500	459.985	80.005	20.009	100.325	20.026	4.628	0.478
782.001	460.283	80.007	20.009	100.318	20.023	5.095	0.467
782.501	460.490	80.006	20.009	100.317	20.025	4.882	0.491
783.000	460.708	80.005	20.009	100.323	20.021	5.372	0.465
783.500	460.976	80.005	20.009	100.338	20.021	5.406	0.455
784.000	461.250	80.007	20.009	100.347	20.023	5.122	0.514
784.500	461.471	80.005	20.009	100.350	20.025	4.882	0.519
785.000	461.714	80.006	20.009	100.343	20.025	4.848	0.480
785.500	461.969	80.005	20.009	100.329	20.024	4.920	0.481
786.000	462.242	80.006	20.010	100.317	20.023	5.090	0.513
786.500	462.487	80.006	20.009	100.316	20.025	4.883	0.523
787.001	462.724	80.007	20.009	100.327	20.021	5.415	0.500
787.501	462.947	80.005	20.009	100.343	20.024	4.906	0.471
788.000	463.202	80.006	20.009	100.356	20.023	5.081	0.469
788.500	463.449	80.005	20.009	100.362	20.022	5.246	0.490
789.000	463.680	80.007	20.009	100.361	20.021	5.451	0.490
789.500	463.944	80.006	20.009	100.352	20.018	5.872	0.487
790.000	464.134	80.004	20.009	100.345	20.022	5.333	0.475
790.500	464.441	80.005	20.009	100.339	20.022	5.209	0.475
791.000	464.663	80.006	20.009	100.339	20.021	5.377	0.513
791.500	464.966	80.005	20.009	100.338	20.023	5.109	0.527
792.000	465.133	80.006	20.009	100.337	20.024	4.999	0.498
792.500	465.415	80.005	20.009	100.332	20.026	4.661	0.459
793.000	465.661	80.006	20.009	100.324	20.021	5.386	0.489
793.500	465.922	80.006	20.009	100.317	20.023	5.117	0.518
794.000	466.159	80.005	20.009	100.312	20.023	5.176	0.503
794.500	466.392	80.006	20.009	100.314	20.023	5.188	0.484
795.000	466.664	80.005	20.009	100.318	20.024	4.930	0.487
795.500	466.927	80.005	20.009	100.327	20.020	5.638	0.520
796.000	467.140	80.006	20.009	100.333	20.019	5.776	0.505
796.500	467.406	80.006	20.010	100.332	20.018	5.856	0.477
797.000	467.638	80.004	20.009	100.331	20.017	6.116	0.488
797.500	467.879	80.007	20.009	100.334	20.016	6.257	0.485
798.000	468.101	80.006	20.010	100.312	20.018	5.909	0.468
798.500	468.331	80.006	20.009	100.292	20.018	5.891	0.457
799.000	468.587	80.004	20.009	100.285	20.018	5.878	0.469
799.500	468.834	80.005	20.009	100.279	20.021	5.453	0.495
800.000	469.096	80.006	20.009	100.267	20.019	5.803	0.506
800.501	469.305	80.006	20.011	100.275	20.016	6.153	0.490
801.000	469.577	80.006	20.008	100.305	20.023	5.149	0.476
801.500	469.885	80.006	20.008	100.342	20.023	5.129	0.530
802.000	470.128	80.005	20.009	100.368	20.020	5.582	0.565
802.500	470.348	80.006	20.008	100.388	20.018	5.838	0.507
803.000	470.559	80.006	20.008	100.404	20.018	5.957	0.447
803.500	470.801	80.005	20.009	100.392	20.018	5.947	0.442
804.000	471.104	80.006	20.009	100.362	20.016	6.284	0.499
804.500	471.325	80.006	20.009	100.337	20.016	6.234	0.535
805.000	471.566	80.002	20.012	100.326	20.016	6.257	0.493
805.500	471.756	80.007	20.005	100.368	20.016	6.247	0.446
806.001	472.024	80.005	20.013	100.335	20.018	5.854	0.445
806.500	472.273	80.006	20.010	100.301	20.020	5.551	0.488
807.000	472.591	80.004	20.008	100.275	20.019	5.811	0.542
807.500	472.760	80.007	20.009	100.256	20.021	5.495	0.527
808.000	473.065	80.004	20.012	100.157	20.023	5.095	0.480
808.500	473.287	80.006	20.010	100.207	20.022	5.322	0.501
809.000	473.513	80.003	20.009	100.274	20.020	5.535	0.488
809.500	473.784	80.006	20.008	100.348	20.022	5.328	0.472
810.000	474.069	80.005	20.009	100.397	20.021	5.404	0.526
810.500	474.281	80.006	20.009	100.466	20.021	5.384	0.526
811.000	474.570	80.004	20.009	100.453	20.020	5.528	0.499
811.500	474.813	80.006	20.009	100.425	20.021	5.441	0.517
812.000	475.047	80.006	20.009	100.382	20.019	5.751	0.505
812.501	475.274	80.006	20.008	100.352	20.020	5.577	0.470
813.000	475.523	80.005	20.010	100.340	20.022	5.314	0.469
813.500	475.724	80.005	20.009	100.339	20.022	5.320	0.463
814.000	476.025	80.006	20.009	100.338	20.018	5.844	0.476
814.500	476.256	80.005	20.009	100.332	20.018	5.844	0.517
815.000	476.481	80.005	20.009	100.324	20.019	5.828	0.494
815.500	476.788	80.007	20.009	100.316	20.018	5.915	0.494
816.000	477.053	80.005	20.009	100.310	20.018	5.895	0.552
816.500	477.243	80.006	20.009	100.306	20.018	5.938	0.514
817.000	477.462	80.005	20.009	100.305	20.019	5.804	0.431
817.500	477.756	80.006	20.008	100.306	20.016	6.271	0.461
818.000	478.022	80.006	20.009	100.306	20.018	5.895	0.537
818.500	478.243	80.006	20.009	100.304	20.016	6.192	0.524
819.000	478.541	80.006	20.009	100.304	20.014	6.605	0.503
819.500	478.705	80.005	20.009	100.308	20.017	6.095	0.490
820.000	478.999	80.006	20.010	100.316	20.015	6.318	0.460
820.500	479.246	80.006	20.009	100.322	20.017	5.998	0.499
821.000	479.488	80.005	20.008	100.329	20.015	6.447	0.515
821.500	479.785	80.006	20.009	100.329	20.017	6.141	0.515
822.000	480.023	80.007	20.009	100.325	20.014	6.525	0.537
822.500	480.277	80.006	20.009	100.316	20.018	5.975	0.513
823.000	480.479	80.005	20.009	100.310	20.018	5.965	0.473
823.500	480.768	80.007	20.009	100.311	20.016	6.292	0.473
824.000	480.997	80.005	20.009	100.314	20.015	6.411	0.505
824.500	481.283	80.006	20.009	100.315	20.014	6.464	0.517
825.000	481.454	80.005	20.009	100.311	20.013	6.747	0.486
825.500	481.733	80.006	20.010	100.306	20.014	6.554	0.453
826.000	481.935	80.005	20.009	100.298	20.013	6.668	0.465
826.500	482.215	80.005	20.009	100.295	20.015	6.422	0.481
827.000	482.413	80.006	20.009	100.299	20.013	6.705	0.480
827.500	482.732	80.005	20.009	100.309	20.015	6.352	0.498
828.000	482.918	80.006	20.009	100.322	20.016	6.291	0.511
828.500	483.241	80.005	20.009	100.325	20.017	6.108	0.507
829.000	483.452	80.007	20.009	100.324	20.016	6.301	0.522
829.500	483.763	80.007	20.009	100.320	20.015	6.411	0.528
830.000	483.937	80.007	20.009	100.314	20.016	6.288	0.504
830.500	484.160	80.005	20.009	100.312	20.014	6.495	0.441
831.000	484.444	80.005	20.009	100.318	20.014	6.518	0.452
831.500	484.657	80.006	20.009	100.326	20.014	6.557	0.501
832.000	484.943	80.006	20.008	100.332	20.011	6.960	0.498
832.500	485.191	80.005	20.009	100.331	20.013	6.774	0.517
833.000	485.401	80.006	20.009	100.323	20.012	6.861	0.496
833.500	485.660	80.006	20.009	100.316	20.014	6.558	0.464
834.000	485.875	80.006	20.009	100.312	20.013	6.682	0.472
834.500	486.192	80.006	20.009	100.314	20.012	6.901	0.503
835.000	486.412	80.005	20.009	100.323	20.013	6.711	0.535
835.500	486.652	80.006	20.009	100.331	20.013	6.734	0.499
836.000	486.879	80.006	20.009	100.332	20.013	6.700	0.463
836.500	487.156	80.006	20.010	100.328	20.014	6.464	0.485
837.000	487.393	80.006	20.009	100.319	20.016	6.237	0.509
837.500	487.686	80.006	20.009	100.311	20.015	6.354	0.522
838.000	487.893	80.005	20.009	100.308	20.012	6.847	0.515
838.500	488.151	80.005	20.009	100.314	20.017	6.077	0.482
839.000	488.373	80.006	20.009	100.322	20.017	6.044	0.472
839.500	488.617	80.006	20.009	100.329	20.019	5.765	0.473
840.000	488.910	80.007	20.009	100.328	20.017	6.029	0.502
840.500	489.121	80.006	20.009	100.324	20.014	6.499	0.520
841.000	489.391	80.006	20.010	100.315	20.017	6.116	0.492
841.500	489.650	80.006	20.009	100.314	20.016	6.222	0.505
842.000	489.873	80.006	20.009	100.315	20.017	6.101	0.505
842.500	490.136	80.006	20.009	100.321	20.020	5.585	0.484
843.000	490.421	80.006	20.009	100.323	20.019	5.695	0.517
843.500	490.674	80.006	20.009	100.323	20.022	5.325	0.543
844.000	490.958	80.005	20.009	100.317	20.018	5.926	0.537
844.500	491.188	80.006	20.009	100.310	20.022	5.243	0.526
845.000	491.388	80.005	20.009	100.310	20.017	6.030	0.472
845.500	491.636	80.005	20.009	100.316	20.017	6.007	0.439
846.000	491.899	80.006	20.009	100.322	20.015	6.354	0.480
846.500	492.082	80.006	20.009	100.328	20.018	5.848	0.479
847.000	492.378	80.006	20.009	100.327	20.017	6.121	0.463
847.500	492.638	80.006	20.009	100.320	20.017	6.081	0.517
848.000	492.836	80.005	20.009	100.313	20.017	6.118	0.507
848.500	493.146	80.007	20.009	100.307	20.020	5.675	0.483
849.000	493.384	80.006	20.009	100.304	20.014	6.494	0.527
849.500	493.635	80.005	20.009	100.311	20.016	6.264	0.518
850.000	493.844	80.006	20.009	100.312	20.016	6.203	0.474
850.500	494.103	80.005	20.009	100.312	20.017	6.130	0.464
851.000	494.363	80.006	20.009	100.312	20.016	6.300	0.494
851.500	494.598	80.006	20.009	100.307	20.014	6.521	0.507
852.000	494.845	80.005	20.009	100.308	20.015	6.437	0.489
852.500	495.126	80.006	20.009	100.319	20.015	6.431	0.505
853.000	495.420	80.006	20.009	100.330	20.016	6.250	0.551
853.500	495.654	80.005	20.008	100.338	20.018	5.940	0.551
854.000	495.848	80.006	20.009	100.342	20.018	5.900	0.478
854.500	496.096	80.006	20.009	100.334	20.018	5.914	0.435
855.000	496.402	80.006	20.009	100.322	20.020	5.605	0.498
855.500	496.635	80.005	20.009	100.317	20.016	6.195	0.547
856.000	496.902	80.007	20.009	100.318	20.018	5.982	0.520
856.500	497.111	80.007	20.008	100.324	20.014	6.531	0.488
857.000	497.382	80.006	20.009	100.336	20.017	6.100	0.478
857.500	497.611	80.006	20.010	100.351	20.019	5.683	0.490
858.000	497.864	80.007	20.009	100.361	20.017	6.140	0.491
858.500	498.131	80.005	20.009	100.366	20.020	5.646	0.501
859.000	498.407	80.006	20.010	100.371	20.017	6.141	0.532
859.500	498.661	80.006	20.009	100.374	20.016	6.251	0.536
860.000	498.869	80.006	20.009	100.376	20.019	5.785	0.496
860.500	499.131	80.005	20.009	100.377	20.016	6.261	0.466
861.000	499.354	80.007	20.009	100.378	20.020	5.557	0.477
861.500	499.637	80.005	20.009	100.375	20.017	6.001	0.496
862.000	499.831	80.006	20.009	100.367	20.017	6.147	0.492
862.500	500.125	80.005	20.009	100.358	20.018	5.951	0.482
863.000	500.367	80.005	20.009	100.352	20.019	5.798	0.512
863.500	500.600	80.006	20.009	100.352	20.017	6.111	0.506
864.000	500.861	80.006	20.009	100.356	20.018	5.940	0.485
864.500	501.113	80.007	20.009	100.364	20.015	6.332	0.503
865.000	501.323	80.005	20.009	100.365	20.017	6.069	0.487
865.500	501.551	80.006	20.010	100.364	20.019	5.675	0.450
866.000	501.840	80.006	20.010	100.356	20.016	6.199	0.477
866.500	502.033	80.006	20.009	100.353	20.020	5.673	0.500
867.000	502.264	80.005	20.009	100.353	20.019	5.820	0.453
867.500	502.540	80.006	20.009	100.363	20.020	5.580	0.465
868.000	502.755	80.005	20.009	100.376	20.020	5.619	0.499
868.500	502.999	80.005	20.009	100.383	20.018	5.902	0.475
869.000	503.285	80.005	20.009	100.381	20.020	5.668	0.495
869.500	503.492	80.006	20.009	100.371	20.019	5.718	0.511
870.000	503.809	80.007	20.009	100.356	20.018	5.946	0.509
870.500	504.018	80.005	20.010	100.344	20.017	6.006	0.525
871.000	504.257	80.006	20.009	100.345	20.016	6.237	0.487
871.500	504.503	80.004	20.009	100.349	20.015	6.403	0.466
872.000	504.728	80.005	20.008	100.361	20.018	5.933	0.477
872.500	504.939	80.006	20.009	100.372	20.019	5.773	0.453
873.000	505.224	80.005	20.009	100.374	20.016	6.259	0.466
873.500	505.502	80.006	20.009	100.368	20.017	6.083	0.529
874.000	505.679	80.005	20.009	100.363	20.019	5.736	0.509
874.500	505.966	80.005	20.009	100.361	20.018	5.963	0.460
875.000	506.201	80.005	20.009	100.361	20.015	6.310	0.493
875.500	506.470	80.005	20.009	100.365	20.016	6.172	0.513
876.000	506.768	80.006	20.009	100.370	20.015	6.395	0.536
876.500	506.919	80.005	20.009	100.367	20.015	6.308	0.508
877.000	507.276	80.006	20.009	100.352	20.017	5.995	0.478
877.500	507.476	80.006	20.009	100.339	20.017	6.095	0.533
878.000	507.704	80.006	20.009	100.331	20.018	5.962	0.493
878.500	507.931	80.006	20.009	100.327	20.016	6.206	0.441
879.000	508.208	80.007	20.009	100.331	20.015	6.416	0.479
879.500	508.470	80.006	20.009	100.344	20.014	6.472	0.522
880.000	508.737	80.005	20.009	100.351	20.016	6.281	0.534
880.500	508.923	80.006	20.009	100.348	20.015	6.334	0.491
881.000	509.164	80.005	20.010	100.339	20.017	6.058	0.440
881.500	509.483	80.006	20.009	100.331	20.018	5.925	0.494
882.000	509.709	80.006	20.009	100.325	20.016	6.255	0.553
882.500	509.987	80.007	20.009	100.326	20.014	6.462	0.524
883.000	510.224	80.006	20.009	100.337	20.017	6.022	0.509
883.500	510.536	80.006	20.009	100.345	20.015	6.386	0.532
884.000	510.735	80.005	20.009	100.350	20.014	6.462	0.530
884.500	511.027	80.005	20.010	100.350	20.013	6.732	0.500
885.000	511.289	80.006	20.009	100.348	20.014	6.523	0.522
885.500	511.509	80.007	20.009	100.340	20.015	6.396	0.518
886.000	511.726	80.005	20.009	100.340	20.016	6.266	0.460
886.500	511.994	80.006	20.009	100.345	20.016	6.149	0.461
887.000	512.231	80.006	20.009	100.347	20.015	6.323	0.495
887.501	512.481	80.005	20.009	100.349	20.020	5.589	0.496
888.000	512.763	80.005	20.009	100.345	20.015	6.422	0.509
888.500	513.031	80.005	20.009	100.339	20.018	5.956	0.541
889.000	513.213	80.006	20.009	100.326	20.017	6.000	0.499
889.500	513.534	80.004	20.009	100.322	20.016	6.251	0.477
890.000	513.782	80.006	20.010	100.322	20.017	6.141	0.537
890.500	514.014	80.004	20.009	100.325	20.017	5.994	0.524
891.000	514.259	80.006	20.009	100.332	20.017	6.127	0.478
891.500	514.508	80.007	20.009	100.338	20.019	5.810	0.486
892.000	514.788	80.005	20.009	100.336	20.016	6.149	0.512
892.500	515.009	80.007	20.009	100.328	20.016	6.276	0.515
893.000	515.288	80.005	20.010	100.321	20.013	6.769	0.501
893.500	515.576	80.005	20.009	100.318	20.012	6.836	0.533
894.000	515.836	80.006	20.009	100.319	20.015	6.406	0.558
894.500	516.092	80.005	20.009	100.325	20.013	6.683	0.532
895.000	516.308	80.006	20.009	100.333	20.015	6.449	0.493
895.500	516.571	80.006	20.009	100.339	20.015	6.446	0.475
896.000	516.861	80.007	20.009	100.338	20.014	6.493	0.516
896.500	517.123	80.007	20.010	100.336	20.016	6.266	0.553
897.000	517.400	80.007	20.009	100.337	20.014	6.480	0.545
897.500	517.607	80.006	20.010	100.339	20.016	6.166	0.511
898.000	517.872	80.006	20.009	100.341	20.014	6.570	0.478
898.500	518.109	80.006	20.010	100.345	20.014	6.573	0.488
899.000	518.384	80.007	20.009	100.347	20.015	6.346	0.507
899.500	518.631	80.007	20.010	100.343	20.016	6.189	0.517
900.000	518.843	80.005	20.009	100.340	20.017	6.029	0.491
900.501	519.115	80.006	20.009	100.336	20.017	6.136	0.472
901.001	519.337	80.007	20.009	100.339	20.016	6.236	0.489
901.500	519.640	80.007	20.009	100.345	20.017	6.086	0.509
902.000	519.884	80.006	20.009	100.355	20.016	6.165	0.536
902.500	520.158	80.005	20.009	100.362	20.014	6.498	0.532
903.000	520.378	80.006	20.009	100.364	20.015	6.355	0.506
903.500	520.688	80.006	20.009	100.361	20.015	6.371	0.513
904.000	520.902	80.007	20.009	100.355	20.016	6.242	0.527
904.500	521.156	80.005	20.009	100.346	20.014	6.589	0.496
905.000	521.412	80.008	20.009	100.341	20.017	5.995	0.489
905.500	521.655	80.007	20.009	100.341	20.018	5.888	0.504
906.000	521.929	80.006	20.008	100.343	20.015	6.325	0.508
906.500	522.171	80.006	20.010	100.343	20.017	6.125	0.517
907.000	522.422	80.006	20.009	100.343	20.015	6.451	0.504
907.500	522.682	80.006	20.009	100.342	20.013	6.705	0.502
908.000	522.870	80.004	20.009	100.340	20.013	6.622	0.479
908.500	523.185	80.005	20.009	100.341	20.012	6.865	0.476
909.000	523.392	80.006	20.009	100.347	20.012	6.815	0.513
909.500	523.661	80.006	20.009	100.350	20.015	6.328	0.499
910.000	523.897	80.006	20.009	100.350	20.012	6.918	0.490
910.500	524.135	80.007	20.009	100.349	20.011	7.041	0.490
911.000	524.396	80.007	20.010	100.345	20.012	6.905	0.487
911.500	524.677	80.006	20.010	100.340	20.014	6.559	0.520
912.000	524.925	80.006	20.009	100.338	20.012	6.785	0.535
912.500	525.196	80.007	20.009	100.342	20.013	6.682	0.524
913.000	525.426	80.006	20.009	100.343	20.014	6.555	0.510
913.500	525.691	80.005	20.009	100.344	20.014	6.475	0.498
914.000	525.892	80.006	20.009	100.342	20.011	7.002	0.481
914.500	526.171	80.006	20.009	100.336	20.012	6.919	0.473
915.000	526.387	80.006	20.009	100.324	20.012	6.932	0.487
915.500	526.656	80.006	20.009	100.321	20.009	7.352	0.490
916.000	526.891	80.006	20.009	100.320	20.010	7.148	0.495
916.500	527.166	80.006	20.009	100.323	20.009	7.355	0.507
917.000	527.418	80.004	20.009	100.330	20.011	7.048	0.518
917.500	527.653	80.007	20.009	100.337	20.010	7.244	0.507
918.000	527.932	80.006	20.009	100.333	20.012	6.821	0.501
918.500	528.184	80.007	20.009	100.326	20.012	6.855	0.523
919.000	528.379	80.004	20.009	100.321	20.014	6.565	0.489
919.500	528.699	80.007	20.009	100.320	20.011	7.062	0.481
920.000	528.891	80.006	20.009	100.321	20.009	7.338	0.514
920.500	529.164	80.005	20.009	100.328	20.013	6.724	0.488
921.000	529.515	80.007	20.010	100.331	20.014	6.591	0.544
921.500	529.732	80.006	20.009	100.328	20.014	6.528	0.596
922.000	529.936	80.005	20.010	100.323	20.011	6.942	0.494
922.500	530.202	80.005	20.009	100.320	20.011	6.952	0.445
923.000	530.409	80.005	20.009	100.320	20.010	7.148	0.471
923.500	530.659	80.006	20.009	100.324	20.012	6.914	0.465
924.000	530.862	80.006	20.009	100.331	20.011	6.954	0.456
924.500	531.114	80.006	20.009	100.336	20.012	6.864	0.454
925.000	531.392	80.005	20.009	100.334	20.011	6.994	0.492
925.500	531.639	80.007	20.009	100.328	20.010	7.168	0.527
926.000	531.897	80.004	20.010	100.325	20.008	7.495	0.515
926.500	532.132	80.006	20.009	100.326	20.011	6.942	0.499
927.000	532.381	80.006	20.009	100.327	20.009	7.382	0.489
927.500	532.651	80.005	20.009	100.333	20.007	7.571	0.502
928.000	532.866	80.006	20.009	100.339	20.009	7.338	0.502
928.500	533.139	80.006	20.009	100.339	20.009	7.375	0.486
929.000	533.348	80.005	20.009	100.331	20.008	7.425	0.485
929.500	533.655	80.006	20.009	100.323	20.010	7.159	0.499
930.000	533.891	80.007	20.009	100.318	20.011	7.086	0.530
930.500	534.130	80.006	20.009	100.318	20.010	7.186	0.509
931.000	534.423	80.006	20.008	100.323	20.011	6.986	0.503
931.500	534.625	80.006	20.008	100.330	20.009	7.309	0.513
932.000	534.848	80.005	20.010	100.332	20.010	7.179	0.460
932.500	535.108	80.006	20.010	100.329	20.011	7.083	0.454
933.000	535.392	80.006	20.009	100.321	20.011	7.010	0.513
933.500	535.667	80.005	20.009	100.316	20.010	7.151	0.552
934.000	535.925	80.007	20.009	100.317	20.009	7.378	0.546
934.500	536.170	80.004	20.009	100.324	20.012	6.895	0.518
935.000	536.440	80.006	20.009	100.331	20.010	7.104	0.509
935.500	536.664	80.005	20.009	100.332	20.013	6.704	0.504
936.000	536.929	80.006	20.009	100.327	20.012	6.807	0.491
936.500	537.227	80.006	20.009	100.320	20.014	6.564	0.526
937.000	537.477	80.006	20.009	100.313	20.013	6.717	0.556
937.500	537.688	80.004	20.009	100.313	20.009	7.308	0.504
938.001	537.952	80.006	20.009	100.320	20.012	6.868	0.468
938.501	538.163	80.005	20.009	100.328	20.011	6.998	0.475
939.000	538.398	80.005	20.009	100.336	20.010	7.227	0.461
939.500	538.747	80.006	20.009	100.340	20.013	6.651	0.515
940.000	538.959	80.006	20.009	100.333	20.015	6.354	0.572
940.500	539.166	80.006	20.009	100.326	20.012	6.867	0.490
941.000	539.440	80.006	20.009	100.323	20.015	6.454	0.450
941.500	539.668	80.003	20.009	100.323	20.012	6.844	0.491
942.000	539.967	80.007	20.009	100.325	20.013	6.777	0.514
942.500	540.236	80.006	20.009	100.337	20.012	6.904	0.547
943.000	540.444	80.006	20.009	100.343	20.013	6.696	0.522
943.500	540.614	80.005	20.009	100.346	20.014	6.597	0.428
944.000	540.920	80.005	20.009	100.346	20.013	6.715	0.427
944.500	541.203	80.006	20.009	100.345	20.014	6.496	0.532
945.000	541.392	80.005	20.010	100.343	20.016	6.293	0.530
945.500	541.671	80.005	20.009	100.350	20.015	6.320	0.470
946.000	541.929	80.006	20.009	100.358	20.018	5.903	0.502
946.500	542.143	80.006	20.008	100.365	20.016	6.166	0.504
947.000	542.433	80.006	20.009	100.372	20.016	6.265	0.488
947.500	542.646	80.006	20.010	100.371	20.018	5.954	0.504
948.000	542.907	80.005	20.009	100.365	20.018	5.894	0.489
948.500	543.143	80.006	20.009	100.359	20.019	5.764	0.486
949.000	543.387	80.005	20.009	100.355	20.018	5.944	0.488
949.500	543.691	80.006	20.009	100.355	20.019	5.738	0.514
950.000	543.881	80.005	20.009	100.363	20.020	5.561	0.521
950.500	544.142	80.007	20.009	100.370	20.018	5.960	0.472
951.000	544.401	80.006	20.009	100.373	20.018	5.926	0.486
951.500	544.621	80.006	20.009	100.370	20.021	5.476	0.500
952.000	544.914	80.006	20.009	100.363	20.021	5.382	0.496
952.500	545.139	80.006	20.009	100.361	20.019	5.792	0.515
953.000	545.392	80.006	20.009	100.361	20.022	5.349	0.498
953.500	545.571	80.005	20.009	100.364	20.022	5.336	0.455
954.000	545.826	80.006	20.009	100.368	20.021	5.453	0.433
954.500	546.107	80.006	20.009	100.368	20.021	5.422	0.485
955.000	546.271	80.007	20.009	100.363	20.022	5.259	0.490
955.500	546.585	80.006	20.009	100.355	20.020	5.559	0.462
956.000	546.866	80.006	20.010	100.350	20.023	5.169	0.536
956.500	547.120	80.006	20.009	100.357	20.022	5.326	0.565
957.000	547.299	80.005	20.009	100.373	20.022	5.353	0.484
957.500	547.555	80.005	20.009	100.388	20.020	5.527	0.434
958.000	547.784	80.006	20.009	100.402	20.019	5.746	0.460
958.500	547.981	80.006	20.009	100.407	20.020	5.526	0.456
959.000	548.294	80.006	20.009	100.404	20.019	5.685	0.468
959.500	548.521	80.006	20.009	100.391	20.019	5.782	0.525
960.000	548.760	80.005	20.009	100.376	20.019	5.729	0.503
960.500	549.001	80.007	20.009	100.365	20.018	5.936	0.473
961.000	549.231	80.006	20.009	100.364	20.017	6.140	0.476
961.500	549.499	80.005	20.009	100.364	20.017	6.113	0.485
962.000	549.751	80.006	20.009	100.367	20.014	6.530	0.509
962.500	550.000	80.006	20.009	100.367	20.017	5.996	0.511
963.000	550.237	80.005	20.009	100.363	20.014	6.473	0.493
963.500	550.523	80.005	20.010	100.354	20.014	6.519	0.504
964.000	550.774	80.007	20.009	100.345	20.016	6.243	0.530
964.500	551.054	80.005	20.009	100.337	20.014	6.606	0.534
965.000	551.274	80.005	20.009	100.336	20.019	5.779	0.515
965.500	551.558	80.005	20.009	100.337	20.018	5.929	0.502
966.000	551.810	80.005	20.009	100.339	20.015	6.389	0.520
966.500	551.982	80.005	20.009	100.340	20.016	6.165	0.480
967.000	552.241	80.005	20.009	100.338	20.016	6.211	0.427
967.500	552.459	80.005	20.009	100.334	20.015	6.378	0.454
968.000	552.756	80.006	20.009	100.332	20.013	6.708	0.496
968.500	553.012	80.006	20.010	100.334	20.014	6.538	0.534
969.000	553.260	80.005	20.009	100.341	20.014	6.596	0.528
969.500	553.488	80.006	20.008	100.349	20.013	6.726	0.490
970.000	553.742	80.005	20.009	100.353	20.014	6.506	0.479
970.500	553.975	80.006	20.009	100.352	20.014	6.469	0.485
971.000	554.257	80.006	20.009	100.347	20.014	6.505	0.501
971.500	554.464	80.005	20.009	100.335	20.012	6.778	0.502
972.000	554.725	80.005	20.009	100.328	20.012	6.874	0.479
972.500	555.031	80.007	20.009	100.328	20.016	6.195	0.517
973.000	555.204	80.005	20.009	100.331	20.013	6.638	0.522
973.500	555.451	80.004	20.009	100.338	20.014	6.562	0.449
974.000	555.662	80.005	20.009	100.345	20.016	6.172	0.439
974.500	555.981	80.006	20.010	100.346	20.016	6.248	0.494
975.000	556.200	80.006	20.009	100.345	20.018	5.981	0.534
975.500	556.461	80.006	20.009	100.343	20.013	6.727	0.509
976.000	556.710	80.005	20.009	100.341	20.013	6.624	0.495
976.500	556.918	80.006	20.009	100.340	20.014	6.605	0.483
977.000	557.183	80.005	20.008	100.342	20.013	6.772	0.465
977.500	557.445	80.006	20.009	100.342	20.015	6.326	0.500
978.000	557.703	80.006	20.009	100.342	20.011	6.943	0.524
978.500	557.952	80.005	20.009	100.342	20.011	7.067	0.514
979.000	558.178	80.005	20.009	100.338	20.008	7.499	0.491
979.500	558.417	80.005	20.010	100.328	20.009	7.352	0.470
980.000	558.726	80.006	20.009	100.321	20.011	6.986	0.507
980.500	558.966	80.006	20.009	100.321	20.011	7.059	0.549
981.000	559.197	80.006	20.009	100.321	20.013	6.687	0.510
981.500	559.463	80.005	20.009	100.327	20.012	6.907	0.484
982.000	559.741	80.006	20.009	100.336	20.011	7.084	0.521
982.500	560.000	80.005	20.009	100.343	20.010	7.160	0.540
983.000	560.244	80.006	20.009	100.344	20.014	6.516	0.520
983.500	560.454	80.005	20.009	100.335	20.009	7.369	0.479
984.000	560.710	80.005	20.009	100.324	20.011	6.992	0.460
984.500	560.926	80.005	20.009	100.318	20.008	7.518	0.469
985.000	561.169	80.005	20.009	100.318	20.007	7.715	0.465
985.500	561.504	80.006	20.008	100.318	20.008	7.492	0.518
986.000	561.728	80.006	20.009	100.326	20.009	7.359	0.569
986.500	561.969	80.005	20.009	100.334	20.008	7.539	0.512
987.000	562.263	80.005	20.009	100.333	20.005	7.881	0.500
987.500	562.475	80.005	20.009	100.326	20.007	7.653	0.521
988.000	562.781	80.007	20.009	100.318	20.005	7.935	0.512
988.500	563.025	80.004	20.009	100.314	20.009	7.322	0.534
989.000	563.310	80.006	20.010	100.313	20.008	7.449	0.539
989.500	563.506	80.004	20.009	100.322	20.006	7.732	0.505
990.000	563.762	80.005	20.008	100.337	20.007	7.589	0.467
990.500	563.980	80.005	20.009	100.347	20.010	7.240	0.464
991.000	564.291	80.006	20.009	100.352	20.010	7.090	0.502
991.500	564.569	80.006	20.010	100.350	20.007	7.571	0.559
992.000	564.772	80.006	20.009	100.346	20.008	7.535	0.535
992.500	565.009	80.006	20.009	100.340	20.011	7.053	0.460
993.001	565.327	80.006	20.009	100.338	20.008	7.428	0.497
993.500	565.563	80.007	20.009	100.344	20.010	7.148	0.554
994.000	565.818	80.006	20.009	100.352	20.007	7.671	0.523
994.500	566.025	80.005	20.009	100.358	20.009	7.260	0.477
995.000	566.241	80.006	20.009	100.359	20.011	6.966	0.443
995.500	566.493	80.006	20.010	100.357	20.011	7.052	0.446
996.000	566.723	80.005	20.009	100.345	20.009	7.383	0.475
996.500	567.016	80.006	20.009	100.333	20.007	7.680	0.502
997.000	567.235	80.004	20.009	100.327	20.006	7.767	0.518
997.500	567.509	80.005	20.009	100.327	20.010	7.178	0.503
998.000	567.748	80.005	20.009	100.332	20.007	7.608	0.503
998.500	568.027	80.005	20.009	100.339	20.008	7.527	0.516
999.000	568.295	80.004	20.008	100.344	20.007	7.607	0.533
999.500	568.475	80.005	20.009	100.337	20.012	6.910	0.498
1000.000	568.750	80.005	20.009	100.321	20.012	6.853	0.451
1000.500	568.998	80.006	20.009	100.304	20.009	7.377	0.489
1001.001	569.190	80.005	20.009	100.295	20.009	7.311	0.482
1001.500	569.396	80.005	20.009	100.288	20.010	7.172	0.419
1002.000	569.703	80.006	20.009	100.289	20.011	7.082	0.455
1002.500	569.927	80.005	20.008	100.296	20.013	6.671	0.522
1003.000	570.205	80.005	20.009	100.300	20.012	6.827	0.517
1003.500	570.402	80.005	20.009	100.302	20.014	6.607	0.489
1004.000	570.647	80.007	20.010	100.309	20.010	7.159	0.458
1004.500	570.906	80.005	20.009	100.319	20.013	6.727	0.473
1005.000	571.125	80.007	20.009	100.334	20.011	6.960	0.491
1005.500	571.427	80.005	20.009	100.350	20.011	6.987	0.500
1006.000	571.602	80.006	20.009	100.365	20.014	6.501	0.499
1006.500	571.863	80.005	20.009	100.366	20.014	6.548	0.457
1007.000	572.142	80.006	20.009	100.364	20.012	6.891	0.488
1007.501	572.355	80.006	20.009	100.354	20.014	6.581	0.516
1008.000	572.611	80.005	20.009	100.344	20.011	7.088	0.481
1008.500	572.795	80.006	20.009	100.336	20.012	6.795	0.455
1009.000	573.130	80.007	20.009	100.342	20.014	6.583	0.479
1009.500	573.326	80.005	20.009	100.350	20.015	6.330	0.525
1010.000	573.607	80.005	20.008	100.359	20.015	6.423	0.503
1010.500	573.855	80.006	20.009	100.368	20.013	6.669	0.503
1011.000	574.052	80.005	20.009	100.368	20.014	6.525	0.488
1011.500	574.268	80.006	20.009	100.362	20.017	6.114	0.429
1012.000	574.508	80.005	20.009	100.355	20.016	6.278	0.434
1012.500	574.767	80.004	20.010	100.350	20.012	6.781	0.478
1013.000	574.976	80.006	20.009	100.352	20.014	6.552	0.483
1013.500	575.262	80.004	20.008	100.361	20.013	6.732	0.481
1014.000	575.472	80.005	20.009	100.370	20.012	6.918	0.495
1014.500	575.722	80.006	20.009	100.378	20.012	6.851	0.477
1015.000	575.961	80.005	20.009	100.377	20.013	6.643	0.474
1015.500	576.223	80.005	20.009	100.370	20.012	6.796	0.496
1016.000	576.453	80.004	20.009	100.361	20.011	6.959	0.497
1016.500	576.679	80.005	20.009	100.352	20.015	6.407	0.473
1017.000	576.928	80.005	20.009	100.345	20.012	6.911	0.465
1017.500	577.210	80.006	20.009	100.351	20.012	6.914	0.503
1018.000	577.376	80.004	20.009	100.358	20.014	6.484	0.490
1018.500	577.675	80.005	20.009	100.364	20.015	6.407	0.457
1019.000	577.863	80.005	20.009	100.368	20.017	6.124	0.476
1019.500	578.128	80.006	20.009	100.368	20.019	5.687	0.470
1020.000	578.289	80.005	20.009	100.361	20.016	6.261	0.440
1020.500	578.633	80.006	20.010	100.362	20.018	5.894	0.466
1021.000	578.799	80.005	20.009	100.372	20.019	5.708	0.508
1021.500	579.106	80.004	20.009	100.384	20.019	5.821	0.491
1022.000	579.313	80.006	20.008	100.394	20.017	6.054	0.493
1022.500	579.580	80.005	20.009	100.401	20.019	5.683	0.494
1023.000	579.815	80.006	20.009	100.396	20.018	5.926	0.488
1023.500	580.091	80.004	20.009	100.383	20.021	5.500	0.506
1024.000	580.265	80.005	20.009	100.372	20.016	6.224	0.480
1024.500	580.548	80.006	20.009	100.368	20.015	6.407	0.454
1025.000	580.696	80.004	20.009	100.368	20.021	5.507	0.444
1025.500	581.065	80.005	20.009	100.374	20.015	6.360	0.474
1026.000	581.269	80.005	20.009	100.382	20.017	6.073	0.545
1026.500	581.535	80.005	20.009	100.381	20.017	6.016	0.521
1027.000	581.737	80.005	20.008	100.373	20.014	6.483	0.469
1027.500	582.014	80.006	20.009	100.364	20.016	6.187	0.474
1028.000	582.255	80.005	20.009	100.355	20.016	6.300	0.499
1028.500	582.520	80.006	20.009	100.345	20.015	6.450	0.512
1029.000	582.682	80.006	20.009	100.345	20.014	6.530	0.467
1029.500	582.939	80.005	20.009	100.352	20.010	7.172	0.423
1030.000	583.205	80.006	20.009	100.360	20.015	6.425	0.471
1030.500	583.399	80.005	20.009	100.362	20.015	6.458	0.492
1031.000	583.732	80.005	20.010	100.362	20.012	6.791	0.494
1031.500	583.921	80.005	20.009	100.359	20.013	6.681	0.525
1032.001	584.118	80.006	20.010	100.357	20.013	6.638	0.454
1032.501	584.427	80.005	20.009	100.357	20.012	6.835	0.445
1033.000	584.623	80.005	20.008	100.363	20.014	6.568	0.505
1033.500	584.939	80.006	20.009	100.369	20.012	6.848	0.509
1034.000	585.223	80.007	20.009	100.369	20.011	7.071	0.557
1034.500	585.466	80.005	20.009	100.363	20.011	7.025	0.563
1035.000	585.686	80.005	20.009	100.356	20.012	6.786	0.495
1035.500	585.912	80.006	20.009	100.347	20.012	6.927	0.454
1036.000	586.154	80.005	20.009	100.348	20.013	6.654	0.457
1036.500	586.433	80.007	20.009	100.353	20.010	7.237	0.495
1037.000	586.695	80.005	20.009	100.361	20.014	6.570	0.531
1037.500	586.870	80.005	20.008	100.361	20.011	7.023	0.489
1038.000	587.130	80.006	20.009	100.361	20.011	6.973	0.436
1038.501	587.402	80.005	20.010	100.353	20.014	6.493	0.483
1039.001	587.610	80.005	20.009	100.346	20.013	6.756	0.506
1039.501	587.841	80.007	20.009	100.341	20.010	7.170	0.459
1040.000	588.075	80.005	20.009	100.348	20.011	6.950	0.452
1040.501	588.363	80.007	20.009	100.355	20.011	6.992	0.494
1041.001	588.617	80.006	20.008	100.359	20.009	7.349	0.532
1041.500	588.856	80.004	20.009	100.358	20.013	6.655	0.517
1042.000	589.070	80.005	20.008	100.349	20.010	7.095	0.473
1042.500	589.363	80.006	20.009	100.334	20.011	7.045	0.480
1043.000	589.645	80.004	20.009	100.319	20.011	7.036	0.541
1043.500	589.848	80.006	20.009	100.316	20.010	7.192	0.530
1044.001	590.144	80.005	20.009	100.317	20.009	7.399	0.492
1044.501	590.373	80.006	20.008	100.322	20.008	7.415	0.512
1045.000	590.555	80.006	20.008	100.329	20.009	7.372	0.468
1045.501	590.873	80.007	20.009	100.330	20.009	7.352	0.456
1046.001	591.088	80.004	20.009	100.324	20.009	7.292	0.517
1046.501	591.431	80.007	20.010	100.320	20.009	7.343	0.546
1047.001	591.565	80.005	20.009	100.321	20.008	7.446	0.517
1047.500	591.843	80.007	20.009	100.326	20.006	7.766	0.444
1048.001	592.135	80.006	20.009	100.341	20.008	7.446	0.491
1048.501	592.440	80.005	20.009	100.355	20.009	7.259	0.584
1049.000	592.620	80.005	20.009	100.360	20.008	7.526	0.541
1049.500	592.915	80.005	20.009	100.359	20.010	7.190	0.480
1050.000	593.109	80.006	20.009	100.356	20.009	7.290	0.482
1050.500	593.441	80.006	20.009	100.348	20.008	7.467	0.507
1051.000	593.623	80.005	20.009	100.343	20.008	7.540	0.520
1051.500	593.922	80.006	20.009	100.348	20.012	6.827	0.497
1052.000	594.215	80.005	20.009	100.349	20.008	7.503	0.537
1052.500	594.425	80.005	20.009	100.349	20.006	7.776	0.548
1053.000	594.779	80.007	20.009	100.347	20.010	7.136	0.534
1053.500	594.941	80.006	20.009	100.339	20.009	7.270	0.540
1054.000	595.242	80.005	20.009	100.333	20.009	7.304	0.490
1054.500	595.546	80.007	20.009	100.333	20.009	7.350	0.534
1055.000	595.735	80.006	20.009	100.333	20.006	7.843	0.548
1055.500	595.985	80.006	20.009	100.335	20.008	7.532	0.466
1056.001	596.241	80.007	20.009	100.341	20.007	7.662	0.473
1056.501	596.517	80.005	20.009	100.341	20.007	7.679	0.519
1057.000	596.798	80.007	20.010	100.334	20.007	7.586	0.545
1057.500	597.024	80.005	20.009	100.330	20.007	7.720	0.532
1058.000	597.257	80.006	20.009	100.330	20.008	7.543	0.483
1058.500	597.526	80.007	20.008	100.334	20.005	8.007	0.481
1059.000	597.797	80.005	20.009	100.336	20.007	7.700	0.521
1059.500	598.018	80.006	20.009	100.342	20.007	7.690	0.516
1060.000	598.286	80.007	20.009	100.347	20.006	7.820	0.491
1060.501	598.562	80.004	20.009	100.347	20.008	7.471	0.516
1061.001	598.804	80.007	20.009	100.341	20.007	7.642	0.531
1061.500	599.044	80.005	20.009	100.338	20.007	7.689	0.500
1062.000	599.305	80.007	20.009	100.342	20.006	7.852	0.492
1062.500	599.528	80.005	20.009	100.349	20.009	7.385	0.493
1063.000	599.800	80.006	20.009	100.354	20.008	7.479	0.489
1063.500	600.010	80.005	20.008	100.357	20.006	7.829	0.488
1064.000	600.333	80.006	20.009	100.356	20.010	7.189	0.507
1064.500	600.534	80.005	20.009	100.352	20.009	7.370	0.529
1065.000	600.803	80.006	20.009	100.345	20.009	7.281	0.498
1065.501	601.118	80.006	20.009	100.343	20.007	7.721	0.527
1066.001	601.372	80.006	20.009	100.348	20.006	7.740	0.576
1066.500	601.554	80.005	20.009	100.354	20.008	7.535	0.502
1067.000	601.852	80.005	20.009	100.357	20.008	7.508	0.458
1067.500	602.065	80.007	20.009	100.356	20.009	7.374	0.496
1068.000	602.378	80.006	20.009	100.347	20.009	7.358	0.519
1068.500	602.586	80.006	20.010	100.341	20.011	6.978	0.524
1069.000	602.860	80.005	20.009	100.337	20.013	6.688	0.501
1069.500	603.078	80.006	20.009	100.336	20.012	6.865	0.487
1070.001	603.336	80.005	20.009	100.343	20.012	6.828	0.484
1070.501	603.585	80.007	20.009	100.351	20.012	6.825	0.491
1071.000	603.870	80.004	20.009	100.351	20.012	6.895	0.520
1071.500	604.065	80.005	20.009	100.352	20.009	7.309	0.507
1072.000	604.340	80.006	20.009	100.350	20.011	6.939	0.475
1072.500	604.643	80.006	20.010	100.349	20.014	6.498	0.524
1073.001	604.867	80.006	20.008	100.357	20.014	6.531	0.553
1073.501	605.171	80.005	20.009	100.366	20.012	6.930	0.527
1074.000	605.430	80.007	20.009	100.373	20.012	6.840	0.545
1074.501	605.650	80.006	20.010	100.380	20.014	6.510	0.521
1075.001	605.956	80.006	20.009	100.380	20.011	6.950	0.503
1075.500	606.198	80.007	20.009	100.377	20.013	6.737	0.537
1076.000	606.437	80.006	20.009	100.377	20.016	6.301	0.514
1076.500	606.713	80.006	20.009	100.383	20.012	6.917	0.498
1077.000	606.893	80.008	20.009	100.392	20.011	6.973	0.486
1077.500	607.219	80.006	20.009	100.403	20.009	7.306	0.481
1078.001	607.434	80.005	20.009	100.406	20.013	6.643	0.523
1078.501	607.700	80.007	20.009	100.406	20.013	6.670	0.511
1079.001	607.970	80.007	20.009	100.391	20.016	6.267	0.509
1079.500	608.243	80.006	20.010	100.379	20.013	6.768	0.539
1080.000	608.457	80.006	20.009	100.370	20.015	6.434	0.515
1080.500	608.769	80.005	20.009	100.368	20.014	6.574	0.506
1081.000	608.989	80.005	20.009	100.369	20.015	6.433	0.529
1081.500	609.207	80.006	20.009	100.376	20.011	7.039	0.485
1082.000	609.530	80.004	20.009	100.380	20.013	6.710	0.490
1082.500	609.755	80.007	20.009	100.378	20.013	6.747	0.545
1083.000	609.994	80.006	20.009	100.377	20.014	6.514	0.506
1083.500	610.262	80.005	20.009	100.376	20.014	6.561	0.485
1084.000	610.517	80.007	20.009	100.379	20.013	6.777	0.515
1084.501	610.806	80.004	20.008	100.380	20.011	6.974	0.534
1085.001	611.076	80.007	20.009	100.382	20.012	6.794	0.552
1085.500	611.303	80.005	20.009	100.379	20.011	6.944	0.528
1086.001	611.579	80.007	20.009	100.371	20.009	7.298	0.499
1086.501	611.805	80.006	20.009	100.359	20.010	7.125	0.502
1087.000	612.007	80.006	20.009	100.354	20.008	7.435	0.465
1087.500	612.299	80.005	20.009	100.353	20.009	7.261	0.461
1088.000	612.584	80.006	20.009	100.357	20.008	7.524	0.535
1088.500	612.858	80.005	20.009	100.364	20.009	7.287	0.568
1089.000	613.036	80.005	20.009	100.365	20.011	7.040	0.505
1089.500	613.220	80.005	20.009	100.362	20.010	7.230	0.407
1090.000	613.515	80.007	20.009	100.354	20.008	7.451	0.421
1090.500	613.785	80.006	20.009	100.348	20.009	7.408	0.522
1091.000	614.039	80.006	20.009	100.348	20.007	7.691	0.545
1091.501	614.319	80.005	20.008	100.356	20.008	7.508	0.529
1092.001	614.506	80.004	20.009	100.364	20.007	7.714	0.500
1092.501	614.766	80.007	20.009	100.367	20.008	7.520	0.457
1093.001	614.991	80.006	20.009	100.366	20.008	7.490	0.466
1093.501	615.245	80.006	20.009	100.357	20.011	7.077	0.482
1094.001	615.525	80.007	20.009	100.349	20.009	7.348	0.506
1094.500	615.810	80.005	20.009	100.345	20.009	7.388	0.550
1095.000	616.059	80.007	20.009	100.349	20.009	7.268	0.549
1095.500	616.291	80.005	20.008	100.357	20.010	7.224	0.507
1096.000	616.506	80.005	20.009	100.364	20.009	7.350	0.464
1096.500	616.838	80.006	20.009	100.366	20.007	7.614	0.497
1097.000	617.065	80.005	20.009	100.362	20.009	7.390	0.553
1097.500	617.337	80.007	20.009	100.358	20.008	7.498	0.529
1098.000	617.538	80.004	20.009	100.359	20.006	7.848	0.486
1098.500	617.804	80.006	20.009	100.362	20.011	7.054	0.470
1099.000	618.030	80.005	20.009	100.368	20.009	7.294	0.480
1099.501	618.361	80.006	20.009	100.376	20.010	7.096	0.524
1100.001	618.607	80.006	20.009	100.374	20.009	7.326	0.567
1100.501	618.833	80.005	20.009	100.365	20.007	7.636	0.525
1101.001	619.103	80.005	20.009	100.357	20.006	7.734	0.484
1101.501	619.348	80.006	20.009	100.353	20.010	7.161	0.505
1102.001	619.545	80.005	20.009	100.352	20.010	7.171	0.479
1102.501	619.837	80.005	20.009	100.358	20.008	7.478	0.466
1103.000	620.049	80.006	20.009	100.366	20.008	7.427	0.497
1103.500	620.327	80.006	20.009	100.373	20.007	7.630	0.497
1104.001	620.570	80.006	20.008	100.372	20.006	7.747	0.505
1104.501	620.927	80.006	20.010	100.364	20.006	7.874	0.561
1105.000	621.149	80.006	20.009	100.357	20.006	7.838	0.590
1105.500	621.380	80.005	20.009	100.353	20.008	7.512	0.516
1106.001	621.627	80.007	20.009	100.354	20.006	7.858	0.466
1106.501	621.936	80.005	20.009	100.360	20.005	7.971	0.517
1107.000	622.156	80.006	20.009	100.367	20.004	8.054	0.542
1107.500	622.380	80.005	20.009	100.373	20.007	7.683	0.487
1108.000	622.588	80.006	20.009	100.369	20.005	7.980	0.438
1108.501	622.938	80.007	20.009	100.362	20.006	7.734	0.495
1109.001	623.191	80.006	20.009	100.355	20.007	7.701	0.580
1109.501	623.432	80.005	20.009	100.355	20.006	7.862	0.548
1110.000	623.667	80.005	20.008	100.358	20.005	7.992	0.485
1110.501	623.926	80.006	20.009	100.365	20.006	7.841	0.485
1111.001	624.162	80.006	20.009	100.367	20.005	7.897	0.494
1111.500	624.444	80.006	20.009	100.367	20.006	7.834	0.507
1112.000	624.682	80.005	20.009	100.358	20.005	8.007	0.519
1112.501	624.919	80.005	20.010	100.350	20.005	7.951	0.498
1113.001	625.243	80.007	20.009	100.343	20.004	8.162	0.518
1113.501	625.422	80.005	20.009	100.348	20.004	8.092	0.532
1114.001	625.699	80.006	20.009	100.355	20.005	7.938	0.479
1114.501	625.972	80.005	20.009	100.364	20.002	8.361	0.503
1115.001	626.215	80.007	20.009	100.368	20.006	7.874	0.533
1115.501	626.503	80.005	20.009	100.368	20.004	8.058	0.524
1116.001	626.733	80.005	20.010	100.361	20.007	7.668	0.525
1116.500	626.970	80.005	20.009	100.356	20.006	7.782	0.492
1117.001	627.213	80.005	20.009	100.356	20.005	7.965	0.473
1117.501	627.487	80.006	20.009	100.362	20.006	7.731	0.498
1118.000	627.724	80.006	20.009	100.369	20.005	7.880	0.514
1118.500	628.041	80.006	20.009	100.376	20.007	7.679	0.533
1119.000	628.326	80.006	20.009	100.374	20.004	8.095	0.578
1119.500	628.510	80.006	20.009	100.365	20.003	8.222	0.536
1120.001	628.694	80.005	20.010	100.356	20.005	7.976	0.419
1120.501	628.971	80.005	20.009	100.348	20.003	8.291	0.415
1121.001	629.214	80.006	20.009	100.349	20.006	7.795	0.490
1121.501	629.507	80.005	20.009	100.357	20.004	8.162	0.528
1122.000	629.708	80.005	20.009	100.366	20.004	8.059	0.515
1122.500	629.975	80.006	20.009	100.373	20.005	7.973	0.481
1123.001	630.250	80.005	20.010	100.373	20.005	7.893	0.505
1123.501	630.466	80.005	20.009	100.367	20.005	8.003	0.517
1124.002	630.702	80.007	20.010	100.359	20.005	7.906	0.472
1124.501	631.016	80.005	20.010	100.360	20.007	7.670	0.501
1125.000	631.221	80.005	20.009	100.362	20.007	7.616	0.534
1125.500	631.482	80.006	20.009	100.368	20.005	7.935	0.492
1126.000	631.759	80.005	20.008	100.375	20.005	7.981	0.502
1126.500	631.996	80.004	20.009	100.381	20.007	7.720	0.526
1127.000	632.185	80.007	20.010	100.373	20.006	7.790	0.470
1127.500	632.478	80.004	20.009	100.365	20.005	7.976	0.454
1128.000	632.729	80.006	20.009	100.364	20.006	7.874	0.513
1128.500	633.017	80.004	20.009	100.363	20.006	7.857	0.542
1129.000	633.245	80.006	20.009	100.366	20.006	7.800	0.528
1129.500	633.491	80.005	20.009	100.373	20.002	8.437	0.495
1130.000	633.773	80.006	20.009	100.373	20.006	7.876	0.500
1130.500	633.941	80.006	20.009	100.366	20.007	7.680	0.489
1131.000	634.261	80.004	20.009	100.355	20.010	7.190	0.469
1131.500	634.507	80.005	20.009	100.343	20.009	7.381	0.527
1132.000	634.735	80.007	20.009	100.336	20.007	7.695	0.520
1132.500	635.008	80.007	20.009	100.341	20.008	7.512	0.488
1133.000	635.229	80.006	20.009	100.349	20.014	6.591	0.497
1133.500	635.503	80.005	20.009	100.360	20.008	7.490	0.494
1134.000	635.754	80.007	20.009	100.372	20.009	7.340	0.510
1134.500	636.028	80.006	20.009	100.381	20.008	7.416	0.525
1135.000	636.311	80.006	20.010	100.383	20.007	7.570	0.541
1135.500	636.533	80.006	20.009	100.386	20.008	7.461	0.531
1136.000	636.818	80.005	20.009	100.390	20.008	7.541	0.506
1136.500	637.062	80.006	20.009	100.391	20.009	7.398	0.518
1137.000	637.249	80.005	20.009	100.392	20.008	7.488	0.480
1137.500	637.549	80.006	20.009	100.392	20.009	7.281	0.459
1138.001	637.800	80.005	20.009	100.384	20.007	7.687	0.519
1138.501	638.009	80.005	20.009	100.372	20.008	7.551	0.505
1139.000	638.258	80.005	20.010	100.362	20.010	7.154	0.459
1139.500	638.569	80.006	20.009	100.352	20.010	7.135	0.509
1140.000	638.786	80.006	20.009	100.346	20.008	7.505	0.544
1140.500	639.087	80.006	20.009	100.350	20.010	7.198	0.523
1141.000	639.313	80.005	20.009	100.355	20.010	7.174	0.522
1141.501	639.571	80.006	20.009	100.356	20.006	7.831	0.505
1142.001	639.802	80.005	20.009	100.356	20.008	7.414	0.486
1142.500	640.076	80.007	20.009	100.353	20.009	7.255	0.497
1143.000	640.379	80.006	20.009	100.346	20.010	7.232	0.541
1143.500	640.549	80.005	20.009	100.349	20.009	7.276	0.525
1144.000	640.819	80.006	20.009	100.359	20.006	7.743	0.456
1144.501	641.137	80.006	20.009	100.367	20.009	7.372	0.514
1145.001	641.311	80.005	20.009	100.375	20.010	7.228	0.540
1145.500	641.569	80.007	20.009	100.379	20.010	7.178	0.462
1146.000	641.868	80.005	20.009	100.371	20.010	7.135	0.494
1146.500	642.132	80.006	20.010	100.359	20.009	7.252	0.560
1147.000	642.415	80.007	20.009	100.350	20.009	7.255	0.555
1147.500	642.682	80.005	20.009	100.347	20.008	7.414	0.549
1148.000	642.862	80.007	20.009	100.352	20.006	7.747	0.499
1148.500	643.176	80.005	20.009	100.360	20.004	8.096	0.470
1149.000	643.443	80.006	20.009	100.368	20.007	7.670	0.537
1149.500	643.660	80.005	20.009	100.371	20.007	7.617	0.532
1150.001	643.911	80.007	20.009	100.367	20.008	7.484	0.476
1150.501	644.165	80.007	20.010	100.361	20.010	7.221	0.487
1151.001	644.394	80.004	20.009	100.361	20.007	7.645	0.495
1151.501	644.674	80.006	20.010	100.361	20.010	7.248	0.496
1152.001	644.926	80.007	20.009	100.369	20.010	7.185	0.521
1152.500	645.165	80.006	20.009	100.377	20.011	6.985	0.511
1153.001	645.411	80.005	20.009	100.375	20.008	7.496	0.487
1153.501	645.668	80.006	20.009	100.367	20.009	7.353	0.493
1154.000	645.891	80.006	20.010	100.361	20.008	7.461	0.491
1154.500	646.211	80.006	20.009	100.359	20.009	7.297	0.512
1155.001	646.487	80.006	20.010	100.361	20.010	7.157	0.570
1155.501	646.758	80.005	20.008	100.375	20.007	7.587	0.572
1156.000	647.001	80.007	20.009	100.385	20.009	7.383	0.531
1156.501	647.268	80.007	20.009	100.391	20.009	7.327	0.512
1157.001	647.504	80.006	20.009	100.389	20.009	7.313	0.506
1157.500	647.707	80.008	20.009	100.385	20.006	7.830	0.471
1158.000	648.000	80.007	20.010	100.378	20.008	7.469	0.468
1158.500	648.255	80.006	20.009	100.376	20.009	7.311	0.522
1159.000	648.525	80.007	20.009	100.376	20.008	7.471	0.536
1159.500	648.794	80.007	20.009	100.379	20.006	7.811	0.532
1160.000	649.017	80.006	20.010	100.373	20.010	7.231	0.515
1160.500	649.294	80.005	20.010	100.365	20.012	6.898	0.496
1161.000	649.585	80.007	20.009	100.357	20.011	6.998	0.534
1161.501	649.780	80.006	20.009	100.348	20.008	7.508	0.527
1162.001	650.073	80.006	20.009	100.346	20.008	7.444	0.487
1162.500	650.293	80.006	20.009	100.352	20.009	7.333	0.501
1163.001	650.609	80.006	20.009	100.360	20.010	7.170	0.524
1163.501	650.803	80.006	20.009	100.368	20.013	6.650	0.523
1164.000	651.054	80.005	20.010	100.375	20.012	6.914	0.478
1164.500	651.252	80.006	20.009	100.376	20.014	6.621	0.447
1165.000	651.533	80.006	20.009	100.376	20.011	7.011	0.464
1165.500	651.781	80.006	20.009	100.379	20.012	6.824	0.504
1166.000	652.034	80.006	20.009	100.387	20.010	7.163	0.515
1166.500	652.304	80.006	20.009	100.397	20.010	7.216	0.512
1167.000	652.538	80.006	20.009	100.404	20.011	7.070	0.514
1167.500	652.838	80.007	20.009	100.407	20.013	6.697	0.519
1168.000	653.016	80.004	20.009	100.404	20.016	6.274	0.506
1168.500	653.335	80.006	20.009	100.397	20.012	6.901	0.488
1169.000	653.567	80.005	20.010	100.396	20.010	7.217	0.524
1169.500	653.774	80.006	20.009	100.396	20.011	7.073	0.495
1170.000	654.070	80.006	20.009	100.397	20.009	7.253	0.471
1170.500	654.294	80.006	20.009	100.395	20.010	7.126	0.511
1171.000	654.579	80.006	20.009	100.387	20.010	7.243	0.514
1171.500	654.809	80.005	20.009	100.372	20.008	7.420	0.512
1172.000	655.081	80.005	20.009	100.362	20.007	7.706	0.509
1172.501	655.301	80.005	20.010	100.359	20.008	7.466	0.497
1173.001	655.587	80.005	20.009	100.365	20.004	8.046	0.499
1173.500	655.854	80.007	20.009	100.372	20.007	7.646	0.529
1174.000	656.067	80.004	20.009	100.377	20.007	7.586	0.516
1174.500	656.356	80.007	20.009	100.372	20.006	7.767	0.491
1175.000	656.624	80.006	20.009	100.364	20.006	7.858	0.530
1175.500	656.850	80.007	20.009	100.353	20.006	7.741	0.526
1176.000	657.078	80.006	20.009	100.351	20.005	7.921	0.474
1176.500	657.361	80.006	20.009	100.355	20.003	8.340	0.482
1177.001	657.625	80.006	20.009	100.363	20.003	8.204	0.529
1177.501	657.885	80.006	20.009	100.367	20.000	8.671	0.536
1178.001	658.119	80.007	20.009	100.367	20.001	8.611	0.509
1178.501	658.328	80.005	20.009	100.358	20.003	8.252	0.468
1179.000	658.610	80.005	20.010	100.350	20.005	8.015	0.467
1179.500	658.857	80.006	20.009	100.349	20.003	8.345	0.510
1180.000	659.145	80.005	20.009	100.353	20.004	8.187	0.532
1180.500	659.415	80.006	20.009	100.359	20.002	8.507	0.546
1181.000	659.589	80.006	20.009	100.365	20.002	8.381	0.501
1181.501	659.914	80.005	20.009	100.366	20.005	7.931	0.471
1182.001	660.113	80.006	20.009	100.359	20.003	8.328	0.511
1182.501	660.428	80.005	20.009	100.349	20.003	8.338	0.519
1183.001	660.641	80.005	20.010	100.342	20.001	8.534	0.521
1183.500	660.873	80.006	20.009	100.340	20.003	8.290	0.487
1184.000	661.156	80.004	20.008	100.346	20.003	8.303	0.480
1184.500	661.383	80.006	20.009	100.346	20.001	8.533	0.512
1185.000	661.617	80.007	20.009	100.349	20.001	8.654	0.485
1185.500	661.851	80.006	20.009	100.348	20.002	8.354	0.464
1186.000	662.150	80.005	20.009	100.347	20.001	8.534	0.500
1186.500	662.355	80.006	20.009	100.343	20.001	8.631	0.519
1187.000	662.669	80.006	20.009	100.350	20.001	8.563	0.512
1187.500	662.869	80.005	20.009	100.357	20.004	8.149	0.517
1188.000	663.086	80.006	20.009	100.364	20.001	8.589	0.465
1188.500	663.373	80.005	20.009	100.365	20.003	8.290	0.460
1189.000	663.607	80.006	20.009	100.362	20.002	8.457	0.512
1189.500	663.905	80.006	20.009	100.357	20.002	8.408	0.527
1190.001	664.160	80.005	20.009	100.358	20.006	7.784	0.543
1190.501	664.398	80.005	20.009	100.360	19.999	8.837	0.523
1191.000	664.646	80.005	20.009	100.368	20.001	8.520	0.489
1191.500	664.925	80.006	20.009	100.377	20.003	8.263	0.507
1192.000	665.188	80.005	20.009	100.377	20.001	8.637	0.534
1192.500	665.359	80.006	20.008	100.370	20.002	8.397	0.488
1193.000	665.569	80.005	20.009	100.363	20.004	8.061	0.408
1193.500	665.889	80.005	20.008	100.361	20.003	8.335	0.455
1194.000	666.134	80.006	20.009	100.360	20.004	8.084	0.547
1194.501	666.419	80.006	20.009	100.365	20.004	8.080	0.548
1195.001	666.661	80.005	20.008	100.371	20.003	8.287	0.529
1195.501	666.875	80.006	20.009	100.371	20.006	7.767	0.491
1196.001	667.165	80.006	20.009	100.364	20.004	8.125	0.480
1196.500	667.404	80.006	20.009	100.355	20.000	8.769	0.516
1197.000	667.702	80.006	20.009	100.349	20.002	8.409	0.533
1197.501	667.924	80.004	20.008	100.351	20.002	8.500	0.529
1198.001	668.134	80.006	20.009	100.356	20.004	8.049	0.476
1198.501	668.403	80.005	20.009	100.363	20.004	8.039	0.455
1199.000	668.648	80.005	20.009	100.364	20.003	8.340	0.497
1199.500	668.858	80.005	20.009	100.361	20.003	8.310	0.485
1200.000	669.210	80.006	20.009	100.353	20.005	8.000	0.508
1200.500	669.411	80.006	20.009	100.345	20.005	7.887	0.557
1201.000	669.686	80.006	20.009	100.345	20.005	7.996	0.515
1201.500	669.925	80.006	20.008	100.352	20.004	8.179	0.496
1202.000	670.167	80.005	20.008	100.360	20.005	7.992	0.498
1202.500	670.442	80.006	20.009	100.364	20.002	8.375	0.499
1203.000	670.621	80.006	20.009	100.365	20.001	8.602	0.486
1203.500	670.918	80.005	20.009	100.359	20.003	8.243	0.465
1204.000	671.174	80.006	20.009	100.351	20.000	8.749	0.514
1204.500	671.385	80.006	20.009	100.347	20.002	8.462	0.510
1205.000	671.622	80.004	20.009	100.351	19.998	9.008	0.458
1205.500	671.868	80.007	20.009	100.358	20.002	8.451	0.466
1206.000	672.149	80.005	20.009	100.366	20.002	8.401	0.505
1206.500	672.350	80.006	20.009	100.370	20.001	8.595	0.504
1207.000	672.649	80.005	20.009	100.367	20.001	8.655	0.491
1207.500	672.905	80.005	20.009	100.359	20.003	8.265	0.528
1208.000	673.102	80.005	20.009	100.356	20.005	7.949	0.504
1208.501	673.366	80.005	20.009	100.359	20.006	7.848	0.457
1209.001	673.641	80.006	20.009	100.369	20.003	8.245	0.500
1209.500	673.912	80.005	20.009	100.377	20.002	8.375	0.542
1210.000	674.222	80.007	20.009	100.385	20.002	8.382	0.563
1210.500	674.420	80.006	20.009	100.387	20.002	8.385	0.545
1211.001	674.678	80.006	20.009	100.384	20.002	8.448	0.482
1211.501	674.981	80.006	20.009	100.382	20.002	8.484	0.508
1212.000	675.195	80.005	20.009	100.389	20.003	8.297	0.539
1212.500	675.423	80.007	20.009	100.396	20.000	8.794	0.480
1213.000	675.603	80.004	20.009	100.397	20.005	7.924	0.425
1213.501	675.887	80.006	20.009	100.398	20.004	8.092	0.436
1214.001	676.179	80.005	20.009	100.389	20.004	8.182	0.520
1214.500	676.455	80.006	20.009	100.379	20.002	8.365	0.572
1215.001	676.659	80.006	20.009	100.372	20.002	8.358	0.524
1215.501	676.986	80.006	20.009	100.376	20.002	8.391	0.505
1216.000	677.190	80.007	20.009	100.377	20.001	8.641	0.531
1216.500	677.430	80.004	20.009	100.383	20.002	8.428	0.488
1217.000	677.711	80.004	20.009	100.381	20.000	8.669	0.483
1217.500	677.913	80.006	20.009	100.374	20.000	8.823	0.502
1218.000	678.160	80.006	20.009	100.364	20.001	8.649	0.466
1218.501	678.445	80.005	20.009	100.362	20.004	8.149	0.490
1219.001	678.650	80.005	20.009	100.364	20.001	8.625	0.512
1219.500	678.901	80.006	20.009	100.370	20.003	8.302	0.473
1220.000	679.130	80.006	20.009	100.376	20.001	8.659	0.468
1220.500	679.432	80.005	20.009	100.378	20.002	8.489	0.505
1221.000	679.633	80.006	20.010	100.376	20.001	8.596	0.518
1221.501	679.879	80.006	20.009	100.374	20.004	8.133	0.475
1222.001	680.138	80.006	20.009	100.374	20.003	8.319	0.475
1222.501	680.402	80.004	20.009	100.374	20.004	8.133	0.514
1223.001	680.670	80.006	20.008	100.377	20.005	8.026	0.527
1223.500	680.934	80.005	20.009	100.375	20.001	8.647	0.532
1224.000	681.213	80.005	20.009	100.370	19.999	8.894	0.538
1224.501	681.451	80.006	20.009	100.363	20.002	8.497	0.530
1225.001	681.646	80.005	20.009	100.360	20.002	8.397	0.475
1225.500	681.928	80.005	20.009	100.359	20.003	8.240	0.455
1226.000	682.205	80.007	20.009	100.365	20.003	8.346	0.518
1226.500	682.365	80.005	20.009	100.373	20.003	8.299	0.498
1227.000	682.649	80.006	20.009	100.379	20.003	8.306	0.441
1227.500	682.893	80.006	20.009	100.378	20.004	8.150	0.486
1228.000	683.194	80.005	20.009	100.371	20.003	8.271	0.536
1228.500	683.392	80.004	20.010	100.367	20.002	8.384	0.522
1229.000	683.733	80.007	20.009	100.368	20.001	8.621	0.519
1229.500	683.957	80.005	20.009	100.374	20.002	8.490	0.552
1230.001	684.187	80.006	20.009	100.377	20.001	8.636	0.510
1230.501	684.447	80.005	20.009	100.385	20.001	8.559	0.472
1231.001	684.682	80.005	20.009	100.384	20.002	8.373	0.492
1231.500	684.947	80.005	20.009	100.378	20.005	7.929	0.497
1232.000	685.186	80.004	20.010	100.373	20.001	8.576	0.502
1232.500	685.459	80.005	20.009	100.373	20.002	8.386	0.508
1233.001	685.715	80.006	20.008	100.375	20.002	8.416	0.520
1233.501	685.957	80.005	20.009	100.381	20.004	8.170	0.513
1234.000	686.234	80.006	20.009	100.384	20.000	8.680	0.509
1234.500	686.445	80.006	20.009	100.385	19.999	8.878	0.504
1235.000	686.687	80.006	20.009	100.384	20.001	8.665	0.471
1235.500	686.999	80.005	20.009	100.384	20.000	8.712	0.503
1236.000	687.284	80.006	20.009	100.384	20.001	8.517	0.575
1236.500	687.436	80.004	20.009	100.392	20.004	8.192	0.517
1237.000	687.756	80.004	20.009	100.395	20.004	8.155	0.455
1237.500	688.027	80.005	20.009	100.395	20.004	8.158	0.531
1238.001	688.234	80.005	20.009	100.395	20.005	7.958	0.534
1238.501	688.507	80.005	20.009	100.391	20.002	8.421	0.479
1239.000	688.771	80.006	20.009	100.383	20.005	7.935	0.509
1239.501	688.978	80.007	20.009	100.382	20.006	7.755	0.504
1240.001	689.232	80.007	20.009	100.389	20.005	8.025	0.466
1240.500	689.503	80.005	20.009	100.396	20.004	8.169	0.493
1241.000	689.757	80.006	20.009	100.402	20.005	7.932	0.525
1241.500	690.018	80.005	20.009	100.402	20.003	8.230	0.520
1242.001	690.277	80.005	20.009	100.399	20.003	8.261	0.518
1242.501	690.516	80.006	20.009	100.393	20.003	8.208	0.509
1243.000	690.762	80.005	20.009	100.386	20.000	8.675	0.492
1243.500	691.075	80.004	20.009	100.384	20.001	8.558	0.522
1244.000	691.230	80.004	20.008	100.386	20.004	8.064	0.514
1244.500	691.453	80.005	20.008	100.388	20.001	8.624	0.423
1245.000	691.715	80.006	20.009	100.387	20.003	8.284	0.431
1245.500	691.968	80.005	20.009	100.385	20.003	8.219	0.500
1246.000	692.262	80.005	20.009	100.382	20.004	8.160	0.530
1246.500	692.496	80.005	20.009	100.387	20.000	8.777	0.537
1247.000	692.692	80.004	20.008	100.393	20.000	8.690	0.479
1247.500	693.028	80.006	20.009	100.402	20.000	8.807	0.481
1248.000	693.236	80.005	20.008	100.409	19.998	9.129	0.538
1248.500	693.487	80.005	20.009	100.409	20.000	8.816	0.502
1249.000	693.774	80.006	20.009	100.396	20.000	8.733	0.499
1249.500	694.025	80.004	20.009	100.382	20.000	8.800	0.538
1250.000	694.292	80.004	20.009	100.369	20.001	8.666	0.527
1250.500	694.472	80.006	20.008	100.364	19.999	8.829	0.483
1251.000	694.813	80.005	20.009	100.364	19.999	8.965	0.484
1251.500	694.983	80.005	20.009	100.369	20.001	8.664	0.516
1252.000	695.280	80.006	20.009	100.375	20.002	8.444	0.489
1252.500	695.504	80.004	20.009	100.379	20.002	8.418	0.494
1253.000	695.757	80.005	20.009	100.378	20.001	8.656	0.499
1253.500	696.013	80.004	20.009	100.379	20.004	8.168	0.493
1254.000	696.352	80.006	20.009	100.384	20.005	8.024	0.552
1254.500	696.499	80.004	20.009	100.392	20.006	7.842	0.540
1255.000	696.773	80.006	20.009	100.402	20.008	7.441	0.453
1255.500	697.023	80.006	20.009	100.410	20.012	6.897	0.473
1256.000	697.315	80.004	20.009	100.410	20.008	7.457	0.533
1256.500	697.489	80.006	20.009	100.407	20.013	6.754	0.505
1257.000	697.782	80.006	20.009	100.402	20.009	7.335	0.466
1257.500	698.018	80.005	20.009	100.401	20.008	7.465	0.497
1258.000	698.261	80.006	20.009	100.405	20.009	7.288	0.504
1258.500	698.492	80.005	20.009	100.420	20.011	6.954	0.477
1259.000	698.749	80.005	20.009	100.430	20.010	7.104	0.481
1259.500	699.004	80.005	20.009	100.434	20.007	7.574	0.500
1260.000	699.306	80.004	20.009	100.433	20.006	7.824	0.535
1260.500	699.500	80.005	20.009	100.428	20.011	7.068	0.526
1261.000	699.815	80.005	20.009	100.420	20.008	7.478	0.502
1261.500	700.064	80.007	20.009	100.424	20.009	7.354	0.536
1262.000	700.267	80.005	20.009	100.428	20.005	7.917	0.508
1262.500	700.578	80.005	20.008	100.429	20.005	8.021	0.483
1263.000	700.799	80.004	20.009	100.427	20.006	7.811	0.523
1263.500	701.093	80.006	20.009	100.419	20.004	8.178	0.523
1264.000	701.293	80.006	20.009	100.408	20.003	8.268	0.504
1264.501	701.558	80.006	20.009	100.404	20.002	8.381	0.480
1265.001	701.815	80.005	20.009	100.406	20.005	7.881	0.494
1265.500	702.070	80.005	20.008	100.410	20.001	8.521	0.517
1266.000	702.352	80.005	20.009	100.417	20.002	8.467	0.525
1266.500	702.567	80.006	20.008	100.412	20.003	8.318	0.517
1267.000	702.803	80.004	20.009	100.398	19.998	9.112	0.474
1267.500	703.102	80.007	20.009	100.381	19.999	8.846	0.493
1268.000	703.384	80.006	20.009	100.366	20.000	8.812	0.558
1268.500	703.614	80.005	20.009	100.358	19.999	8.978	0.546
1269.000	703.854	80.007	20.009	100.360	19.997	9.198	0.491
1269.500	704.084	80.006	20.008	100.367	19.998	9.045	0.470
1270.000	704.426	80.005	20.009	100.375	19.999	8.982	0.521
1270.500	704.619	80.006	20.009	100.376	19.997	9.280	0.553
1271.000	704.894	80.005	20.009	100.369	19.998	9.060	0.502
1271.500	705.194	80.005	20.009	100.363	19.996	9.350	0.522
1272.000	705.394	80.006	20.009	100.362	20.000	8.815	0.538
1272.501	705.686	80.006	20.008	100.362	19.995	9.475	0.496
1273.001	705.895	80.006	20.009	100.367	19.994	9.615	0.496
1273.500	706.105	80.005	20.009	100.371	19.997	9.285	0.460
1274.000	706.473	80.007	20.009	100.368	19.998	9.015	0.499
1274.500	706.717	80.005	20.009	100.362	19.998	9.088	0.596
1275.000	706.949	80.006	20.009	100.360	19.999	8.888	0.544
1275.500	707.192	80.005	20.009	100.359	20.002	8.468	0.476
1276.000	707.460	80.005	20.008	100.363	19.999	8.918	0.493
1276.500	707.740	80.006	20.008	100.370	19.996	9.359	0.529
1277.001	707.935	80.005	20.009	100.373	19.996	9.340	0.511
1277.501	708.238	80.005	20.009	100.367	19.998	9.126	0.486
1278.000	708.415	80.005	20.009	100.359	19.999	8.972	0.489
1278.500	708.685	80.006	20.009	100.359	19.996	9.338	0.464
1279.000	709.001	80.006	20.009	100.361	19.999	8.978	0.516
1279.500	709.202	80.005	20.009	100.366	19.997	9.229	0.551
1280.000	709.493	80.006	20.009	100.374	19.995	9.513	0.505
1280.500	709.758	80.005	20.009	100.380	19.998	9.077	0.524
1281.000	710.027	80.006	20.009	100.372	19.995	9.513	0.545
1281.500	710.278	80.007	20.009	100.366	20.000	8.770	0.526
1282.000	710.544	80.006	20.009	100.368	19.995	9.547	0.518
1282.500	710.839	80.005	20.009	100.374	20.002	8.511	0.539
1283.000	711.100	80.006	20.009	100.379	20.000	8.814	0.558
1283.500	711.312	80.005	20.009	100.387	19.998	9.001	0.515
1284.000	711.585	80.005	20.009	100.392	19.998	9.031	0.480
1284.500	711.789	80.006	20.009	100.384	19.997	9.214	0.481
1285.000	712.099	80.005	20.009	100.376	19.996	9.436	0.495
1285.500	712.336	80.005	20.009	100.373	19.997	9.177	0.530
1286.000	712.614	80.005	20.009	100.373	20.000	8.707	0.531
1286.500	712.853	80.007	20.009	100.370	19.998	9.038	0.516
1287.000	713.122	80.004	20.009	100.367	19.998	9.052	0.513
1287.500	713.361	80.006	20.009	100.364	19.999	8.902	0.508
1288.000	713.624	80.006	20.009	100.365	19.999	8.898	0.505
1288.501	713.903	80.006	20.009	100.365	19.997	9.145	0.522
1289.001	714.159	80.005	20.009	100.373	20.000	8.792	0.538
1289.501	714.424	80.005	20.009	100.381	19.999	8.870	0.527
1290.001	714.698	80.006	20.008	100.384	19.999	8.985	0.530
1290.501	714.986	80.007	20.009	100.378	20.001	8.565	0.551
1291.001	715.255	80.006	20.009	100.376	20.003	8.214	0.560
1291.500	715.480	80.007	20.009	100.370	20.002	8.514	0.525
1292.001	715.713	80.005	20.009	100.371	20.003	8.216	0.476
1292.501	715.994	80.006	20.009	100.380	20.001	8.586	0.487
1293.000	716.265	80.005	20.009	100.387	20.000	8.773	0.533
1293.500	716.466	80.006	20.009	100.388	20.000	8.712	0.512
1294.000	716.771	80.007	20.009	100.388	20.002	8.458	0.489
1294.500	716.986	80.005	20.009	100.389	20.001	8.644	0.513
1295.001	717.220	80.006	20.009	100.390	20.002	8.439	0.485
1295.501	717.496	80.006	20.008	100.398	19.999	8.909	0.480
1296.001	717.746	80.006	20.009	100.403	19.999	8.884	0.518
1296.501	718.022	80.005	20.008	100.403	20.000	8.714	0.526
1297.000	718.260	80.006	20.009	100.400	20.002	8.359	0.520
1297.500	718.514	80.006	20.009	100.391	20.000	8.682	0.503
1298.000	718.786	80.007	20.009	100.386	20.003	8.258	0.509
1298.500	719.118	80.004	20.009	100.390	20.004	8.123	0.565
1299.000	719.297	80.005	20.009	100.397	20.002	8.363	0.558
1299.501	719.606	80.007	20.009	100.407	20.002	8.442	0.499
1300.001	719.736	80.005	20.009	100.412	20.003	8.263	0.463
1300.500	720.076	80.006	20.009	100.410	20.004	8.143	0.454
1301.000	720.305	80.005	20.010	100.407	20.003	8.296	0.520
1301.500	720.552	80.006	20.010	100.409	20.003	8.269	0.522
1302.001	720.816	80.006	20.009	100.417	20.001	8.542	0.493
1302.501	721.058	80.006	20.009	100.428	20.005	7.992	0.509
1303.000	721.346	80.005	20.009	100.443	20.003	8.229	0.518
1303.500	721.513	80.007	20.010	100.445	20.004	8.085	0.493
1304.000	721.807	80.005	20.009	100.443	20.003	8.259	0.458
1304.500	721.951	80.006	20.010	100.435	20.003	8.236	0.450
1305.000	722.255	80.005	20.009	100.429	20.003	8.202	0.443
1305.500	722.475	80.006	20.009	100.422	20.006	7.841	0.486
1306.000	722.831	80.006	20.009	100.423	20.003	8.271	0.550
1306.501	723.053	80.005	20.009	100.415	20.004	8.178	0.577
1307.001	723.244	80.006	20.009	100.406	20.005	7.998	0.495
1307.500	723.496	80.004	20.010	100.394	20.003	8.222	0.428
1308.000	723.777	80.005	20.009	100.385	20.002	8.416	0.488
1308.500	723.999	80.006	20.009	100.384	20.003	8.319	0.518
1309.000	724.181	80.004	20.009	100.395	19.997	9.232	0.453
1309.501	724.484	80.006	20.009	100.404	20.000	8.702	0.444
1310.001	724.743	80.005	20.008	100.416	20.000	8.812	0.524
1310.500	725.065	80.006	20.009	100.416	20.001	8.646	0.572
1311.001	725.197	80.004	20.009	100.405	19.999	8.914	0.518
1311.501	725.463	80.006	20.009	100.392	19.999	8.981	0.426
1312.000	725.705	80.006	20.009	100.384	20.000	8.750	0.453
1312.500	725.936	80.005	20.008	100.380	19.995	9.473	0.490
1313.000	726.225	80.005	20.008	100.384	19.997	9.233	0.496
1313.500	726.421	80.005	20.009	100.387	19.997	9.212	0.503
1314.000	726.712	80.006	20.009	100.389	19.999	8.863	0.486
1314.500	727.006	80.005	20.009	100.384	19.998	9.107	0.536
1315.000	727.214	80.006	20.009	100.378	19.994	9.728	0.543
1315.500	727.453	80.006	20.009	100.375	19.994	9.655	0.474
1316.000	727.681	80.005	20.008	100.377	19.991	10.161	0.457
1316.500	727.879	80.005	20.009	100.377	19.995	9.597	0.447
1317.000	728.106	80.006	20.009	100.381	19.993	9.803	0.426
1317.500	728.386	80.004	20.009	100.382	19.989	10.460	0.466
1318.000	728.691	80.006	20.009	100.379	19.995	9.583	0.546
1318.500	728.888	80.005	20.009	100.371	19.995	9.560	0.543
1319.000	729.152	80.006	20.009	100.368	19.991	10.170	0.482
1319.500	729.421	80.005	20.009	100.368	19.989	10.440	0.497
1320.000	729.687	80.006	20.009	100.375	19.993	9.886	0.534
1320.500	729.991	80.005	20.009	100.377	20.000	8.755	0.553
1321.000	730.216	80.005	20.009	100.383	19.994	9.752	0.549
1321.500	730.509	80.006	20.009	100.384	20.003	8.325	0.523
1322.000	730.690	80.006	20.010	100.379	19.995	9.506	0.496
1322.500	730.961	80.006	20.009	100.373	19.994	9.634	0.463
1323.000	731.298	80.007	20.009	100.378	19.989	10.494	0.530
1323.500	731.478	80.005	20.009	100.385	19.998	9.057	0.563
1324.000	731.705	80.007	20.008	100.392	19.992	10.038	0.462
1324.500	731.914	80.006	20.009	100.397	19.995	9.544	0.421
1325.000	732.165	80.005	20.008	100.395	19.991	10.161	0.448
1325.500	732.396	80.006	20.009	100.388	19.990	10.359	0.471
1326.000	732.695	80.006	20.010	100.381	19.993	9.913	0.506
1326.500	732.961	80.006	20.009	100.379	19.992	9.963	0.547
1327.001	733.235	80.006	20.009	100.387	19.995	9.502	0.553
1327.501	733.450	80.007	20.009	100.396	19.996	9.452	0.515
1328.000	733.679	80.006	20.009	100.400	19.989	10.412	0.466
1328.501	733.984	80.006	20.009	100.401	19.996	9.419	0.488
1329.001	734.235	80.006	20.010	100.399	19.991	10.116	0.545
1329.501	734.454	80.005	20.009	100.391	19.992	10.013	0.514
1330.001	734.707	80.006	20.009	100.384	19.990	10.311	0.471
1330.500	734.999	80.005	20.009	100.380	19.996	9.376	0.508
1331.000	735.154	80.005	20.008	100.387	19.993	9.855	0.496
1331.500	735.491	80.007	20.009	100.387	19.989	10.551	0.469
1332.000	735.700	80.007	20.009	100.388	19.996	9.421	0.519
1332.500	736.021	80.005	20.009	100.386	19.989	10.468	0.538
1333.000	736.202	80.006	20.008	100.380	19.989	10.428	0.516
1333.500	736.415	80.007	20.009	100.371	19.996	9.358	0.448
1334.000	736.814	80.006	20.009	100.371	19.991	10.228	0.503
1334.500	736.971	80.005	20.009	100.375	19.995	9.601	0.584
1335.000	737.225	80.005	20.009	100.385	19.996	9.360	0.484
1335.501	737.469	80.005	20.009	100.393	19.992	10.007	0.455
1336.001	737.758	80.005	20.009	100.395	20.001	8.614	0.516
1336.500	737.987	80.006	20.009	100.394	19.994	9.722	0.526
1337.000	738.111	80.004	20.008	100.394	19.995	9.525	0.435
1337.500	738.577	80.006	20.008	100.395	20.000	8.771	0.471
1338.000	738.796	80.004	20.008	100.398	19.998	9.128	0.637
1338.501	738.928	80.005	20.009	100.406	20.004	8.077	0.518
1339.001	739.093	80.006	20.008	100.414	20.002	8.494	0.324
1339.501	739.500	80.005	20.008	100.417	19.998	9.035	0.434
1340.001	739.551	80.005	20.009	100.410	20.001	8.649	0.515
1340.500	739.923	80.005	20.009	100.408	20.004	8.115	0.440
1341.000	740.161	80.005	20.009	100.408	20.001	8.515	0.517
1341.500	740.337	80.006	20.009	100.411	20.003	8.250	0.512
1342.000	740.763	80.006	20.009	100.414	19.999	8.963	0.508
1342.500	741.019	80.007	20.009	100.420	20.000	8.730	0.642
1343.000	741.305	80.006	20.009	100.425	20.003	8.326	0.612
1343.500	741.389	80.006	20.008	100.419	19.999	8.830	0.456
1344.000	741.620	80.005	20.009	100.407	19.998	9.087	0.343
1344.500	741.921	80.004	20.009	100.397	20.003	8.306	0.423
1345.000	742.004	80.005	20.009	100.395	19.997	9.160	0.458
1345.500	742.443	80.005	20.009	100.395	19.996	9.377	0.453
