Sample Weight (mg):	1.98
Heating Rate (C/s):	0.5
Combustor Temp (C):	900
N2 Flow Rate (cc/min):	80
O2 Flow Rate (cc/min):	20
Time (s)	Temperature (C)	N2 flow rate (cc/min)	O2 flow rate (cc/min)	Flow Rate (cc/min)	Oxygen (%)	HRR (W/g)	Heating rate (C/s)
0.000	88.052	80.000	20.008	100.152	20.127	12.137	-0.081
0.500	88.042	80.000	20.007	100.159	20.126	12.182	-0.109
1.000	87.967	79.999	20.007	100.167	20.125	12.407	-0.091
1.500	87.921	80.001	20.007	100.173	20.126	12.290	-0.103
2.000	87.897	80.000	20.007	100.173	20.125	12.379	-0.096
2.500	87.905	79.999	20.007	100.169	20.128	11.980	-0.043
3.000	87.805	80.001	20.007	100.161	20.127	12.011	-0.054
3.500	87.763	79.999	20.008	100.153	20.126	12.193	-0.117
4.000	87.740	80.000	20.007	100.153	20.126	12.271	-0.103
4.501	87.692	80.000	20.007	100.160	20.128	11.982	-0.068
5.000	87.673	79.999	20.007	100.173	20.128	11.878	-0.069
5.500	87.636	80.000	20.007	100.189	20.129	11.704	-0.061
6.000	87.598	80.000	20.007	100.208	20.131	11.463	-0.065
6.500	87.553	80.000	20.007	100.224	20.131	11.482	-0.079
7.000	87.533	80.000	20.007	100.236	20.133	11.057	-0.074
7.500	87.543	79.999	20.007	100.242	20.135	10.851	-0.038
8.000	87.472	80.000	20.008	100.244	20.134	10.982	-0.036
8.500	87.479	80.000	20.007	100.241	20.134	11.007	-0.063
9.000	87.472	79.999	20.008	100.235	20.137	10.530	-0.032
9.500	87.430	80.000	20.008	100.227	20.135	10.854	-0.025
10.000	87.416	79.999	20.008	100.224	20.134	10.955	-0.053
10.500	87.396	80.000	20.008	100.223	20.133	11.108	-0.045
11.001	87.371	79.999	20.007	100.228	20.133	11.060	-0.039
11.501	87.312	80.000	20.007	100.235	20.132	11.226	-0.064
12.000	87.266	79.999	20.007	100.243	20.128	11.909	-0.094
12.500	87.255	80.000	20.008	100.245	20.131	11.519	-0.081
13.000	87.223	79.998	20.007	100.242	20.130	11.543	-0.050
13.501	87.192	80.000	20.007	100.230	20.129	11.778	-0.053
14.001	87.194	79.999	20.008	100.216	20.130	11.640	-0.045
14.501	87.175	79.999	20.008	100.208	20.129	11.811	-0.023
15.000	87.095	80.000	20.008	100.206	20.128	11.868	-0.058
15.500	87.136	79.999	20.007	100.212	20.130	11.556	-0.070
16.000	87.117	80.002	20.007	100.224	20.129	11.685	-0.009
16.500	87.117	80.001	20.009	100.239	20.129	11.810	0.002
17.000	87.066	80.003	20.011	100.250	20.128	11.947	-0.035
17.500	87.068	80.000	20.010	100.258	20.126	12.174	-0.050
18.000	87.060	80.001	20.008	100.258	20.126	12.205	-0.027
18.500	87.054	79.999	20.007	100.251	20.127	12.123	-0.010
19.000	87.003	79.999	20.008	100.243	20.129	11.774	-0.036
19.500	87.033	80.000	20.007	100.235	20.129	11.794	-0.039
20.000	87.028	80.000	20.007	100.229	20.128	11.934	0.002
20.500	86.992	80.000	20.008	100.231	20.128	11.927	-0.009
21.000	86.974	79.999	20.007	100.242	20.126	12.233	-0.048
21.500	86.986	80.001	20.008	100.253	20.128	11.961	-0.030
22.000	86.996	79.999	20.007	100.260	20.125	12.424	0.008
22.500	86.990	80.002	20.007	100.267	20.120	13.114	0.013
23.000	87.042	79.999	20.008	100.267	20.124	12.591	0.025
23.500	86.955	79.999	20.008	100.262	20.121	12.999	0.006
24.000	86.966	80.000	20.007	100.251	20.120	13.200	-0.055
24.500	86.986	80.000	20.007	100.245	20.121	13.093	-0.023
25.000	87.016	79.999	20.008	100.239	20.120	13.213	0.041
25.500	86.965	80.000	20.007	100.238	20.120	13.118	0.015
26.000	86.959	79.999	20.008	100.243	20.116	13.788	-0.040
26.500	87.011	79.999	20.008	100.257	20.116	13.829	-0.006
27.000	86.990	79.999	20.008	100.271	20.117	13.705	0.039
27.500	86.973	79.999	20.007	100.281	20.120	13.154	-0.003
28.000	86.981	79.999	20.008	100.282	20.118	13.495	-0.024
28.500	86.967	80.001	20.007	100.273	20.117	13.683	-0.008
29.000	87.038	79.998	20.008	100.259	20.121	13.091	0.026
29.500	87.030	79.999	20.008	100.246	20.118	13.512	0.060
30.001	87.023	79.999	20.008	100.242	20.118	13.528	0.024
30.500	87.060	80.000	20.007	100.244	20.116	13.792	0.007
31.000	87.112	79.998	20.008	100.253	20.116	13.754	0.059
31.500	87.122	80.000	20.007	100.268	20.117	13.699	0.075
32.000	87.115	79.999	20.007	100.281	20.116	13.873	0.033
32.500	87.129	79.999	20.007	100.281	20.115	13.950	0.005
33.000	87.194	79.999	20.007	100.280	20.116	13.735	0.043
33.500	87.175	79.999	20.008	100.273	20.121	13.016	0.063
34.000	87.273	79.999	20.007	100.260	20.120	13.225	0.063
34.500	87.273	79.999	20.008	100.249	20.120	13.180	0.088
35.001	87.301	79.999	20.008	100.240	20.118	13.495	0.063
35.501	87.340	79.999	20.008	100.239	20.120	13.161	0.048
36.000	87.346	79.999	20.008	100.242	20.117	13.594	0.056
36.500	87.380	80.000	20.007	100.248	20.121	13.085	0.042
37.000	87.419	80.000	20.007	100.252	20.118	13.573	0.056
37.501	87.427	79.999	20.008	100.255	20.117	13.697	0.060
38.001	87.458	79.999	20.007	100.251	20.118	13.435	0.043
38.500	87.485	79.999	20.008	100.243	20.119	13.303	0.048
39.000	87.505	80.000	20.007	100.232	20.119	13.415	0.052
39.500	87.547	79.999	20.008	100.218	20.116	13.801	0.055
40.000	87.533	80.000	20.008	100.213	20.116	13.772	0.046
40.500	87.603	80.000	20.007	100.210	20.118	13.552	0.042
41.000	87.626	79.999	20.008	100.212	20.119	13.395	0.074
41.500	87.681	80.000	20.007	100.222	20.118	13.462	0.085
42.000	87.701	79.999	20.007	100.235	20.116	13.749	0.077
42.501	87.788	79.999	20.007	100.239	20.114	14.208	0.091
43.001	87.825	80.000	20.008	100.239	20.116	13.769	0.115
43.500	87.846	79.999	20.007	100.236	20.116	13.784	0.091
44.000	87.924	80.000	20.008	100.226	20.116	13.836	0.079
44.500	87.936	80.000	20.007	100.219	20.115	13.964	0.095
45.000	88.020	79.999	20.008	100.218	20.116	13.887	0.093
45.501	88.011	80.000	20.007	100.225	20.113	14.331	0.085
46.001	88.075	80.000	20.008	100.235	20.111	14.561	0.065
46.501	88.141	80.000	20.007	100.252	20.113	14.283	0.093
47.001	88.134	79.999	20.008	100.269	20.111	14.562	0.095
47.500	88.157	80.000	20.007	100.284	20.112	14.533	0.037
48.000	88.296	80.000	20.007	100.288	20.107	15.208	0.088
48.500	88.322	79.999	20.007	100.287	20.107	15.333	0.163
49.001	88.357	80.000	20.007	100.279	20.108	15.088	0.113
49.501	88.421	80.001	20.008	100.272	20.106	15.448	0.080
50.001	88.521	80.001	20.007	100.269	20.107	15.260	0.132
50.501	88.515	80.000	20.007	100.275	20.106	15.488	0.129
51.001	88.567	79.999	20.008	100.287	20.105	15.608	0.070
51.501	88.622	80.000	20.007	100.303	20.104	15.699	0.076
52.000	88.671	80.001	20.007	100.318	20.102	16.024	0.106
52.500	88.748	79.999	20.007	100.330	20.103	15.862	0.115
53.000	88.832	80.001	20.007	100.339	20.100	16.368	0.143
53.500	88.834	79.999	20.007	100.340	20.096	16.937	0.124
54.000	88.980	80.000	20.008	100.340	20.099	16.474	0.117
54.500	88.994	80.000	20.008	100.340	20.099	16.563	0.154
55.001	89.059	79.999	20.007	100.341	20.098	16.635	0.119
55.501	89.140	80.000	20.007	100.349	20.099	16.535	0.112
56.000	89.218	80.000	20.007	100.362	20.098	16.706	0.153
56.500	89.290	80.001	20.007	100.377	20.095	17.105	0.154
57.000	89.385	79.999	20.007	100.388	20.096	17.056	0.158
57.500	89.475	80.000	20.008	100.394	20.097	16.880	0.176
58.000	89.480	79.999	20.007	100.394	20.095	17.104	0.140
58.500	89.556	80.000	20.007	100.391	20.093	17.424	0.088
59.000	89.709	80.000	20.008	100.383	20.091	17.751	0.154
59.500	89.723	80.000	20.008	100.384	20.093	17.512	0.198
60.001	89.910	79.999	20.007	100.392	20.091	17.756	0.184
60.501	89.923	80.000	20.007	100.403	20.092	17.590	0.200
61.000	90.036	79.999	20.007	100.418	20.091	17.739	0.163
61.500	90.092	80.000	20.006	100.427	20.094	17.310	0.148
62.000	90.234	80.000	20.008	100.425	20.092	17.579	0.184
62.500	90.428	80.000	20.007	100.417	20.093	17.542	0.267
63.000	90.285	79.998	20.008	100.407	20.093	17.554	0.193
63.500	90.821	80.001	20.008	100.392	20.093	17.431	0.222
64.000	90.577	79.999	20.007	100.387	20.090	17.931	0.342
64.501	90.772	79.999	20.008	100.394	20.091	17.840	0.121
65.001	90.583	79.999	20.008	100.402	20.090	17.911	-0.021
65.500	90.993	80.000	20.007	100.409	20.092	17.656	0.113
66.000	91.001	80.000	20.007	100.417	20.090	18.026	0.320
66.500	91.052	79.999	20.007	100.420	20.091	17.737	0.239
67.000	91.392	80.001	20.007	100.412	20.089	18.152	0.225
67.501	91.306	80.000	20.007	100.404	20.089	18.164	0.323
68.001	91.484	79.999	20.007	100.397	20.089	18.116	0.174
68.501	91.625	80.000	20.008	100.396	20.089	18.044	0.205
69.001	91.692	80.000	20.008	100.398	20.088	18.334	0.263
69.501	91.814	79.999	20.007	100.404	20.089	18.142	0.199
70.001	92.016	79.999	20.007	100.412	20.085	18.805	0.257
70.501	92.136	80.000	20.007	100.420	20.088	18.335	0.323
71.000	92.209	80.000	20.007	100.419	20.085	18.828	0.258
71.500	92.400	80.000	20.007	100.415	20.085	18.670	0.229
72.000	92.445	79.999	20.008	100.408	20.087	18.508	0.250
72.500	92.607	80.000	20.008	100.402	20.084	18.918	0.221
73.000	92.754	80.000	20.007	100.401	20.085	18.743	0.258
73.500	92.897	80.000	20.008	100.407	20.086	18.625	0.299
74.000	93.072	79.998	20.007	100.417	20.082	19.293	0.304
74.500	93.169	80.001	20.007	100.432	20.086	18.572	0.295
75.000	93.315	80.000	20.008	100.440	20.084	18.958	0.258
75.500	93.421	80.000	20.007	100.440	20.085	18.829	0.248
76.001	93.591	80.000	20.007	100.429	20.083	19.059	0.264
76.501	93.735	80.000	20.008	100.415	20.081	19.361	0.294
77.000	93.868	80.000	20.007	100.405	20.081	19.306	0.295
77.500	94.062	79.998	20.008	100.403	20.081	19.372	0.302
78.000	94.206	80.000	20.008	100.406	20.081	19.394	0.333
78.501	94.358	80.001	20.007	100.421	20.081	19.301	0.317
79.001	94.505	80.000	20.007	100.436	20.081	19.407	0.297
79.500	94.655	80.000	20.007	100.444	20.080	19.499	0.298
80.000	94.798	80.001	20.008	100.444	20.080	19.470	0.295
80.500	94.997	79.999	20.008	100.440	20.079	19.698	0.317
81.000	95.124	79.999	20.007	100.432	20.079	19.680	0.334
81.501	95.280	80.000	20.008	100.425	20.078	19.815	0.305
82.001	95.439	80.000	20.007	100.418	20.079	19.740	0.298
82.500	95.608	79.999	20.008	100.425	20.081	19.355	0.322
83.000	95.783	80.000	20.008	100.434	20.077	19.941	0.337
83.500	95.922	80.001	20.007	100.441	20.078	19.802	0.329
84.000	96.115	79.999	20.007	100.446	20.079	19.673	0.323
84.500	96.316	80.001	20.007	100.446	20.077	20.048	0.362
85.000	96.412	80.000	20.007	100.437	20.078	19.913	0.345
85.500	96.559	79.999	20.008	100.428	20.079	19.663	0.270
86.000	96.728	79.999	20.008	100.421	20.076	20.213	0.280
86.500	96.877	80.000	20.007	100.420	20.075	20.383	0.317
87.000	97.073	80.000	20.007	100.428	20.077	20.004	0.332
87.500	97.243	79.999	20.007	100.437	20.075	20.250	0.356
88.000	97.428	80.001	20.007	100.445	20.077	20.052	0.360
88.500	97.586	79.999	20.007	100.452	20.073	20.689	0.348
89.000	97.799	80.000	20.008	100.447	20.077	20.059	0.357
89.500	97.957	80.000	20.008	100.437	20.076	20.114	0.372
90.000	98.173	80.000	20.008	100.430	20.075	20.258	0.372
90.501	98.347	80.000	20.007	100.422	20.077	20.061	0.381
91.001	98.531	80.000	20.008	100.416	20.077	20.033	0.374
91.501	98.711	79.999	20.007	100.423	20.076	20.103	0.361
92.001	98.920	80.001	20.007	100.433	20.074	20.446	0.376
92.501	99.089	80.000	20.007	100.441	20.076	20.131	0.383
93.001	99.279	80.000	20.007	100.446	20.073	20.664	0.369
93.500	99.475	80.000	20.008	100.447	20.072	20.795	0.373
94.000	99.660	80.001	20.008	100.441	20.072	20.793	0.383
94.500	99.893	80.000	20.008	100.433	20.073	20.623	0.399
95.000	100.004	80.000	20.008	100.424	20.075	20.298	0.381
95.500	100.243	80.001	20.007	100.421	20.074	20.458	0.347
96.001	100.395	80.000	20.008	100.428	20.076	20.233	0.371
96.501	100.632	80.000	20.007	100.437	20.079	19.754	0.390
97.000	100.841	80.001	20.007	100.442	20.077	20.004	0.418
97.500	101.042	79.999	20.007	100.443	20.078	19.895	0.428
98.000	101.214	80.001	20.008	100.436	20.078	19.932	0.391
98.500	101.431	80.000	20.008	100.423	20.078	19.787	0.381
99.000	101.668	80.001	20.008	100.414	20.079	19.739	0.422
99.501	101.859	80.000	20.007	100.414	20.079	19.668	0.441
100.001	102.015	79.999	20.007	100.422	20.076	20.129	0.387
100.501	102.287	79.999	20.007	100.435	20.076	20.120	0.387
101.000	102.414	80.001	20.007	100.447	20.077	20.045	0.414
101.500	102.667	80.000	20.007	100.455	20.077	20.069	0.390
102.000	102.834	79.999	20.007	100.450	20.078	19.799	0.400
102.500	103.071	79.999	20.007	100.440	20.080	19.613	0.412
103.000	103.247	80.001	20.007	100.425	20.080	19.536	0.408
103.500	103.506	80.000	20.007	100.410	20.079	19.632	0.424
104.000	103.769	80.000	20.008	100.401	20.080	19.507	0.479
104.500	103.935	80.001	20.007	100.401	20.080	19.574	0.476
105.000	104.137	80.001	20.008	100.411	20.082	19.286	0.399
105.500	104.356	80.002	20.007	100.422	20.080	19.557	0.394
106.000	104.593	80.000	20.007	100.429	20.078	19.783	0.438
106.501	104.821	80.000	20.007	100.431	20.077	19.993	0.461
107.001	105.029	80.001	20.007	100.423	20.082	19.264	0.451
107.500	105.253	80.000	20.007	100.410	20.079	19.714	0.434
108.000	105.473	80.001	20.008	100.405	20.080	19.546	0.438
108.500	105.654	80.000	20.008	100.406	20.078	19.787	0.423
109.000	105.943	80.000	20.008	100.413	20.079	19.704	0.436
109.500	106.115	80.000	20.007	100.428	20.081	19.441	0.465
110.000	106.383	80.000	20.007	100.442	20.082	19.278	0.451
110.500	106.548	79.999	20.007	100.449	20.082	19.288	0.437
111.001	106.836	80.001	20.007	100.451	20.082	19.215	0.443
111.501	107.011	79.999	20.007	100.443	20.081	19.365	0.458
112.000	107.252	80.000	20.007	100.439	20.080	19.565	0.439
112.500	107.480	80.001	20.008	100.434	20.084	18.979	0.442
113.000	107.697	80.000	20.007	100.429	20.083	19.120	0.457
113.500	107.989	80.001	20.007	100.435	20.084	18.978	0.477
114.000	108.203	80.001	20.007	100.444	20.080	19.551	0.508
114.501	108.458	79.999	20.008	100.448	20.081	19.380	0.487
115.001	108.720	80.001	20.007	100.454	20.084	18.866	0.492
115.500	108.909	80.000	20.007	100.460	20.083	18.995	0.484
116.000	109.158	79.999	20.007	100.459	20.080	19.555	0.445
116.501	109.368	80.001	20.008	100.453	20.082	19.243	0.448
117.001	109.629	80.001	20.007	100.447	20.082	19.245	0.465
117.500	109.840	80.001	20.008	100.447	20.081	19.322	0.472
118.000	110.123	79.999	20.007	100.446	20.083	19.117	0.483
118.500	110.328	80.001	20.008	100.449	20.082	19.169	0.491
119.000	110.593	80.002	20.007	100.459	20.080	19.620	0.479
119.501	110.817	79.999	20.007	100.471	20.079	19.718	0.480
120.001	111.081	80.000	20.007	100.471	20.081	19.345	0.488
120.500	111.316	80.001	20.008	100.465	20.082	19.160	0.493
121.000	111.547	80.000	20.008	100.457	20.080	19.526	0.483
121.501	111.785	80.001	20.007	100.441	20.082	19.157	0.468
122.001	112.092	80.001	20.007	100.427	20.080	19.538	0.507
122.500	112.272	80.001	20.008	100.420	20.080	19.580	0.516
123.001	112.591	79.999	20.007	100.421	20.081	19.320	0.493
123.501	112.860	80.001	20.007	100.423	20.081	19.360	0.543
124.000	113.065	80.000	20.007	100.425	20.082	19.192	0.531
124.500	113.259	80.000	20.007	100.425	20.079	19.742	0.436
125.000	113.560	80.000	20.008	100.419	20.079	19.667	0.447
125.500	113.797	80.000	20.007	100.416	20.079	19.651	0.516
126.000	114.105	80.000	20.007	100.418	20.078	19.782	0.541
126.501	114.298	80.000	20.008	100.425	20.079	19.771	0.523
127.001	114.589	80.000	20.007	100.434	20.079	19.662	0.493
127.501	114.848	80.000	20.007	100.447	20.080	19.471	0.517
128.000	115.068	80.001	20.008	100.452	20.080	19.559	0.514
128.500	115.333	80.000	20.007	100.448	20.082	19.186	0.482
129.000	115.594	80.000	20.008	100.438	20.082	19.148	0.506
129.500	115.865	79.999	20.008	100.429	20.080	19.562	0.529
130.000	116.133	80.001	20.008	100.425	20.083	19.129	0.535
130.500	116.392	79.999	20.008	100.427	20.079	19.671	0.533
131.000	116.672	80.001	20.008	100.436	20.083	19.101	0.533
131.500	116.936	80.000	20.007	100.449	20.081	19.436	0.542
132.000	117.141	80.002	20.007	100.461	20.080	19.473	0.506
132.500	117.365	80.000	20.007	100.465	20.082	19.168	0.449
133.000	117.674	80.001	20.008	100.459	20.078	19.849	0.481
133.500	117.963	79.999	20.008	100.451	20.079	19.678	0.565
134.000	118.193	80.001	20.008	100.443	20.080	19.548	0.558
134.500	118.492	79.999	20.007	100.438	20.080	19.602	0.524
135.000	118.680	80.001	20.008	100.438	20.078	19.840	0.508
135.500	118.994	80.000	20.007	100.444	20.080	19.489	0.494
136.000	119.225	80.001	20.008	100.448	20.080	19.609	0.523
136.500	119.526	79.999	20.008	100.450	20.079	19.626	0.539
137.000	119.809	80.000	20.007	100.443	20.077	19.971	0.558
137.500	120.000	80.001	20.007	100.435	20.080	19.564	0.529
138.001	120.264	80.000	20.008	100.428	20.082	19.280	0.464
138.500	120.550	80.000	20.007	100.432	20.084	18.907	0.503
139.000	120.837	80.000	20.008	100.436	20.083	19.110	0.562
139.500	121.059	80.001	20.007	100.445	20.082	19.233	0.541
140.000	121.348	79.999	20.007	100.451	20.082	19.213	0.510
140.500	121.588	80.001	20.007	100.451	20.083	19.035	0.520
141.000	121.855	80.000	20.008	100.442	20.082	19.285	0.518
141.500	122.173	80.000	20.008	100.433	20.084	18.953	0.546
142.000	122.477	80.000	20.007	100.425	20.083	19.050	0.604
142.500	122.729	80.001	20.007	100.422	20.083	19.085	0.589
143.000	122.938	80.000	20.007	100.428	20.082	19.234	0.509
143.500	123.229	80.000	20.007	100.432	20.081	19.422	0.480
144.000	123.535	80.001	20.007	100.439	20.081	19.387	0.548
144.500	123.846	80.000	20.008	100.445	20.083	19.070	0.607
145.000	124.115	80.000	20.007	100.446	20.084	18.958	0.599
145.500	124.350	80.001	20.007	100.441	20.084	18.902	0.542
146.000	124.648	80.000	20.008	100.437	20.084	18.969	0.518
146.500	124.894	80.000	20.008	100.434	20.083	19.071	0.538
147.000	125.221	80.001	20.007	100.434	20.081	19.303	0.558
147.500	125.432	80.001	20.007	100.437	20.082	19.191	0.556
148.000	125.719	79.999	20.007	100.442	20.083	19.085	0.518
148.500	125.988	80.000	20.007	100.442	20.084	18.914	0.527
149.000	126.262	80.001	20.008	100.440	20.084	18.827	0.550
149.501	126.566	80.001	20.008	100.426	20.084	18.872	0.560
150.000	126.846	80.001	20.008	100.410	20.085	18.707	0.581
150.500	127.114	79.999	20.008	100.399	20.084	18.893	0.566
151.000	127.383	80.001	20.009	100.400	20.085	18.653	0.542
151.500	127.630	80.000	20.007	100.405	20.085	18.739	0.526
152.000	127.973	80.000	20.007	100.420	20.087	18.398	0.553
152.500	128.200	80.001	20.008	100.429	20.089	18.152	0.580
153.000	128.496	79.999	20.008	100.433	20.085	18.707	0.546
153.500	128.809	80.000	20.007	100.431	20.087	18.353	0.566
154.000	129.117	79.999	20.007	100.424	20.087	18.479	0.615
154.500	129.344	80.001	20.008	100.416	20.085	18.728	0.578
155.000	129.688	80.001	20.007	100.417	20.086	18.628	0.553
155.500	129.861	80.000	20.008	100.427	20.087	18.408	0.545
156.000	130.248	80.000	20.007	100.435	20.086	18.593	0.539
156.500	130.539	80.001	20.009	100.442	20.087	18.450	0.618
157.000	130.774	79.999	20.007	100.450	20.088	18.343	0.602
157.500	131.064	79.999	20.006	100.456	20.089	18.135	0.525
158.001	131.392	80.000	20.007	100.446	20.087	18.441	0.572
158.500	131.629	80.001	20.008	100.431	20.089	18.058	0.592
159.000	131.877	80.000	20.009	100.417	20.088	18.315	0.525
159.500	132.195	80.001	20.008	100.409	20.086	18.520	0.525
160.000	132.482	80.000	20.007	100.412	20.089	18.091	0.586
160.500	132.826	80.001	20.007	100.421	20.088	18.291	0.618
161.000	133.081	80.000	20.007	100.425	20.088	18.284	0.615
161.500	133.385	80.000	20.007	100.423	20.086	18.625	0.579
162.000	133.638	80.001	20.008	100.408	20.086	18.618	0.558
162.500	133.929	80.000	20.008	100.379	20.084	18.948	0.551
163.000	134.204	80.000	20.007	100.357	20.086	18.574	0.555
163.500	134.499	80.000	20.008	100.351	20.085	18.808	0.568
164.000	134.781	80.000	20.008	100.354	20.088	18.193	0.573
164.500	135.137	80.000	20.008	100.367	20.088	18.293	0.607
165.000	135.344	80.001	20.007	100.382	20.086	18.537	0.601
165.500	135.684	79.999	20.007	100.389	20.086	18.527	0.555
166.000	135.958	80.000	20.007	100.391	20.085	18.672	0.581
166.500	136.245	80.001	20.007	100.391	20.087	18.347	0.587
167.000	136.538	80.000	20.008	100.385	20.087	18.469	0.570
167.500	136.886	80.000	20.008	100.379	20.087	18.392	0.610
168.000	137.141	80.001	20.008	100.380	20.090	18.019	0.622
168.500	137.396	80.000	20.007	100.382	20.089	18.171	0.556
169.000	137.723	80.001	20.007	100.390	20.088	18.276	0.546
169.500	137.974	79.999	20.007	100.391	20.088	18.310	0.580
170.000	138.223	80.000	20.008	100.391	20.086	18.556	0.539
170.500	138.542	80.000	20.007	100.389	20.088	18.217	0.535
171.000	138.865	80.000	20.008	100.379	20.088	18.324	0.605
171.500	139.128	80.001	20.008	100.369	20.090	18.006	0.613
172.000	139.442	80.001	20.008	100.369	20.089	18.098	0.582
172.500	139.671	80.000	20.007	100.374	20.088	18.240	0.560
173.000	140.019	80.001	20.008	100.383	20.090	17.887	0.560
173.500	140.317	80.002	20.007	100.401	20.092	17.586	0.612
174.000	140.605	80.000	20.006	100.419	20.091	17.758	0.616
174.500	140.875	80.000	20.006	100.419	20.091	17.725	0.572
175.000	141.150	80.001	20.008	100.399	20.090	17.893	0.551
175.500	141.432	80.001	20.008	100.376	20.088	18.313	0.551
176.000	141.674	80.001	20.008	100.357	20.089	18.050	0.540
176.500	141.979	79.999	20.007	100.343	20.088	18.242	0.536
177.000	142.318	80.001	20.007	100.342	20.088	18.181	0.596
177.500	142.579	80.000	20.007	100.358	20.089	18.036	0.622
178.000	142.870	80.000	20.008	100.373	20.085	18.738	0.576
178.500	143.126	79.999	20.007	100.374	20.090	17.924	0.549
179.000	143.466	80.000	20.007	100.365	20.089	18.040	0.571
179.500	143.753	79.999	20.008	100.358	20.090	17.938	0.612
180.000	144.092	80.001	20.008	100.350	20.090	17.905	0.627
180.500	144.397	80.000	20.007	100.351	20.093	17.465	0.635
181.000	144.586	80.000	20.008	100.358	20.093	17.536	0.569
181.500	144.868	80.001	20.007	100.366	20.092	17.675	0.483
182.000	145.196	80.000	20.007	100.374	20.091	17.838	0.541
182.500	145.425	79.999	20.008	100.378	20.092	17.660	0.583
183.000	145.700	80.000	20.007	100.370	20.093	17.410	0.531
183.500	146.074	80.000	20.007	100.363	20.091	17.702	0.577
184.000	146.362	79.999	20.008	100.361	20.092	17.614	0.655
184.500	146.603	80.002	20.007	100.361	20.092	17.578	0.595
185.000	146.889	79.999	20.008	100.366	20.093	17.416	0.528
185.500	147.192	80.002	20.007	100.378	20.093	17.408	0.558
186.000	147.457	80.000	20.007	100.388	20.092	17.677	0.579
186.500	147.755	80.000	20.007	100.386	20.093	17.516	0.566
187.000	148.033	80.000	20.007	100.376	20.095	17.117	0.569
187.500	148.260	80.001	20.007	100.359	20.094	17.251	0.540
188.000	148.600	80.000	20.008	100.345	20.095	17.102	0.536
188.500	148.845	80.001	20.008	100.338	20.096	17.055	0.576
189.000	149.155	80.001	20.008	100.342	20.094	17.292	0.570
189.500	149.354	80.000	20.007	100.351	20.095	17.142	0.532
190.000	149.670	80.001	20.007	100.366	20.096	17.064	0.512
190.500	150.014	80.000	20.007	100.376	20.094	17.318	0.588
191.000	150.268	80.002	20.007	100.376	20.096	16.963	0.629
191.500	150.624	79.999	20.007	100.368	20.096	16.942	0.604
192.000	150.807	80.000	20.008	100.360	20.094	17.236	0.574
192.500	151.085	80.001	20.008	100.352	20.096	16.951	0.500
193.000	151.388	80.000	20.008	100.352	20.097	16.778	0.521
193.500	151.695	80.001	20.007	100.359	20.095	17.169	0.596
194.000	151.939	80.000	20.007	100.368	20.097	16.862	0.580
194.500	152.198	79.999	20.007	100.376	20.096	16.911	0.527
195.000	152.491	80.001	20.007	100.375	20.097	16.876	0.528
195.500	152.842	80.001	20.008	100.366	20.098	16.664	0.598
196.000	153.119	79.999	20.007	100.354	20.098	16.666	0.636
196.500	153.392	80.001	20.008	100.344	20.094	17.237	0.589
197.000	153.612	80.000	20.008	100.336	20.095	17.102	0.522
197.500	153.922	80.001	20.007	100.341	20.096	17.006	0.512
198.000	154.219	80.001	20.007	100.350	20.098	16.714	0.569
198.500	154.537	80.000	20.007	100.360	20.095	17.196	0.611
199.000	154.794	80.000	20.007	100.368	20.094	17.374	0.594
199.500	155.022	80.001	20.007	100.368	20.094	17.354	0.530
200.000	155.324	80.001	20.007	100.359	20.095	17.099	0.507
200.500	155.695	80.001	20.008	100.344	20.094	17.285	0.601
201.000	155.896	80.000	20.007	100.332	20.091	17.787	0.622
201.500	156.220	80.000	20.008	100.326	20.095	17.196	0.549
202.001	156.387	80.001	20.008	100.326	20.095	17.124	0.509
202.501	156.694	80.000	20.007	100.332	20.095	17.077	0.482
203.000	156.999	80.000	20.007	100.341	20.097	16.854	0.543
203.500	157.259	80.002	20.007	100.345	20.098	16.727	0.589
204.000	157.568	80.001	20.008	100.339	20.096	17.006	0.567
204.500	157.877	79.999	20.008	100.332	20.098	16.714	0.593
205.000	158.122	80.001	20.008	100.330	20.098	16.603	0.586
205.501	158.412	80.001	20.007	100.328	20.099	16.560	0.545
206.000	158.710	80.001	20.007	100.328	20.097	16.818	0.561
206.500	158.956	80.000	20.007	100.332	20.097	16.871	0.565
207.000	159.279	80.001	20.007	100.334	20.096	16.922	0.556
207.500	159.523	80.002	20.008	100.326	20.096	16.949	0.568
208.000	159.740	80.000	20.007	100.318	20.096	16.934	0.514
208.500	160.083	80.000	20.008	100.309	20.099	16.568	0.510
209.000	160.335	80.001	20.008	100.302	20.096	16.981	0.577
209.500	160.587	80.001	20.007	100.301	20.096	16.938	0.549
210.000	160.826	80.000	20.007	100.309	20.097	16.798	0.497
210.500	161.194	80.000	20.007	100.318	20.098	16.641	0.549
211.000	161.419	80.001	20.007	100.327	20.095	17.114	0.600
211.500	161.690	80.000	20.007	100.333	20.097	16.879	0.545
212.000	161.968	80.001	20.007	100.339	20.097	16.864	0.523
212.500	162.216	80.000	20.007	100.337	20.097	16.876	0.537
213.000	162.510	80.001	20.007	100.334	20.099	16.504	0.533
213.500	162.792	80.000	20.008	100.328	20.098	16.741	0.559
214.000	163.030	80.002	20.008	100.329	20.097	16.776	0.549
214.500	163.330	80.001	20.008	100.331	20.098	16.600	0.529
215.000	163.598	80.001	20.007	100.338	20.098	16.685	0.553
215.500	163.871	80.000	20.007	100.342	20.098	16.704	0.554
216.000	164.144	80.000	20.007	100.348	20.096	17.020	0.544
216.500	164.420	80.000	20.008	100.345	20.097	16.894	0.548
217.000	164.623	80.001	20.007	100.336	20.095	17.209	0.514
217.500	164.946	80.000	20.008	100.324	20.095	17.132	0.502
218.000	165.213	80.000	20.007	100.321	20.094	17.377	0.558
218.500	165.499	80.001	20.007	100.324	20.095	17.069	0.572
219.000	165.760	80.001	20.007	100.332	20.095	17.132	0.550
219.500	166.063	80.002	20.007	100.345	20.095	17.214	0.556
220.000	166.335	80.000	20.007	100.352	20.093	17.390	0.569
220.500	166.605	80.001	20.008	100.352	20.094	17.382	0.559
221.000	166.869	80.001	20.007	100.345	20.096	17.023	0.538
221.500	167.180	80.001	20.007	100.331	20.093	17.402	0.555
222.000	167.404	80.000	20.008	100.325	20.097	16.861	0.555
222.500	167.696	80.000	20.007	100.325	20.095	17.130	0.525
223.000	167.946	80.000	20.007	100.328	20.093	17.539	0.529
223.500	168.231	79.999	20.007	100.332	20.095	17.169	0.539
224.000	168.532	80.002	20.008	100.341	20.095	17.082	0.561
224.500	168.704	80.000	20.007	100.335	20.096	16.950	0.530
225.000	168.992	80.001	20.008	100.327	20.094	17.362	0.467
225.500	169.260	79.999	20.007	100.319	20.094	17.244	0.508
226.000	169.536	79.999	20.008	100.312	20.095	17.147	0.550
226.500	169.823	80.002	20.007	100.311	20.096	17.042	0.553
227.000	170.057	80.000	20.008	100.318	20.092	17.638	0.542
227.500	170.365	80.001	20.007	100.325	20.093	17.436	0.532
228.000	170.601	80.000	20.007	100.330	20.094	17.268	0.543
228.500	170.847	80.001	20.007	100.329	20.093	17.495	0.513
229.000	171.144	80.001	20.007	100.318	20.093	17.530	0.513
229.500	171.450	80.001	20.008	100.302	20.093	17.516	0.573
230.000	171.671	80.001	20.008	100.290	20.091	17.702	0.565
230.500	172.004	80.001	20.008	100.290	20.089	18.040	0.540
231.000	172.225	80.001	20.007	100.298	20.094	17.336	0.554
231.500	172.489	79.999	20.008	100.312	20.092	17.588	0.520
232.000	172.744	80.001	20.007	100.329	20.091	17.718	0.502
232.500	173.004	80.001	20.007	100.339	20.092	17.557	0.517
233.000	173.220	80.002	20.007	100.334	20.091	17.747	0.495
233.500	173.524	79.999	20.007	100.326	20.090	17.863	0.498
234.000	173.770	80.000	20.008	100.316	20.093	17.398	0.535
234.500	174.036	80.001	20.008	100.308	20.094	17.225	0.531
235.000	174.293	80.000	20.007	100.309	20.094	17.277	0.518
235.500	174.569	80.000	20.008	100.317	20.091	17.766	0.528
236.000	174.816	80.001	20.007	100.326	20.092	17.556	0.529
236.500	175.049	80.001	20.007	100.329	20.092	17.632	0.502
237.000	175.341	80.001	20.007	100.329	20.093	17.464	0.502
237.500	175.580	80.001	20.007	100.318	20.092	17.666	0.527
238.000	175.857	79.999	20.008	100.309	20.091	17.792	0.524
238.500	176.153	80.002	20.008	100.301	20.092	17.646	0.545
239.000	176.374	80.001	20.007	100.301	20.093	17.533	0.545
239.500	176.662	80.002	20.007	100.309	20.093	17.403	0.513
240.000	176.963	79.999	20.007	100.320	20.093	17.417	0.549
240.500	177.159	80.001	20.007	100.326	20.091	17.828	0.543
241.000	177.458	80.001	20.007	100.326	20.090	17.991	0.496
241.500	177.754	80.000	20.007	100.323	20.090	17.872	0.545
242.000	178.014	80.001	20.008	100.315	20.092	17.567	0.576
242.500	178.300	80.001	20.007	100.307	20.091	17.744	0.551
243.000	178.428	80.000	20.008	100.302	20.092	17.541	0.480
243.500	178.755	80.001	20.007	100.304	20.093	17.481	0.434
244.000	179.001	80.000	20.007	100.311	20.091	17.809	0.514
244.500	179.231	80.001	20.007	100.318	20.092	17.626	0.524
245.000	179.506	80.001	20.007	100.318	20.091	17.759	0.490
245.500	179.741	80.000	20.007	100.316	20.093	17.473	0.508
246.000	180.015	80.000	20.007	100.312	20.091	17.755	0.510
246.500	180.260	80.000	20.008	100.306	20.092	17.561	0.514
247.000	180.527	80.000	20.007	100.301	20.089	18.082	0.515
247.500	180.777	80.001	20.007	100.308	20.089	18.086	0.514
248.000	181.020	80.001	20.007	100.317	20.091	17.814	0.505
248.500	181.268	80.000	20.007	100.325	20.092	17.688	0.492
249.000	181.566	80.001	20.007	100.326	20.088	18.266	0.519
249.500	181.800	80.000	20.007	100.324	20.088	18.169	0.539
250.000	182.111	80.001	20.007	100.317	20.091	17.750	0.538
250.500	182.382	79.999	20.008	100.308	20.091	17.708	0.563
251.000	182.635	80.001	20.007	100.302	20.091	17.845	0.553
251.500	182.868	80.002	20.008	100.305	20.087	18.353	0.505
252.000	183.153	80.000	20.007	100.312	20.088	18.248	0.502
252.500	183.383	80.000	20.007	100.314	20.089	18.122	0.517
253.000	183.660	80.002	20.007	100.315	20.093	17.519	0.511
253.500	183.941	80.000	20.007	100.315	20.093	17.523	0.532
254.000	184.230	80.000	20.007	100.311	20.091	17.832	0.564
254.500	184.441	80.001	20.008	100.303	20.093	17.387	0.535
255.000	184.709	80.000	20.007	100.297	20.093	17.417	0.490
255.500	184.943	79.999	20.008	100.296	20.092	17.641	0.491
256.000	185.191	80.001	20.007	100.297	20.092	17.617	0.492
256.500	185.467	80.000	20.007	100.302	20.094	17.327	0.503
257.000	185.708	80.002	20.007	100.304	20.092	17.631	0.521
257.500	185.923	79.999	20.007	100.307	20.091	17.751	0.487
258.000	186.196	80.001	20.007	100.303	20.092	17.680	0.472
258.500	186.479	80.001	20.008	100.294	20.090	17.862	0.522
259.000	186.713	80.000	20.007	100.283	20.092	17.597	0.536
259.500	186.951	80.001	20.007	100.281	20.090	17.941	0.495
260.000	187.264	79.999	20.008	100.280	20.092	17.614	0.512
260.500	187.485	80.001	20.007	100.285	20.089	18.023	0.543
261.000	187.740	80.001	20.007	100.293	20.091	17.781	0.505
261.500	187.977	80.001	20.007	100.300	20.088	18.327	0.484
262.000	188.241	80.000	20.007	100.301	20.089	18.070	0.497
262.500	188.520	80.001	20.007	100.299	20.089	18.099	0.522
263.000	188.726	80.002	20.007	100.291	20.088	18.236	0.514
263.500	189.006	80.000	20.008	100.283	20.091	17.791	0.485
264.000	189.236	80.000	20.007	100.283	20.089	18.165	0.498
264.500	189.504	79.999	20.007	100.286	20.088	18.216	0.505
265.000	189.753	80.001	20.007	100.292	20.087	18.407	0.507
265.500	189.989	80.001	20.007	100.300	20.089	18.050	0.501
266.000	190.269	80.001	20.007	100.308	20.091	17.847	0.500
266.500	190.461	80.001	20.008	100.309	20.089	18.133	0.494
267.000	190.765	80.000	20.007	100.304	20.088	18.221	0.484
267.500	191.035	80.001	20.007	100.297	20.089	18.157	0.535
268.000	191.254	80.001	20.008	100.296	20.089	18.029	0.532
268.500	191.576	80.001	20.007	100.295	20.089	18.073	0.515
269.000	191.801	80.001	20.007	100.295	20.085	18.719	0.544
269.500	192.040	80.001	20.007	100.297	20.087	18.343	0.506
270.000	192.315	80.000	20.007	100.300	20.089	18.162	0.489
270.500	192.543	80.002	20.007	100.299	20.088	18.214	0.509
271.000	192.841	80.000	20.007	100.293	20.089	18.102	0.515
271.501	193.071	80.001	20.007	100.285	20.089	18.161	0.527
272.001	193.310	80.000	20.008	100.277	20.088	18.234	0.498
272.500	193.580	80.003	20.008	100.276	20.089	18.156	0.489
273.000	193.853	79.999	20.007	100.278	20.088	18.187	0.526
273.500	194.053	80.001	20.007	100.286	20.086	18.629	0.508
274.000	194.284	80.000	20.007	100.297	20.086	18.549	0.452
274.500	194.538	80.001	20.007	100.306	20.086	18.624	0.458
275.000	194.845	80.000	20.007	100.307	20.087	18.339	0.523
275.500	195.082	80.000	20.007	100.302	20.088	18.241	0.553
276.000	195.335	80.001	20.007	100.300	20.090	17.962	0.517
276.500	195.589	80.002	20.008	100.296	20.089	18.080	0.499
277.000	195.841	80.001	20.007	100.295	20.087	18.445	0.506
277.500	196.059	80.001	20.007	100.299	20.087	18.430	0.488
278.000	196.353	80.001	20.007	100.306	20.089	18.164	0.491
278.500	196.605	80.001	20.007	100.309	20.090	17.870	0.529
279.000	196.842	80.000	20.007	100.309	20.088	18.270	0.517
279.500	197.098	80.001	20.008	100.302	20.090	17.975	0.491
280.000	197.386	80.001	20.007	100.292	20.087	18.324	0.519
280.500	197.605	80.002	20.007	100.288	20.089	18.090	0.526
281.000	197.836	80.001	20.007	100.284	20.088	18.247	0.479
281.500	198.124	80.000	20.007	100.287	20.089	18.051	0.485
282.000	198.338	80.001	20.007	100.296	20.091	17.800	0.510
282.500	198.614	80.000	20.007	100.302	20.089	18.091	0.496
283.000	198.804	80.001	20.007	100.295	20.092	17.616	0.478
283.500	199.110	80.001	20.007	100.290	20.090	17.943	0.481
284.000	199.397	80.000	20.008	100.281	20.091	17.736	0.544
284.500	199.606	80.001	20.007	100.275	20.089	18.148	0.545
285.000	199.859	80.000	20.007	100.274	20.090	18.006	0.479
285.500	200.128	80.001	20.007	100.281	20.089	18.074	0.492
286.000	200.363	80.001	20.007	100.289	20.088	18.292	0.513
286.500	200.612	80.001	20.007	100.296	20.089	18.025	0.494
287.000	200.841	80.002	20.007	100.295	20.088	18.255	0.481
287.500	201.089	80.000	20.008	100.288	20.089	18.137	0.478
288.000	201.378	80.002	20.007	100.280	20.091	17.829	0.507
288.500	201.596	80.002	20.007	100.271	20.090	17.922	0.522
289.000	201.863	80.002	20.007	100.265	20.092	17.542	0.496
289.500	202.052	80.000	20.007	100.268	20.091	17.794	0.470
290.000	202.378	80.002	20.007	100.275	20.088	18.235	0.486
290.500	202.581	80.000	20.007	100.282	20.091	17.808	0.522
291.000	202.815	80.000	20.007	100.290	20.089	18.020	0.483
291.500	203.091	80.001	20.008	100.291	20.088	18.182	0.474
292.000	203.381	80.001	20.008	100.287	20.088	18.195	0.539
292.500	203.665	80.000	20.007	100.280	20.089	18.038	0.570
293.000	203.915	79.999	20.008	100.272	20.090	17.899	0.553
293.500	204.160	80.001	20.007	100.270	20.090	17.884	0.514
294.000	204.410	80.001	20.007	100.271	20.085	18.726	0.495
294.500	204.628	80.001	20.007	100.272	20.087	18.396	0.482
295.000	204.881	80.001	20.007	100.273	20.085	18.659	0.470
295.500	205.148	80.001	20.007	100.272	20.087	18.467	0.496
296.000	205.413	80.002	20.007	100.269	20.090	17.964	0.526
296.500	205.609	80.000	20.008	100.267	20.087	18.372	0.496
297.000	205.907	80.000	20.008	100.270	20.090	18.005	0.478
297.500	206.164	80.001	20.007	100.274	20.090	17.996	0.525
298.000	206.358	80.002	20.007	100.284	20.087	18.479	0.503
298.500	206.646	80.001	20.007	100.291	20.087	18.345	0.466
299.000	206.882	80.001	20.007	100.297	20.089	18.050	0.503
299.500	207.131	80.001	20.007	100.297	20.086	18.503	0.505
300.000	207.386	80.001	20.008	100.293	20.088	18.175	0.495
300.500	207.674	80.000	20.007	100.289	20.088	18.242	0.523
301.000	207.901	80.001	20.008	100.283	20.088	18.189	0.529
301.500	208.132	80.000	20.007	100.282	20.085	18.738	0.487
302.000	208.390	80.000	20.007	100.286	20.087	18.328	0.474
302.500	208.660	80.002	20.007	100.292	20.089	18.151	0.508
303.000	208.866	80.002	20.007	100.296	20.086	18.517	0.502
303.500	209.214	80.001	20.007	100.296	20.087	18.325	0.515
304.000	209.418	79.999	20.007	100.290	20.092	17.640	0.553
304.500	209.719	80.001	20.007	100.282	20.089	18.118	0.528
305.000	209.999	80.001	20.007	100.276	20.087	18.369	0.543
305.500	210.176	80.001	20.007	100.277	20.086	18.497	0.519
306.000	210.426	80.000	20.007	100.282	20.088	18.201	0.442
306.500	210.663	80.001	20.007	100.291	20.088	18.171	0.457
307.000	210.905	80.002	20.007	100.298	20.089	18.114	0.483
307.500	211.194	80.001	20.007	100.301	20.088	18.246	0.505
308.000	211.352	80.001	20.007	100.292	20.087	18.435	0.489
308.500	211.732	79.999	20.007	100.284	20.089	18.034	0.492
309.000	211.917	80.001	20.008	100.276	20.091	17.731	0.551
309.500	212.199	80.002	20.007	100.276	20.089	18.113	0.516
310.000	212.390	80.000	20.007	100.278	20.087	18.361	0.470
310.500	212.676	80.002	20.007	100.287	20.088	18.251	0.475
311.000	212.876	80.000	20.007	100.294	20.089	18.076	0.481
311.500	213.080	80.000	20.007	100.296	20.090	17.908	0.445
312.000	213.399	80.001	20.007	100.290	20.090	18.003	0.464
312.500	213.642	80.001	20.007	100.282	20.088	18.173	0.542
313.000	213.914	80.001	20.008	100.276	20.091	17.837	0.539
313.500	214.196	80.001	20.007	100.276	20.089	18.086	0.535
314.000	214.390	80.001	20.008	100.280	20.091	17.743	0.515
314.500	214.665	80.001	20.007	100.287	20.089	18.017	0.472
315.000	214.909	80.001	20.007	100.294	20.090	17.895	0.494
315.500	215.169	80.001	20.007	100.295	20.089	18.044	0.511
316.000	215.449	80.001	20.007	100.286	20.089	18.009	0.522
316.500	215.621	80.000	20.007	100.278	20.090	17.925	0.496
317.001	215.924	80.001	20.007	100.275	20.092	17.623	0.464
317.500	216.146	80.001	20.008	100.274	20.089	18.015	0.500
318.000	216.425	80.000	20.007	100.278	20.090	17.990	0.513
318.500	216.684	80.001	20.007	100.287	20.090	17.998	0.519
319.000	216.974	80.001	20.007	100.294	20.089	18.027	0.543
319.500	217.221	80.001	20.007	100.295	20.086	18.500	0.543
320.000	217.467	80.001	20.007	100.288	20.088	18.316	0.515
320.500	217.734	80.000	20.008	100.281	20.090	17.958	0.503
321.000	217.980	80.001	20.008	100.274	20.089	18.085	0.513
321.500	218.190	80.001	20.007	100.273	20.088	18.180	0.484
322.000	218.485	80.001	20.007	100.276	20.087	18.454	0.481
322.500	218.717	80.001	20.007	100.284	20.087	18.363	0.516
323.000	218.975	80.000	20.007	100.292	20.088	18.198	0.509
323.500	219.243	80.001	20.007	100.293	20.087	18.392	0.508
324.000	219.504	80.001	20.007	100.286	20.087	18.339	0.528
324.500	219.752	80.001	20.008	100.278	20.092	17.632	0.519
325.000	220.046	80.002	20.007	100.269	20.089	18.161	0.526
325.500	220.246	80.001	20.008	100.269	20.086	18.603	0.518
326.000	220.541	80.001	20.007	100.274	20.088	18.253	0.494
326.500	220.780	80.001	20.007	100.282	20.087	18.338	0.515
327.000	220.968	80.000	20.007	100.289	20.088	18.236	0.481
327.500	221.298	80.002	20.007	100.290	20.087	18.406	0.473
328.000	221.523	80.000	20.007	100.282	20.088	18.259	0.537
328.500	221.803	80.002	20.008	100.272	20.090	17.988	0.530
329.000	222.105	80.001	20.007	100.264	20.088	18.240	0.544
329.500	222.301	80.000	20.007	100.263	20.088	18.194	0.540
330.000	222.533	80.002	20.007	100.270	20.089	18.103	0.463
330.500	222.798	80.001	20.007	100.278	20.086	18.486	0.463
331.000	223.055	80.001	20.007	100.289	20.086	18.628	0.510
331.500	223.282	80.002	20.007	100.294	20.088	18.250	0.503
332.000	223.530	80.000	20.008	100.289	20.086	18.550	0.479
332.500	223.803	80.000	20.008	100.282	20.085	18.678	0.498
333.000	224.074	80.001	20.007	100.279	20.086	18.545	0.533
333.500	224.292	80.000	20.007	100.279	20.089	18.065	0.517
334.000	224.619	80.002	20.007	100.280	20.090	17.977	0.517
334.500	224.822	80.000	20.007	100.287	20.088	18.276	0.537
335.000	225.100	80.000	20.007	100.289	20.089	18.122	0.505
335.501	225.328	80.000	20.007	100.285	20.088	18.304	0.493
336.000	225.584	80.001	20.008	100.277	20.090	17.867	0.495
336.500	225.850	80.001	20.008	100.275	20.090	17.946	0.503
337.000	226.073	80.000	20.008	100.277	20.088	18.235	0.505
337.500	226.316	80.001	20.007	100.285	20.087	18.340	0.477
338.000	226.582	80.002	20.007	100.293	20.087	18.440	0.488
338.500	226.803	80.001	20.007	100.300	20.090	18.002	0.498
339.000	227.145	80.000	20.007	100.301	20.087	18.371	0.525
339.500	227.367	80.001	20.007	100.294	20.089	18.129	0.564
340.000	227.648	80.001	20.008	100.284	20.089	18.046	0.534
340.500	227.810	80.000	20.007	100.278	20.089	18.094	0.473
341.000	228.162	80.001	20.007	100.278	20.089	18.113	0.478
341.500	228.334	80.000	20.007	100.279	20.089	18.151	0.519
342.000	228.618	80.002	20.007	100.285	20.088	18.301	0.490
342.500	228.893	80.001	20.007	100.290	20.087	18.370	0.508
343.000	229.141	80.002	20.007	100.288	20.089	18.105	0.541
343.500	229.365	80.001	20.008	100.281	20.088	18.194	0.497
344.000	229.596	80.001	20.008	100.273	20.088	18.210	0.463
344.500	229.908	80.001	20.008	100.266	20.089	18.131	0.499
345.000	230.156	80.001	20.007	100.264	20.087	18.352	0.552
345.500	230.410	80.000	20.007	100.268	20.091	17.728	0.531
346.000	230.669	80.001	20.007	100.275	20.089	18.115	0.508
346.500	230.901	80.001	20.007	100.276	20.092	17.637	0.502
347.000	231.087	80.001	20.008	100.275	20.087	18.334	0.454
347.500	231.465	80.000	20.007	100.265	20.089	18.059	0.491
348.000	231.607	80.002	20.007	100.259	20.089	18.064	0.542
348.500	231.827	80.000	20.007	100.253	20.089	18.062	0.441
349.000	232.093	80.001	20.007	100.256	20.090	17.943	0.424
349.500	232.378	80.001	20.007	100.265	20.093	17.459	0.519
350.000	232.655	80.000	20.007	100.279	20.092	17.619	0.556
350.500	232.898	80.002	20.007	100.285	20.090	17.932	0.541
351.000	233.172	80.002	20.007	100.285	20.091	17.837	0.518
351.500	233.393	80.000	20.007	100.279	20.090	17.854	0.506
352.000	233.693	80.001	20.008	100.272	20.087	18.362	0.508
352.500	233.936	79.999	20.008	100.265	20.088	18.237	0.532
353.000	234.209	80.002	20.008	100.266	20.089	18.124	0.529
353.500	234.374	80.001	20.007	100.273	20.086	18.565	0.477
354.000	234.672	80.001	20.007	100.284	20.089	18.086	0.451
354.500	234.912	80.000	20.007	100.291	20.090	17.900	0.500
355.000	235.158	80.001	20.008	100.291	20.091	17.815	0.511
355.500	235.415	79.999	20.008	100.286	20.089	18.056	0.494
356.000	235.670	80.001	20.008	100.278	20.087	18.381	0.508
356.500	235.948	80.002	20.008	100.270	20.089	18.155	0.523
357.000	236.181	80.000	20.007	100.265	20.088	18.276	0.522
357.500	236.421	80.001	20.007	100.272	20.087	18.466	0.492
358.000	236.698	80.000	20.007	100.278	20.088	18.231	0.495
358.500	236.979	80.001	20.008	100.278	20.089	18.010	0.538
359.000	237.237	80.001	20.007	100.279	20.090	17.958	0.548
359.500	237.486	80.000	20.008	100.276	20.087	18.350	0.523
360.000	237.746	80.002	20.008	100.270	20.091	17.847	0.508
360.501	238.020	80.000	20.008	100.264	20.087	18.470	0.522
361.000	238.243	80.002	20.007	100.272	20.088	18.239	0.515
361.500	238.533	80.000	20.007	100.280	20.088	18.275	0.505
362.000	238.760	80.001	20.007	100.287	20.089	18.023	0.516
362.500	238.990	80.001	20.008	100.290	20.092	17.567	0.487
363.000	239.270	80.002	20.007	100.289	20.092	17.658	0.483
363.501	239.578	80.002	20.008	100.281	20.091	17.836	0.549
364.000	239.797	80.001	20.008	100.274	20.090	17.878	0.557
364.500	240.025	80.000	20.007	100.273	20.092	17.645	0.487
365.000	240.256	80.001	20.008	100.279	20.093	17.518	0.454
365.500	240.537	80.001	20.007	100.287	20.091	17.766	0.486
366.000	240.830	80.000	20.007	100.293	20.091	17.808	0.543
366.500	241.087	80.000	20.007	100.292	20.090	17.947	0.561
367.000	241.343	80.001	20.007	100.283	20.088	18.296	0.532
367.500	241.597	80.002	20.007	100.272	20.089	18.100	0.512
368.000	241.829	79.999	20.008	100.264	20.092	17.601	0.498
368.500	242.114	80.001	20.007	100.263	20.089	18.126	0.501
369.000	242.400	80.001	20.007	100.270	20.089	18.019	0.544
369.500	242.636	80.001	20.007	100.279	20.088	18.198	0.547
370.000	242.921	80.001	20.007	100.282	20.090	18.003	0.522
370.500	243.138	80.001	20.007	100.282	20.088	18.163	0.511
371.001	243.388	80.001	20.008	100.275	20.089	18.071	0.485
371.500	243.664	80.001	20.007	100.268	20.090	17.992	0.497
372.000	243.948	80.000	20.007	100.260	20.087	18.435	0.543
372.500	244.155	80.002	20.007	100.267	20.089	18.097	0.525
373.000	244.465	80.001	20.007	100.276	20.086	18.487	0.504
373.500	244.725	80.002	20.007	100.281	20.085	18.769	0.544
374.000	244.956	79.999	20.007	100.281	20.086	18.543	0.530
374.500	245.208	80.001	20.008	100.279	20.088	18.283	0.487
375.000	245.460	80.001	20.008	100.266	20.088	18.271	0.494
375.500	245.707	80.000	20.008	100.258	20.089	18.052	0.502
376.000	246.009	80.001	20.007	100.259	20.087	18.439	0.524
376.500	246.233	80.001	20.007	100.267	20.089	18.141	0.537
377.000	246.489	80.001	20.007	100.276	20.087	18.453	0.503
377.500	246.781	80.001	20.007	100.281	20.087	18.375	0.514
378.000	247.054	80.000	20.007	100.281	20.084	18.862	0.557
378.501	247.267	80.002	20.008	100.271	20.086	18.519	0.526
379.000	247.554	80.000	20.008	100.261	20.085	18.731	0.493
379.500	247.817	80.001	20.008	100.256	20.086	18.508	0.525
380.000	248.032	80.001	20.007	100.262	20.090	17.970	0.514
380.500	248.321	80.001	20.008	100.270	20.087	18.325	0.491
381.000	248.615	80.001	20.007	100.280	20.088	18.274	0.544
381.500	248.868	80.001	20.007	100.283	20.088	18.289	0.565
382.000	249.132	80.001	20.008	100.282	20.091	17.749	0.531
382.500	249.334	80.001	20.008	100.273	20.089	18.009	0.492
383.000	249.533	80.000	20.007	100.266	20.093	17.489	0.433
383.500	249.844	80.002	20.008	100.265	20.089	18.080	0.455
384.000	250.120	80.000	20.007	100.274	20.090	17.973	0.549
384.500	250.349	80.000	20.007	100.283	20.089	18.020	0.546
385.000	250.539	80.001	20.007	100.292	20.090	17.852	0.462
385.500	250.791	80.001	20.007	100.291	20.089	18.022	0.431
386.000	251.114	80.000	20.007	100.284	20.090	17.914	0.508
386.500	251.331	80.001	20.008	100.275	20.089	18.019	0.557
387.000	251.582	80.002	20.008	100.266	20.088	18.215	0.504
387.500	251.850	80.002	20.007	100.266	20.090	17.979	0.494
388.000	252.056	79.999	20.007	100.273	20.087	18.454	0.497
388.500	252.317	80.001	20.007	100.280	20.089	18.172	0.471
389.000	252.554	80.001	20.007	100.279	20.088	18.268	0.482
389.500	252.773	80.001	20.008	100.275	20.089	18.102	0.477
390.000	253.098	80.000	20.008	100.265	20.089	18.126	0.500
390.500	253.295	80.002	20.007	100.257	20.090	17.913	0.533
391.000	253.552	80.000	20.008	100.253	20.090	17.918	0.488
391.500	253.859	80.002	20.008	100.258	20.088	18.196	0.509
392.000	254.079	80.001	20.007	100.267	20.086	18.593	0.546
392.500	254.296	80.001	20.007	100.270	20.086	18.513	0.482
393.000	254.548	80.000	20.008	100.268	20.085	18.712	0.453
393.500	254.880	80.000	20.008	100.260	20.086	18.594	0.527
394.000	255.053	80.001	20.008	100.250	20.081	19.342	0.544
394.500	255.343	79.999	20.012	100.246	20.083	19.029	0.484
395.000	255.602	80.003	20.003	100.286	20.081	19.347	0.506
395.500	255.826	80.002	20.012	100.262	20.083	19.003	0.516
396.000	256.134	79.999	20.009	100.232	20.084	18.878	0.507
396.500	256.395	80.002	20.008	100.212	20.086	18.611	0.551
397.000	256.616	79.998	20.005	100.192	20.087	18.400	0.526
397.500	256.867	80.002	20.015	100.101	20.090	17.925	0.477
398.000	257.186	80.000	20.008	100.094	20.092	17.619	0.521
398.500	257.434	79.999	20.007	100.190	20.087	18.353	0.568
399.001	257.652	80.001	20.006	100.277	20.088	18.310	0.517
399.501	257.928	80.002	20.007	100.337	20.090	17.894	0.480
400.000	258.193	80.000	20.007	100.408	20.087	18.475	0.518
400.500	258.467	80.001	20.007	100.450	20.091	17.843	0.540
401.000	258.678	80.000	20.007	100.395	20.090	17.965	0.512
401.500	258.925	79.999	20.007	100.334	20.090	17.977	0.471
402.000	259.226	80.000	20.008	100.293	20.093	17.448	0.503
402.500	259.453	80.001	20.007	100.278	20.088	18.234	0.538
403.000	259.680	80.000	20.007	100.283	20.090	17.958	0.491
403.500	259.945	80.001	20.007	100.290	20.087	18.350	0.474
404.000	260.225	80.002	20.007	100.297	20.087	18.340	0.519
404.500	260.439	80.001	20.008	100.302	20.086	18.588	0.519
405.000	260.679	80.001	20.008	100.297	20.086	18.488	0.474
405.500	260.970	80.004	20.008	100.282	20.087	18.453	0.493
406.000	261.220	79.999	20.008	100.273	20.088	18.238	0.536
406.500	261.550	80.003	20.008	100.267	20.087	18.397	0.561
407.000	261.771	80.003	20.008	100.271	20.090	17.963	0.566
407.501	262.000	80.002	20.010	100.273	20.086	18.500	0.501
408.001	262.193	80.002	20.009	100.279	20.089	18.121	0.436
408.501	262.446	80.002	20.008	100.295	20.087	18.374	0.433
409.000	262.704	80.000	20.007	100.306	20.088	18.175	0.478
409.500	262.961	80.000	20.007	100.307	20.087	18.330	0.513
410.000	263.164	80.001	20.007	100.305	20.087	18.456	0.488
410.501	263.420	79.999	20.008	100.298	20.088	18.262	0.460
411.001	263.662	80.002	20.008	100.287	20.089	18.079	0.479
411.500	263.920	80.002	20.007	100.283	20.087	18.434	0.499
412.000	264.216	79.998	20.007	100.283	20.087	18.436	0.527
412.500	264.451	80.001	20.007	100.291	20.085	18.735	0.542
413.000	264.704	79.999	20.008	100.290	20.089	18.116	0.509
413.500	264.909	80.002	20.007	100.286	20.086	18.538	0.473
414.000	265.238	79.999	20.007	100.278	20.085	18.702	0.495
414.501	265.450	80.001	20.008	100.270	20.084	18.866	0.537
415.000	265.686	80.000	20.007	100.266	20.084	18.858	0.495
415.500	265.918	80.000	20.008	100.273	20.084	18.883	0.459
416.000	266.176	80.001	20.007	100.280	20.082	19.121	0.479
416.500	266.375	80.000	20.007	100.285	20.082	19.168	0.473
417.000	266.678	80.001	20.007	100.285	20.081	19.374	0.480
417.500	266.945	80.001	20.008	100.273	20.080	19.519	0.536
418.000	267.175	79.999	20.008	100.257	20.078	19.747	0.533
418.500	267.409	80.001	20.008	100.243	20.081	19.357	0.480
419.000	267.671	80.000	20.007	100.240	20.081	19.387	0.480
419.500	267.932	80.001	20.007	100.251	20.079	19.620	0.510
420.000	268.184	80.001	20.007	100.270	20.080	19.464	0.518
420.500	268.452	80.000	20.007	100.285	20.081	19.421	0.516
421.000	268.681	80.000	20.007	100.294	20.076	20.057	0.508
421.500	268.910	80.001	20.007	100.291	20.077	19.965	0.478
422.000	269.164	80.001	20.008	100.277	20.075	20.341	0.471
422.500	269.431	80.000	20.007	100.267	20.077	20.003	0.502
423.000	269.739	80.000	20.007	100.263	20.073	20.551	0.548
423.500	269.935	80.000	20.007	100.262	20.075	20.323	0.539
424.000	270.204	80.001	20.007	100.264	20.071	21.000	0.484
424.500	270.417	80.000	20.007	100.268	20.075	20.333	0.474
425.000	270.705	80.000	20.007	100.265	20.073	20.651	0.492
425.500	270.946	80.000	20.008	100.254	20.072	20.807	0.515
426.000	271.167	80.001	20.007	100.245	20.070	21.122	0.496
426.500	271.471	80.001	20.007	100.237	20.071	20.927	0.494
427.000	271.725	80.000	20.007	100.236	20.071	20.917	0.542
427.500	271.983	80.001	20.007	100.239	20.071	20.984	0.535
428.000	272.262	79.999	20.007	100.249	20.071	20.868	0.524
428.500	272.513	80.001	20.007	100.262	20.068	21.389	0.533
429.000	272.766	80.001	20.007	100.267	20.071	20.907	0.517
429.500	272.967	80.000	20.008	100.267	20.068	21.423	0.479
430.000	273.191	80.000	20.007	100.259	20.069	21.251	0.439
430.500	273.481	80.001	20.007	100.249	20.071	20.869	0.469
431.000	273.693	80.001	20.008	100.242	20.069	21.222	0.508
431.500	273.929	80.002	20.007	100.243	20.072	20.789	0.475
432.000	274.210	80.001	20.008	100.244	20.070	21.031	0.482
432.500	274.486	80.001	20.007	100.255	20.069	21.182	0.537
433.000	274.678	80.001	20.008	100.263	20.068	21.436	0.513
433.500	274.957	80.001	20.007	100.264	20.066	21.678	0.469
434.000	275.248	80.000	20.008	100.256	20.064	22.020	0.521
434.500	275.464	80.001	20.008	100.247	20.067	21.575	0.539
435.000	275.697	80.002	20.008	100.238	20.067	21.481	0.477
435.500	275.983	80.000	20.007	100.235	20.065	21.870	0.484
436.000	276.192	80.002	20.007	100.236	20.065	21.813	0.507
436.500	276.464	80.000	20.007	100.248	20.070	21.156	0.488
437.000	276.738	80.001	20.007	100.261	20.065	21.807	0.514
437.500	276.945	79.999	20.007	100.267	20.066	21.766	0.513
438.000	277.171	80.001	20.007	100.268	20.065	21.841	0.456
438.500	277.426	80.002	20.007	100.266	20.066	21.739	0.457
439.000	277.679	80.000	20.007	100.256	20.065	21.894	0.495
439.500	277.884	80.000	20.008	100.249	20.065	21.878	0.483
440.001	278.204	80.001	20.007	100.250	20.063	22.147	0.491
440.500	278.449	80.000	20.007	100.251	20.060	22.693	0.545
441.000	278.701	80.000	20.007	100.252	20.063	22.222	0.531
441.500	278.969	79.999	20.007	100.256	20.062	22.281	0.509
442.000	279.173	80.002	20.008	100.251	20.060	22.711	0.496
442.500	279.438	80.000	20.008	100.240	20.061	22.518	0.471
443.001	279.647	80.000	20.008	100.232	20.059	22.786	0.472
443.501	279.962	80.001	20.007	100.225	20.059	22.778	0.499
444.000	280.132	80.001	20.007	100.221	20.058	22.936	0.504
444.500	280.425	80.000	20.007	100.226	20.057	23.136	0.474
445.000	280.676	79.999	20.007	100.236	20.057	23.191	0.503
445.500	280.955	80.001	20.007	100.241	20.055	23.469	0.537
446.000	281.202	80.001	20.007	100.240	20.058	22.991	0.528
446.500	281.404	80.001	20.007	100.234	20.055	23.526	0.488
447.000	281.712	80.001	20.008	100.226	20.057	23.080	0.480
447.500	281.981	80.000	20.007	100.218	20.057	23.125	0.543
448.000	282.209	80.001	20.007	100.217	20.056	23.261	0.537
448.500	282.447	80.001	20.007	100.225	20.058	23.008	0.481
449.000	282.686	80.002	20.007	100.237	20.054	23.625	0.471
449.500	282.951	80.000	20.008	100.242	20.057	23.180	0.490
450.000	283.177	80.002	20.007	100.244	20.055	23.392	0.498
450.500	283.447	80.001	20.008	100.240	20.053	23.701	0.494
451.000	283.669	80.001	20.008	100.231	20.053	23.769	0.494
451.500	283.980	79.999	20.008	100.223	20.053	23.797	0.513
452.000	284.190	80.001	20.007	100.227	20.052	23.950	0.527
452.500	284.471	80.002	20.008	100.233	20.053	23.707	0.506
453.000	284.692	80.001	20.007	100.241	20.051	24.049	0.496
453.500	284.957	80.001	20.007	100.249	20.050	24.300	0.494
454.000	285.268	80.000	20.007	100.249	20.053	23.745	0.531
454.501	285.458	80.002	20.008	100.242	20.052	23.870	0.539
455.001	285.739	80.000	20.007	100.242	20.052	23.891	0.486
455.500	285.992	80.000	20.008	100.242	20.052	23.951	0.503
456.000	286.223	80.001	20.007	100.245	20.051	24.040	0.509
456.500	286.464	80.002	20.007	100.254	20.052	23.945	0.478
457.000	286.692	80.001	20.007	100.261	20.051	24.051	0.470
457.500	286.948	80.000	20.007	100.260	20.051	24.014	0.476
458.000	287.213	80.000	20.007	100.252	20.049	24.329	0.503
458.500	287.492	80.001	20.008	100.242	20.050	24.174	0.533
459.000	287.661	80.002	20.008	100.239	20.053	23.825	0.496
459.500	287.925	80.001	20.007	100.241	20.048	24.498	0.440
460.000	288.184	80.001	20.007	100.248	20.047	24.646	0.478
460.500	288.434	80.001	20.008	100.256	20.048	24.500	0.516
461.000	288.700	80.001	20.008	100.264	20.050	24.253	0.513
461.500	288.987	80.002	20.007	100.267	20.053	23.812	0.535
462.000	289.196	80.001	20.008	100.265	20.051	24.071	0.524
462.500	289.437	80.000	20.008	100.261	20.049	24.322	0.473
463.000	289.737	80.001	20.007	100.267	20.048	24.613	0.496
463.500	290.036	80.001	20.008	100.275	20.051	24.100	0.570
464.000	290.237	80.002	20.007	100.283	20.049	24.329	0.550
464.500	290.486	80.000	20.007	100.287	20.046	24.815	0.475
465.000	290.738	80.001	20.008	100.286	20.049	24.416	0.475
465.500	291.046	80.002	20.008	100.274	20.049	24.347	0.530
466.000	291.275	80.000	20.008	100.264	20.046	24.858	0.549
466.500	291.511	80.002	20.007	100.256	20.047	24.681	0.501
467.000	291.756	80.000	20.007	100.252	20.046	24.834	0.473
467.500	292.013	80.001	20.007	100.255	20.045	24.979	0.491
468.000	292.226	80.000	20.007	100.261	20.045	25.026	0.486
468.500	292.516	80.000	20.008	100.261	20.044	25.161	0.486
469.000	292.805	80.003	20.007	100.256	20.046	24.832	0.541
469.500	293.031	80.000	20.007	100.248	20.045	24.954	0.547
470.000	293.271	79.999	20.008	100.244	20.043	25.275	0.491
470.500	293.533	80.002	20.007	100.245	20.040	25.758	0.485
471.000	293.754	80.001	20.007	100.251	20.042	25.485	0.493
471.500	293.966	80.002	20.007	100.257	20.042	25.435	0.458
472.000	294.241	80.001	20.008	100.265	20.042	25.438	0.460
472.500	294.511	79.999	20.008	100.259	20.043	25.273	0.516
473.000	294.812	80.000	20.008	100.250	20.044	25.189	0.558
473.500	295.077	80.002	20.008	100.239	20.043	25.366	0.568
474.000	295.295	80.002	20.007	100.239	20.042	25.573	0.524
474.500	295.590	80.000	20.008	100.239	20.041	25.660	0.498
475.000	295.824	80.001	20.007	100.246	20.040	25.846	0.521
475.500	296.023	79.999	20.007	100.250	20.040	25.792	0.481
476.000	296.304	80.001	20.008	100.250	20.040	25.781	0.457
476.500	296.518	80.000	20.008	100.243	20.042	25.504	0.488
477.000	296.811	80.000	20.008	100.236	20.039	25.910	0.501
477.500	297.051	80.002	20.007	100.232	20.039	25.908	0.520
478.000	297.309	80.002	20.007	100.235	20.039	26.037	0.515
478.500	297.570	80.000	20.007	100.243	20.039	26.053	0.508
479.000	297.806	80.001	20.008	100.244	20.039	25.947	0.508
479.500	298.028	80.002	20.007	100.244	20.041	25.742	0.478
480.000	298.319	79.999	20.008	100.241	20.037	26.278	0.486
480.500	298.583	80.000	20.008	100.233	20.040	25.892	0.534
481.000	298.801	80.001	20.008	100.232	20.039	26.042	0.518
481.500	299.035	80.001	20.007	100.239	20.036	26.422	0.467
482.000	299.251	80.001	20.007	100.246	20.037	26.224	0.451
482.501	299.579	80.001	20.008	100.254	20.035	26.642	0.497
483.000	299.842	79.999	20.007	100.256	20.035	26.577	0.568
483.500	300.084	80.002	20.008	100.250	20.035	26.568	0.548
484.000	300.311	80.001	20.007	100.241	20.035	26.686	0.487
484.500	300.571	80.000	20.007	100.240	20.036	26.387	0.478
485.000	300.856	80.000	20.007	100.240	20.035	26.565	0.516
485.500	301.093	80.002	20.007	100.247	20.035	26.562	0.533
486.000	301.364	80.001	20.007	100.259	20.034	26.781	0.515
486.500	301.574	80.001	20.008	100.270	20.032	27.105	0.495
487.000	301.791	80.001	20.008	100.271	20.033	26.906	0.454
487.500	302.072	80.001	20.008	100.271	20.030	27.403	0.463
488.000	302.372	80.002	20.008	100.270	20.031	27.213	0.540
488.500	302.617	79.999	20.007	100.266	20.030	27.332	0.563
489.000	302.874	80.002	20.007	100.263	20.031	27.293	0.523
489.500	303.066	80.001	20.007	100.262	20.030	27.455	0.475
490.000	303.341	80.000	20.008	100.258	20.029	27.601	0.458
490.500	303.616	80.001	20.008	100.250	20.028	27.766	0.508
491.001	303.837	80.000	20.008	100.245	20.031	27.199	0.523
491.500	304.100	80.002	20.007	100.244	20.029	27.613	0.490
492.000	304.366	80.000	20.007	100.246	20.029	27.501	0.506
492.500	304.585	80.001	20.007	100.254	20.027	27.837	0.507
493.000	304.838	80.001	20.007	100.261	20.028	27.711	0.479
493.500	305.069	80.002	20.007	100.266	20.026	28.000	0.479
494.000	305.329	80.001	20.007	100.266	20.026	28.023	0.488
494.500	305.586	80.001	20.007	100.261	20.023	28.441	0.504
495.000	305.819	80.001	20.008	100.257	20.024	28.303	0.504
495.501	306.147	80.003	20.008	100.261	20.023	28.565	0.525
496.001	306.401	80.000	20.007	100.267	20.022	28.725	0.571
496.500	306.596	80.001	20.007	100.271	20.022	28.701	0.515
497.000	306.841	80.001	20.007	100.275	20.024	28.367	0.445
497.500	307.149	80.001	20.007	100.270	20.022	28.676	0.496
498.000	307.335	80.000	20.008	100.259	20.019	29.216	0.523
498.500	307.599	80.001	20.008	100.249	20.020	28.929	0.472
499.000	307.876	79.999	20.007	100.245	20.017	29.487	0.496
499.500	308.109	80.002	20.007	100.245	20.016	29.594	0.526
500.000	308.341	80.001	20.008	100.250	20.015	29.748	0.488
500.500	308.581	80.002	20.008	100.259	20.013	30.081	0.468
501.000	308.859	80.000	20.007	100.262	20.014	29.962	0.495
501.500	309.125	80.000	20.007	100.258	20.014	29.994	0.531
502.000	309.383	80.001	20.008	100.250	20.014	29.860	0.534
502.500	309.563	80.001	20.008	100.243	20.014	30.002	0.481
503.000	309.858	80.001	20.008	100.240	20.010	30.520	0.457
503.500	310.103	80.001	20.007	100.246	20.012	30.290	0.508
504.000	310.312	79.999	20.008	100.259	20.012	30.246	0.497
504.500	310.577	80.001	20.007	100.270	20.012	30.234	0.464
505.000	310.817	80.001	20.007	100.277	20.011	30.437	0.490
505.500	311.121	80.001	20.008	100.274	20.009	30.754	0.524
506.000	311.306	80.001	20.008	100.265	20.009	30.669	0.517
506.500	311.599	80.000	20.007	100.257	20.006	31.115	0.484
507.000	311.858	80.001	20.007	100.256	20.005	31.310	0.515
507.500	312.121	80.001	20.007	100.258	20.007	31.065	0.537
508.000	312.327	80.001	20.007	100.267	20.007	30.980	0.495
508.500	312.613	80.001	20.008	100.273	20.002	31.759	0.480
509.000	312.892	80.000	20.007	100.273	20.002	31.786	0.529
509.500	313.081	80.002	20.007	100.271	19.999	32.310	0.517
510.000	313.357	80.001	20.008	100.267	19.998	32.500	0.466
510.500	313.630	80.001	20.007	100.263	19.997	32.646	0.507
511.000	313.845	80.001	20.008	100.260	19.994	33.092	0.519
511.500	314.114	80.001	20.007	100.261	19.993	33.309	0.486
512.000	314.341	80.000	20.007	100.262	19.992	33.475	0.490
512.500	314.588	80.001	20.007	100.264	19.992	33.440	0.485
513.000	314.827	80.002	20.007	100.263	19.989	33.817	0.480
513.500	315.092	80.002	20.008	100.262	19.986	34.370	0.495
514.000	315.391	79.999	20.008	100.266	19.987	34.277	0.534
514.500	315.599	80.000	20.008	100.273	19.984	34.648	0.536
515.000	315.809	80.002	20.008	100.282	19.982	35.021	0.463
515.500	316.072	80.001	20.007	100.289	19.980	35.380	0.445
516.000	316.294	80.000	20.008	100.291	19.976	35.855	0.479
516.500	316.574	80.001	20.008	100.281	19.974	36.282	0.493
517.000	316.829	80.001	20.008	100.265	19.973	36.425	0.519
517.500	317.115	80.001	20.008	100.248	19.970	36.916	0.538
518.001	317.372	80.001	20.008	100.236	19.969	37.038	0.542
518.500	317.633	80.001	20.008	100.235	19.969	36.989	0.531
519.000	317.876	80.001	20.008	100.241	19.968	37.230	0.511
519.500	318.133	80.002	20.007	100.248	19.963	37.944	0.501
520.000	318.398	80.000	20.008	100.251	19.962	38.130	0.511
520.500	318.677	80.001	20.007	100.249	19.958	38.757	0.533
521.000	318.891	80.001	20.008	100.242	19.958	38.787	0.518
521.500	319.139	80.001	20.008	100.237	19.956	39.026	0.478
522.000	319.358	80.000	20.008	100.238	19.950	40.039	0.465
522.500	319.590	80.001	20.007	100.248	19.947	40.480	0.459
523.000	319.889	80.002	20.007	100.257	19.940	41.552	0.491
523.500	320.161	80.002	20.007	100.265	19.935	42.366	0.551
524.000	320.385	80.000	20.008	100.270	19.926	43.739	0.534
524.500	320.646	80.002	20.008	100.270	19.924	44.071	0.491
525.000	320.850	80.002	20.007	100.267	19.919	44.879	0.475
525.500	321.104	80.000	20.008	100.272	19.914	45.770	0.461
526.000	321.373	80.001	20.007	100.281	19.910	46.337	0.490
526.501	321.625	80.001	20.007	100.288	19.906	46.919	0.521
527.000	321.869	80.001	20.008	100.289	19.904	47.334	0.508
527.500	322.097	80.001	20.007	100.289	19.899	48.027	0.484
528.000	322.380	80.002	20.008	100.278	19.897	48.453	0.491
528.500	322.623	80.000	20.007	100.264	19.899	48.126	0.518
529.000	322.856	80.001	20.008	100.256	19.892	49.235	0.501
529.500	323.095	80.002	20.008	100.255	19.888	49.810	0.474
530.000	323.350	80.001	20.007	100.255	19.887	50.071	0.483
530.500	323.600	80.003	20.007	100.254	19.885	50.357	0.500
531.000	323.874	80.000	20.007	100.251	19.879	51.248	0.514
531.500	324.112	80.001	20.007	100.244	19.878	51.373	0.518
532.000	324.339	80.000	20.008	100.236	19.872	52.302	0.489
532.500	324.624	80.002	20.007	100.228	19.870	52.733	0.489
533.000	324.851	80.000	20.007	100.224	19.866	53.294	0.512
533.500	325.121	80.001	20.007	100.224	19.862	53.990	0.504
534.000	325.374	80.002	20.007	100.224	19.858	54.488	0.509
534.500	325.640	80.002	20.007	100.222	19.855	55.076	0.521
535.000	325.876	80.003	20.007	100.218	19.852	55.528	0.511
535.500	326.176	79.999	20.008	100.211	19.847	56.328	0.519
536.001	326.390	80.002	20.008	100.211	19.839	57.628	0.525
536.500	326.649	80.001	20.008	100.213	19.834	58.340	0.494
537.000	326.937	80.000	20.008	100.222	19.829	59.199	0.510
537.500	327.166	80.002	20.007	100.233	19.818	60.878	0.532
538.000	327.406	80.002	20.007	100.242	19.809	62.296	0.493
538.500	327.603	80.001	20.008	100.241	19.799	63.800	0.453
539.000	327.845	80.001	20.008	100.241	19.789	65.486	0.438
539.500	328.154	80.000	20.007	100.242	19.780	66.942	0.495
540.001	328.399	80.000	20.008	100.245	19.771	68.311	0.553
540.500	328.656	80.000	20.008	100.264	19.765	69.347	0.528
541.000	328.916	80.001	20.007	100.288	19.759	70.244	0.509
541.500	329.136	80.001	20.007	100.310	19.749	71.815	0.498
542.000	329.393	80.000	20.007	100.318	19.745	72.366	0.478
542.500	329.662	80.001	20.008	100.317	19.739	73.376	0.501
543.000	329.906	80.002	20.008	100.306	19.732	74.417	0.520
543.500	330.157	80.000	20.008	100.290	19.728	75.049	0.504
544.000	330.389	80.001	20.007	100.275	19.724	75.834	0.489
544.500	330.687	80.000	20.007	100.265	19.717	76.838	0.507
545.000	330.946	80.001	20.007	100.260	19.710	77.907	0.543
545.500	331.138	80.001	20.007	100.254	19.705	78.763	0.504
546.001	331.445	80.001	20.007	100.248	19.702	79.198	0.475
546.500	331.694	80.002	20.007	100.239	19.695	80.253	0.528
547.000	331.929	80.001	20.008	100.233	19.689	81.263	0.520
547.500	332.192	80.002	20.008	100.229	19.684	82.005	0.490
548.000	332.422	80.000	20.007	100.225	19.678	83.036	0.495
548.500	332.676	80.001	20.007	100.223	19.669	84.427	0.489
549.000	332.942	80.001	20.007	100.215	19.662	85.461	0.503
549.500	333.207	80.001	20.007	100.206	19.650	87.364	0.526
550.000	333.448	80.001	20.008	100.197	19.644	88.389	0.518
550.500	333.668	79.999	20.007	100.187	19.633	90.106	0.483
551.000	333.878	80.000	20.008	100.183	19.624	91.518	0.445
551.500	334.138	80.001	20.008	100.192	19.613	93.315	0.450
552.001	334.389	80.001	20.008	100.209	19.602	95.005	0.491
552.500	334.608	80.000	20.007	100.231	19.593	96.426	0.491
553.000	334.841	80.001	20.007	100.256	19.583	98.032	0.461
553.500	335.156	80.000	20.008	100.273	19.571	99.817	0.500
554.000	335.375	80.001	20.008	100.279	19.567	100.485	0.541
554.500	335.610	80.000	20.008	100.278	19.558	101.948	0.494
555.000	335.873	80.001	20.008	100.272	19.547	103.724	0.476
555.500	336.144	80.001	20.008	100.270	19.539	104.890	0.516
556.000	336.371	80.001	20.007	100.274	19.532	106.010	0.516
556.500	336.616	80.002	20.007	100.275	19.523	107.545	0.485
557.000	336.896	80.000	20.007	100.276	19.516	108.583	0.499
557.500	337.148	80.000	20.007	100.274	19.507	110.045	0.529
558.000	337.360	80.002	20.007	100.266	19.501	110.989	0.499
558.500	337.647	79.999	20.008	100.251	19.494	112.118	0.482
559.000	337.893	80.002	20.008	100.248	19.488	113.079	0.516
559.500	338.127	80.001	20.008	100.248	19.479	114.429	0.506
560.000	338.414	80.000	20.007	100.247	19.472	115.545	0.500
560.500	338.693	80.002	20.007	100.248	19.469	116.022	0.543
561.000	338.961	80.000	20.007	100.247	19.463	117.017	0.556
561.500	339.189	80.001	20.007	100.233	19.454	118.392	0.521
562.000	339.451	80.000	20.008	100.217	19.450	119.033	0.493
562.500	339.711	80.000	20.008	100.203	19.442	120.328	0.507
563.001	339.920	80.001	20.007	100.196	19.436	121.250	0.496
563.500	340.187	80.000	20.008	100.203	19.434	121.659	0.472
564.000	340.420	80.001	20.007	100.217	19.426	122.911	0.488
564.500	340.684	80.000	20.007	100.233	19.419	123.907	0.499
565.000	340.889	80.001	20.008	100.245	19.413	124.910	0.483
565.500	341.120	80.001	20.007	100.247	19.403	126.404	0.452
566.000	341.408	80.000	20.008	100.241	19.398	127.255	0.477
566.500	341.705	80.001	20.007	100.234	19.387	128.907	0.552
567.000	341.911	80.000	20.007	100.228	19.381	129.853	0.544
567.500	342.156	80.001	20.007	100.225	19.372	131.318	0.477
568.000	342.416	80.001	20.007	100.232	19.366	132.198	0.478
568.500	342.585	80.002	20.007	100.240	19.358	133.594	0.467
569.000	342.838	80.000	20.008	100.248	19.349	135.026	0.426
569.500	343.098	80.000	20.007	100.254	19.340	136.386	0.468
570.000	343.380	80.001	20.007	100.259	19.330	137.951	0.527
570.500	343.629	80.000	20.008	100.262	19.321	139.484	0.536
571.000	343.835	80.001	20.007	100.270	19.310	141.124	0.492
571.500	344.104	80.001	20.007	100.277	19.303	142.348	0.465
572.000	344.366	80.001	20.007	100.286	19.292	144.073	0.503
572.500	344.597	80.001	20.007	100.292	19.288	144.607	0.512
573.000	344.803	80.003	20.008	100.289	19.274	146.801	0.465
573.500	345.069	80.002	20.007	100.283	19.270	147.467	0.455
574.000	345.288	80.001	20.007	100.283	19.262	148.864	0.478
574.500	345.566	80.000	20.008	100.283	19.252	150.392	0.491
575.000	345.828	80.001	20.008	100.285	19.247	151.205	0.518
575.500	346.045	80.000	20.007	100.293	19.239	152.408	0.510
576.000	346.308	80.002	20.008	100.293	19.233	153.313	0.480
576.500	346.568	80.002	20.008	100.286	19.226	154.540	0.501
577.000	346.820	80.000	20.008	100.278	19.219	155.637	0.517
577.500	347.114	80.002	20.008	100.273	19.215	156.208	0.529
578.000	347.330	80.000	20.007	100.269	19.209	157.166	0.528
578.500	347.619	80.001	20.007	100.267	19.202	158.266	0.507
579.000	347.823	80.002	20.007	100.267	19.196	159.230	0.499
579.500	348.096	80.000	20.007	100.259	19.191	160.007	0.485
580.000	348.342	80.000	20.008	100.247	19.186	160.777	0.498
580.500	348.591	80.000	20.007	100.236	19.180	161.750	0.507
581.000	348.863	80.002	20.008	100.230	19.170	163.233	0.508
581.500	349.141	80.000	20.008	100.231	19.166	163.994	0.536
582.000	349.347	80.002	20.007	100.243	19.158	165.208	0.517
582.500	349.538	80.000	20.007	100.259	19.149	166.657	0.441
583.000	349.828	80.002	20.007	100.268	19.144	167.344	0.439
583.500	350.131	80.000	20.008	100.274	19.136	168.604	0.536
584.000	350.349	80.001	20.007	100.274	19.130	169.654	0.557
584.500	350.616	80.000	20.008	100.270	19.120	171.300	0.503
585.000	350.877	80.002	20.008	100.267	19.114	172.247	0.507
585.500	351.105	80.000	20.007	100.274	19.107	173.239	0.509
586.000	351.367	80.001	20.007	100.283	19.105	173.631	0.490
586.500	351.591	80.001	20.007	100.291	19.099	174.670	0.488
587.000	351.866	80.000	20.008	100.299	19.092	175.664	0.492
587.500	352.124	80.001	20.007	100.302	19.087	176.473	0.516
588.000	352.347	80.001	20.008	100.296	19.085	176.831	0.507
588.500	352.608	80.001	20.007	100.292	19.079	177.747	0.482
589.001	352.828	80.000	20.007	100.292	19.071	178.971	0.483
589.500	353.091	80.000	20.007	100.293	19.067	179.643	0.482
590.000	353.394	80.002	20.008	100.290	19.063	180.323	0.524
590.500	353.587	80.000	20.007	100.288	19.057	181.207	0.531
591.000	353.822	80.002	20.008	100.279	19.052	182.006	0.462
591.500	354.052	80.000	20.007	100.265	19.049	182.496	0.447
592.000	354.324	80.001	20.008	100.256	19.043	183.380	0.484
592.501	354.582	80.002	20.007	100.251	19.040	183.875	0.516
593.000	354.848	80.000	20.007	100.259	19.032	185.178	0.527
593.500	355.011	80.001	20.007	100.272	19.028	185.712	0.477
594.000	355.328	80.001	20.007	100.279	19.022	186.625	0.455
594.500	355.573	80.001	20.007	100.279	19.019	187.248	0.521
595.000	355.785	80.001	20.007	100.280	19.012	188.332	0.509
595.500	355.994	80.000	20.007	100.271	19.009	188.844	0.439
596.000	356.333	80.001	20.007	100.269	19.003	189.706	0.485
596.500	356.505	80.001	20.007	100.275	18.998	190.466	0.529
597.000	356.822	80.002	20.007	100.285	18.995	190.997	0.500
597.500	357.048	80.000	20.008	100.294	18.992	191.512	0.517
598.000	357.302	80.001	20.008	100.305	18.986	192.355	0.512
598.500	357.511	80.000	20.008	100.313	18.983	192.840	0.471
599.000	357.806	80.002	20.008	100.321	18.980	193.398	0.483
599.500	358.038	80.001	20.008	100.329	18.978	193.672	0.516
600.000	358.311	80.001	20.007	100.336	18.974	194.395	0.516
600.501	358.513	80.000	20.007	100.341	18.967	195.428	0.489
601.001	358.717	80.001	20.007	100.340	18.964	195.992	0.440
601.500	359.065	80.001	20.008	100.331	18.961	196.351	0.479
602.000	359.248	80.002	20.008	100.322	18.957	197.119	0.542
602.500	359.522	80.001	20.007	100.309	18.953	197.751	0.494
603.000	359.760	80.001	20.008	100.301	18.949	198.294	0.484
603.500	359.978	80.000	20.008	100.301	18.947	198.700	0.484
604.000	360.271	80.001	20.007	100.310	18.945	198.860	0.483
604.500	360.542	80.002	20.007	100.313	18.942	199.469	0.538
605.000	360.749	80.000	20.007	100.316	18.940	199.760	0.521
605.500	360.938	80.001	20.008	100.309	18.936	200.282	0.437
606.000	361.231	80.000	20.008	100.298	18.933	200.813	0.439
606.500	361.438	80.001	20.007	100.286	18.930	201.295	0.491
607.000	361.665	80.002	20.007	100.283	18.931	201.249	0.467
607.500	362.002	79.999	20.007	100.284	18.928	201.666	0.499
608.000	362.205	80.001	20.008	100.290	18.928	201.581	0.552
608.500	362.445	80.000	20.007	100.296	18.927	201.874	0.491
609.000	362.683	79.999	20.008	100.295	18.924	202.267	0.460
609.500	362.954	80.002	20.007	100.287	18.919	203.060	0.493
610.000	363.248	80.001	20.008	100.283	18.916	203.412	0.537
610.500	363.507	80.001	20.008	100.283	18.915	203.573	0.559
611.000	363.723	80.001	20.008	100.288	18.911	204.154	0.514
611.500	363.920	80.000	20.007	100.300	18.910	204.333	0.444
612.000	364.252	80.002	20.007	100.312	18.904	205.426	0.471
612.500	364.483	80.000	20.007	100.316	18.901	205.915	0.546
613.000	364.732	80.000	20.008	100.317	18.900	206.059	0.521
613.500	364.976	80.000	20.007	100.321	18.900	206.109	0.486
614.000	365.170	80.001	20.008	100.320	18.897	206.674	0.466
614.500	365.430	80.001	20.007	100.323	18.896	206.806	0.446
615.000	365.728	80.001	20.008	100.329	18.892	207.492	0.506
615.500	365.992	80.001	20.007	100.337	18.892	207.414	0.560
616.000	366.207	80.001	20.008	100.333	18.886	208.328	0.520
616.500	366.430	80.000	20.007	100.325	18.885	208.432	0.458
617.000	366.664	80.002	20.008	100.316	18.883	208.786	0.447
617.500	366.967	80.001	20.008	100.312	18.877	209.686	0.497
618.000	367.243	79.999	20.007	100.312	18.877	209.779	0.558
618.500	367.436	80.003	20.007	100.318	18.874	210.115	0.524
619.000	367.680	80.001	20.007	100.327	18.876	209.788	0.453
619.500	367.955	80.001	20.008	100.338	18.874	210.142	0.478
620.000	368.195	80.000	20.008	100.343	18.875	209.981	0.517
620.500	368.491	80.003	20.008	100.341	18.875	209.963	0.525
621.000	368.694	80.002	20.008	100.335	18.878	209.472	0.518
621.500	368.949	80.001	20.008	100.330	18.874	210.122	0.479
622.000	369.179	80.001	20.007	100.321	18.871	210.611	0.472
622.500	369.478	80.000	20.007	100.312	18.867	211.253	0.507
623.000	369.680	80.000	20.007	100.299	18.860	212.260	0.515
623.500	369.946	80.002	20.008	100.288	18.854	213.279	0.485
624.000	370.223	80.002	20.007	100.280	18.852	213.550	0.506
624.500	370.393	79.999	20.007	100.279	18.845	214.684	0.495
625.000	370.723	80.002	20.008	100.289	18.837	215.842	0.473
625.500	370.938	80.001	20.008	100.319	18.835	216.230	0.522
626.000	371.236	80.000	20.007	100.354	18.830	217.065	0.529
626.500	371.417	80.000	20.007	100.378	18.825	217.828	0.496
627.001	371.674	80.002	20.008	100.390	18.826	217.717	0.458
627.500	371.937	80.001	20.008	100.389	18.827	217.610	0.479
628.000	372.141	80.000	20.007	100.373	18.828	217.356	0.493
628.500	372.387	80.001	20.008	100.355	18.828	217.412	0.458
629.000	372.719	80.001	20.007	100.348	18.829	217.186	0.514
629.500	372.900	80.001	20.008	100.351	18.830	217.021	0.546
630.000	373.135	80.000	20.007	100.352	18.832	216.621	0.465
630.500	373.396	80.001	20.007	100.345	18.833	216.549	0.456
631.000	373.662	80.001	20.009	100.338	18.832	216.721	0.511
631.500	373.880	80.000	20.008	100.333	18.833	216.586	0.505
632.000	374.097	80.002	20.007	100.326	18.830	217.086	0.460
632.500	374.377	80.002	20.007	100.322	18.833	216.581	0.466
633.000	374.642	80.000	20.007	100.321	18.833	216.726	0.521
633.500	374.866	80.000	20.009	100.321	18.840	215.578	0.516
634.000	375.081	79.999	20.006	100.313	18.847	214.426	0.464
634.500	375.290	80.002	20.007	100.291	18.851	213.833	0.432
635.000	375.593	80.002	20.010	100.276	18.858	212.716	0.468
635.500	375.854	80.001	20.008	100.283	18.867	211.373	0.537
636.000	376.065	80.000	20.006	100.285	18.878	209.608	0.517
636.500	376.270	80.001	20.007	100.273	18.887	208.227	0.444
637.000	376.545	80.001	20.009	100.278	18.894	207.087	0.448
637.500	376.740	80.000	20.007	100.281	18.909	204.711	0.475
638.000	376.995	80.000	20.007	100.263	18.917	203.485	0.460
638.501	377.221	80.001	20.010	100.251	18.930	201.440	0.466
639.000	377.560	80.001	20.007	100.271	18.946	198.983	0.523
639.500	377.773	80.000	20.007	100.280	18.958	197.050	0.559
640.000	378.043	80.002	20.009	100.286	18.969	195.257	0.517
640.500	378.282	80.001	20.009	100.304	18.978	193.796	0.496
641.000	378.522	80.000	20.007	100.318	18.990	191.865	0.494
641.500	378.780	80.001	20.007	100.299	19.002	190.038	0.489
642.000	379.016	80.001	20.010	100.286	19.015	188.078	0.496
642.500	379.314	80.002	20.007	100.288	19.023	186.709	0.514
643.000	379.572	80.001	20.007	100.271	19.036	184.730	0.545
643.500	379.831	80.001	20.009	100.253	19.049	182.625	0.537
644.000	380.061	80.000	20.008	100.273	19.062	180.595	0.503
644.500	380.349	80.002	20.007	100.299	19.077	178.213	0.503
645.000	380.545	80.001	20.008	100.307	19.092	175.848	0.501
645.500	380.819	80.000	20.008	100.325	19.103	174.157	0.477
646.000	381.076	80.001	20.007	100.348	19.118	171.772	0.500
646.500	381.357	80.002	20.008	100.350	19.127	170.221	0.534
647.000	381.570	80.001	20.006	100.349	19.139	168.318	0.516
647.500	381.838	80.002	20.007	100.348	19.154	166.015	0.488
648.000	382.063	79.998	20.008	100.351	19.164	164.325	0.487
648.500	382.343	80.001	20.007	100.357	19.172	163.041	0.499
649.000	382.583	80.001	20.007	100.360	19.187	160.738	0.512
649.500	382.825	80.002	20.008	100.363	19.198	159.086	0.501
650.000	383.141	80.001	20.008	100.376	19.207	157.657	0.520
650.500	383.369	80.002	20.007	100.388	19.219	155.684	0.551
651.000	383.622	80.002	20.007	100.396	19.227	154.354	0.512
651.500	383.895	80.000	20.007	100.402	19.239	152.550	0.503
652.000	384.143	80.001	20.007	100.400	19.249	150.827	0.524
652.500	384.388	80.001	20.008	100.388	19.253	150.241	0.508
653.000	384.700	80.000	20.008	100.374	19.264	148.574	0.525
653.500	384.929	80.001	20.007	100.367	19.272	147.242	0.549
654.000	385.167	80.002	20.007	100.372	19.279	146.097	0.504
654.500	385.434	80.000	20.007	100.383	19.288	144.748	0.486
655.000	385.662	80.002	20.008	100.399	19.297	143.296	0.500
655.500	385.971	80.001	20.008	100.418	19.300	142.752	0.516
656.000	386.204	80.001	20.007	100.427	19.308	141.551	0.539
656.500	386.434	80.000	20.007	100.428	19.314	140.616	0.503
657.000	386.717	80.001	20.008	100.428	19.322	139.440	0.488
657.500	386.939	80.002	20.007	100.428	19.330	138.084	0.509
658.000	387.242	80.000	20.007	100.423	19.336	137.171	0.515
658.500	387.434	80.001	20.007	100.414	19.342	136.239	0.510
659.000	387.681	80.001	20.008	100.402	19.350	134.965	0.467
659.501	388.013	80.000	20.007	100.386	19.355	134.093	0.509
660.000	388.231	80.000	20.008	100.372	19.361	133.171	0.565
660.500	388.488	80.001	20.007	100.360	19.370	131.850	0.512
661.000	388.716	80.001	20.008	100.358	19.377	130.687	0.480
661.500	388.977	80.001	20.007	100.362	19.386	129.290	0.488
662.000	389.220	80.002	20.008	100.368	19.394	127.996	0.496
662.500	389.502	80.002	20.007	100.367	19.400	126.941	0.514
663.000	389.835	80.002	20.008	100.360	19.407	125.860	0.570
663.500	390.080	80.002	20.008	100.350	19.417	124.330	0.597
664.000	390.314	79.999	20.007	100.342	19.424	123.276	0.528
664.500	390.615	80.001	20.007	100.335	19.430	122.327	0.507
665.000	390.885	80.001	20.007	100.336	19.436	121.295	0.553
665.500	391.079	80.003	20.007	100.339	19.443	120.273	0.517
666.000	391.325	80.000	20.008	100.342	19.452	118.773	0.452
666.500	391.580	80.001	20.008	100.338	19.458	117.762	0.470
667.000	391.848	80.001	20.008	100.332	19.465	116.722	0.512
667.500	392.069	80.002	20.007	100.328	19.473	115.459	0.506
668.000	392.314	80.001	20.008	100.326	19.480	114.348	0.478
668.500	392.536	80.002	20.007	100.327	19.487	113.223	0.467
669.000	392.849	80.001	20.007	100.335	19.495	111.928	0.501
669.500	393.087	80.001	20.008	100.342	19.504	110.584	0.543
670.000	393.352	80.002	20.007	100.345	19.510	109.578	0.527
670.500	393.664	80.000	20.008	100.346	19.515	108.727	0.540
671.000	393.820	80.000	20.008	100.345	19.521	107.914	0.522
671.500	394.104	80.001	20.008	100.340	19.525	107.248	0.453
672.000	394.352	80.001	20.007	100.339	19.530	106.490	0.486
672.500	394.595	80.001	20.007	100.347	19.538	105.145	0.512
673.000	394.846	80.001	20.007	100.350	19.546	103.898	0.493
673.500	395.054	80.001	20.007	100.349	19.550	103.292	0.477
674.000	395.347	80.001	20.008	100.344	19.558	101.969	0.480
674.500	395.590	80.001	20.008	100.335	19.563	101.132	0.518
675.000	395.859	80.000	20.007	100.321	19.569	100.188	0.524
675.500	396.124	80.001	20.008	100.317	19.580	98.575	0.523
676.000	396.350	80.001	20.007	100.318	19.585	97.811	0.512
676.500	396.611	80.001	20.008	100.323	19.593	96.422	0.489
677.000	396.898	80.001	20.008	100.330	19.600	95.438	0.517
677.500	397.115	80.002	20.007	100.330	19.607	94.285	0.526
678.000	397.418	80.001	20.008	100.324	19.615	93.065	0.512
678.500	397.652	80.000	20.008	100.314	19.623	91.659	0.529
679.000	397.907	80.002	20.008	100.305	19.631	90.537	0.513
679.500	398.139	80.001	20.007	100.298	19.638	89.379	0.488
680.000	398.381	80.001	20.007	100.296	19.645	88.345	0.480
680.500	398.665	80.001	20.008	100.298	19.651	87.296	0.500
681.000	398.896	80.001	20.007	100.300	19.659	86.048	0.520
681.500	399.122	80.002	20.007	100.297	19.666	85.008	0.486
682.000	399.438	80.002	20.008	100.289	19.675	83.452	0.500
682.500	399.691	80.001	20.008	100.282	19.684	82.027	0.555
683.000	399.890	80.002	20.007	100.275	19.691	81.070	0.510
683.500	400.161	80.002	20.008	100.275	19.699	79.686	0.461
684.000	400.444	80.001	20.008	100.280	19.706	78.579	0.512
684.500	400.715	80.000	20.008	100.288	19.717	76.903	0.554
685.000	400.953	80.001	20.007	100.294	19.723	76.004	0.532
685.500	401.250	80.000	20.007	100.292	19.730	74.748	0.522
686.000	401.462	80.001	20.008	100.284	19.740	73.236	0.522
686.500	401.712	80.002	20.008	100.276	19.747	72.136	0.486
687.000	401.943	80.000	20.008	100.275	19.754	71.055	0.472
687.500	402.222	80.001	20.008	100.277	19.763	69.534	0.495
688.000	402.432	80.001	20.007	100.288	19.769	68.607	0.499
688.500	402.756	80.001	20.007	100.301	19.776	67.635	0.512
689.000	402.930	80.002	20.008	100.309	19.783	66.475	0.516
689.500	403.201	80.000	20.007	100.310	19.789	65.425	0.471
690.000	403.456	80.000	20.008	100.307	19.798	64.063	0.486
690.500	403.673	80.002	20.008	100.299	19.803	63.228	0.499
691.000	403.918	80.001	20.008	100.295	19.810	62.192	0.467
691.500	404.205	80.001	20.008	100.295	19.818	60.990	0.497
692.000	404.420	80.000	20.007	100.303	19.826	59.666	0.517
692.500	404.627	80.001	20.007	100.312	19.833	58.515	0.462
693.000	404.904	79.999	20.008	100.321	19.839	57.556	0.453
693.500	405.177	80.001	20.007	100.320	19.845	56.607	0.516
694.000	405.406	80.000	20.008	100.319	19.850	55.845	0.526
694.501	405.629	79.999	20.008	100.305	19.855	55.091	0.477
695.000	405.895	80.001	20.008	100.298	19.861	54.056	0.470
695.500	406.200	80.001	20.007	100.295	19.868	52.967	0.530
696.000	406.364	80.000	20.007	100.301	19.874	52.095	0.520
696.500	406.633	80.000	20.007	100.303	19.880	51.073	0.451
697.000	406.851	80.001	20.007	100.310	19.890	49.606	0.460
697.500	407.111	80.001	20.008	100.311	19.890	49.529	0.483
698.000	407.399	80.001	20.007	100.302	19.895	48.714	0.513
698.500	407.644	80.001	20.008	100.288	19.899	48.079	0.541
699.000	407.880	80.001	20.008	100.280	19.907	46.834	0.507
699.500	408.131	80.000	20.008	100.278	19.910	46.340	0.484
700.000	408.447	80.001	20.007	100.279	19.918	45.072	0.527
700.500	408.654	80.000	20.007	100.286	19.922	44.415	0.544
701.000	408.933	80.001	20.007	100.294	19.926	43.918	0.504
701.500	409.181	80.000	20.008	100.298	19.931	43.016	0.507
702.000	409.440	80.001	20.008	100.291	19.934	42.506	0.517
702.500	409.658	80.001	20.008	100.283	19.941	41.400	0.492
703.000	409.973	80.001	20.008	100.280	19.947	40.473	0.505
703.500	410.180	80.000	20.007	100.280	19.952	39.715	0.528
704.000	410.451	80.001	20.008	100.283	19.956	39.025	0.500
704.500	410.708	80.001	20.008	100.289	19.960	38.410	0.503
705.000	410.939	80.000	20.007	100.297	19.964	37.816	0.508
705.500	411.253	80.002	20.008	100.295	19.969	37.067	0.516
706.000	411.468	80.002	20.008	100.288	19.971	36.752	0.537
706.500	411.724	80.000	20.008	100.281	19.976	35.968	0.500
707.000	411.964	80.002	20.007	100.273	19.980	35.364	0.483
707.500	412.251	80.000	20.008	100.268	19.985	34.520	0.511
708.000	412.509	80.001	20.007	100.274	19.987	34.158	0.536
708.500	412.755	80.000	20.007	100.280	19.993	33.251	0.525
709.000	413.019	80.001	20.008	100.285	19.993	33.185	0.507
709.500	413.213	80.001	20.007	100.286	19.997	32.594	0.484
710.000	413.497	80.001	20.008	100.283	20.002	31.826	0.468
710.500	413.751	80.001	20.007	100.275	20.004	31.474	0.508
711.000	414.008	80.002	20.008	100.269	20.008	30.943	0.524
711.500	414.213	80.000	20.008	100.268	20.008	30.845	0.486
712.000	414.496	80.000	20.007	100.276	20.014	29.983	0.476
712.500	414.735	80.001	20.008	100.284	20.018	29.270	0.505
713.000	415.009	80.001	20.007	100.292	20.020	28.953	0.517
713.500	415.252	79.999	20.007	100.294	20.025	28.184	0.515
714.000	415.480	80.001	20.008	100.288	20.026	27.966	0.494
714.500	415.716	80.001	20.008	100.273	20.031	27.194	0.468
715.000	415.993	80.002	20.008	100.257	20.035	26.606	0.489
715.500	416.232	80.000	20.008	100.249	20.035	26.566	0.515
716.000	416.471	80.000	20.008	100.250	20.034	26.837	0.497
716.500	416.718	80.001	20.008	100.260	20.037	26.225	0.482
717.000	416.991	80.002	20.008	100.270	20.038	26.213	0.503
717.500	417.218	80.000	20.008	100.278	20.041	25.597	0.510
718.000	417.475	80.001	20.008	100.279	20.046	24.944	0.492
718.500	417.717	80.000	20.008	100.274	20.045	24.979	0.492
719.000	418.007	80.001	20.008	100.262	20.048	24.620	0.515
719.500	418.249	80.001	20.008	100.256	20.053	23.771	0.532
720.000	418.467	79.999	20.007	100.255	20.052	23.998	0.496
720.500	418.756	80.001	20.008	100.258	20.054	23.582	0.483
721.000	418.981	80.001	20.007	100.262	20.056	23.281	0.510
721.500	419.256	80.001	20.007	100.266	20.059	22.790	0.507
722.000	419.448	80.000	20.007	100.269	20.058	22.983	0.484
722.500	419.743	80.001	20.008	100.270	20.063	22.207	0.477
723.000	419.969	80.000	20.007	100.267	20.065	21.944	0.504
723.500	420.240	80.001	20.008	100.263	20.067	21.619	0.509
724.000	420.469	80.001	20.008	100.265	20.070	21.133	0.499
724.500	420.772	80.000	20.008	100.272	20.071	20.929	0.516
725.000	420.942	80.001	20.007	100.279	20.074	20.491	0.503
725.500	421.266	80.000	20.007	100.286	20.074	20.411	0.483
726.000	421.457	80.001	20.007	100.288	20.077	19.994	0.504
726.500	421.697	80.001	20.007	100.284	20.077	20.033	0.473
727.000	421.918	80.000	20.008	100.269	20.077	20.007	0.446
727.500	422.181	80.001	20.007	100.254	20.079	19.714	0.472
728.000	422.452	80.000	20.008	100.239	20.080	19.541	0.509
728.500	422.694	80.002	20.008	100.238	20.082	19.197	0.523
729.000	422.934	80.001	20.007	100.240	20.083	19.101	0.497
729.500	423.210	80.000	20.007	100.247	20.083	18.988	0.498
730.000	423.432	80.000	20.007	100.255	20.083	19.004	0.507
730.500	423.674	80.002	20.008	100.261	20.087	18.413	0.482
731.001	423.909	80.000	20.007	100.254	20.086	18.486	0.471
731.500	424.152	80.000	20.007	100.246	20.087	18.355	0.477
732.000	424.356	80.001	20.008	100.238	20.090	17.946	0.462
732.500	424.579	80.000	20.007	100.234	20.090	17.877	0.437
733.000	424.842	80.002	20.008	100.235	20.088	18.206	0.457
733.500	425.082	80.000	20.007	100.241	20.090	17.977	0.495
734.000	425.365	80.001	20.008	100.249	20.090	17.917	0.513
734.500	425.565	80.001	20.008	100.250	20.093	17.379	0.503
735.000	425.829	80.000	20.007	100.246	20.092	17.574	0.474
735.500	426.078	80.001	20.008	100.237	20.095	17.062	0.488
736.000	426.324	80.001	20.008	100.229	20.097	16.835	0.504
736.500	426.552	80.000	20.007	100.223	20.098	16.642	0.484
737.000	426.807	80.001	20.007	100.229	20.098	16.690	0.479
737.500	427.061	80.001	20.008	100.240	20.099	16.464	0.497
738.000	427.302	80.001	20.008	100.256	20.100	16.275	0.502
738.500	427.524	80.000	20.007	100.269	20.100	16.268	0.479
739.000	427.777	80.002	20.008	100.273	20.102	15.993	0.469
739.500	428.024	80.000	20.008	100.266	20.101	16.119	0.487
740.000	428.281	80.001	20.008	100.255	20.101	16.206	0.502
740.500	428.549	80.002	20.008	100.240	20.104	15.639	0.515
741.000	428.776	79.999	20.007	100.229	20.105	15.546	0.510
741.500	429.043	80.000	20.007	100.228	20.103	15.848	0.494
742.000	429.275	80.000	20.007	100.230	20.106	15.462	0.496
742.500	429.530	80.002	20.007	100.231	20.106	15.452	0.493
743.000	429.752	80.000	20.007	100.231	20.107	15.194	0.482
743.500	429.991	80.001	20.008	100.228	20.106	15.403	0.469
744.000	430.237	80.002	20.008	100.224	20.107	15.271	0.472
744.500	430.458	80.000	20.008	100.222	20.108	15.067	0.476
745.000	430.656	80.001	20.008	100.227	20.109	14.902	0.443
745.500	430.949	80.000	20.007	100.235	20.109	14.980	0.455
746.000	431.122	80.001	20.007	100.244	20.110	14.840	0.479
746.500	431.434	80.001	20.007	100.252	20.110	14.747	0.476
747.001	431.621	80.001	20.007	100.254	20.111	14.620	0.492
747.500	431.904	79.999	20.008	100.248	20.111	14.587	0.485
748.000	432.130	80.002	20.008	100.241	20.113	14.262	0.490
748.500	432.384	80.000	20.008	100.233	20.111	14.588	0.494
749.000	432.632	80.000	20.007	100.229	20.116	13.753	0.491
749.500	432.863	80.002	20.008	100.234	20.115	14.013	0.490
750.000	433.114	80.000	20.007	100.241	20.117	13.606	0.481
750.500	433.323	80.001	20.007	100.249	20.117	13.713	0.471
751.000	433.594	80.000	20.007	100.256	20.117	13.638	0.470
751.500	433.846	80.000	20.008	100.255	20.120	13.185	0.502
752.000	434.082	80.002	20.008	100.248	20.120	13.252	0.505
752.500	434.366	80.000	20.008	100.244	20.120	13.155	0.504
753.000	434.555	80.001	20.008	100.244	20.123	12.758	0.497
753.501	434.837	80.002	20.008	100.245	20.122	12.904	0.472
754.000	435.036	80.000	20.008	100.252	20.123	12.784	0.476
754.500	435.289	80.000	20.007	100.261	20.121	13.044	0.466
755.000	435.535	80.002	20.007	100.265	20.122	12.899	0.476
755.500	435.784	80.000	20.007	100.265	20.122	12.864	0.497
756.000	436.009	80.000	20.007	100.261	20.122	12.933	0.484
756.500	436.240	80.002	20.008	100.252	20.121	13.043	0.465
757.000	436.483	80.000	20.008	100.244	20.121	13.076	0.465
757.500	436.742	80.001	20.008	100.237	20.118	13.560	0.488
758.000	436.996	80.000	20.008	100.231	20.122	12.904	0.508
758.500	437.214	80.001	20.008	100.234	20.120	13.217	0.492
759.000	437.449	80.002	20.007	100.240	20.121	13.071	0.462
759.500	437.691	80.000	20.008	100.244	20.121	13.105	0.466
760.001	437.967	80.002	20.007	100.242	20.118	13.479	0.498
760.500	438.216	80.001	20.008	100.240	20.120	13.115	0.521
761.000	438.451	80.000	20.007	100.235	20.122	12.851	0.504
761.500	438.669	80.002	20.007	100.227	20.120	13.148	0.469
762.000	438.940	80.000	20.008	100.222	20.120	13.148	0.471
762.500	439.159	80.000	20.008	100.222	20.120	13.152	0.489
763.000	439.393	80.001	20.008	100.222	20.121	13.089	0.471
763.500	439.651	80.001	20.007	100.225	20.121	13.043	0.472
764.000	439.914	80.000	20.008	100.234	20.123	12.720	0.507
764.500	440.136	80.001	20.007	100.240	20.120	13.186	0.503
765.000	440.409	80.001	20.008	100.243	20.121	12.994	0.490
765.500	440.644	80.001	20.007	100.244	20.124	12.598	0.501
766.000	440.854	80.000	20.007	100.241	20.124	12.604	0.476
766.500	441.117	80.000	20.008	100.234	20.127	12.036	0.459
767.000	441.401	80.000	20.008	100.235	20.127	12.100	0.510
767.500	441.602	80.001	20.007	100.239	20.128	11.897	0.516
768.000	441.826	80.001	20.007	100.250	20.127	12.024	0.455
768.500	442.065	80.000	20.008	100.265	20.126	12.274	0.444
769.000	442.299	80.001	20.007	100.279	20.126	12.196	0.468
769.500	442.534	80.001	20.008	100.281	20.127	12.064	0.471
770.000	442.818	80.000	20.007	100.277	20.129	11.753	0.494
770.500	443.052	80.000	20.008	100.273	20.127	12.014	0.518
771.000	443.285	80.001	20.007	100.265	20.132	11.321	0.492
771.500	443.552	80.001	20.007	100.260	20.129	11.713	0.483
772.000	443.778	80.001	20.007	100.261	20.131	11.419	0.496
772.500	443.957	80.000	20.007	100.267	20.132	11.282	0.449
773.000	444.208	80.000	20.007	100.268	20.134	11.030	0.418
773.501	444.460	80.000	20.007	100.268	20.133	11.183	0.467
774.000	444.756	80.001	20.008	100.266	20.130	11.533	0.526
774.500	444.934	80.001	20.008	100.263	20.133	11.177	0.511
775.000	445.186	80.001	20.008	100.262	20.133	11.188	0.452
775.500	445.452	80.001	20.008	100.268	20.134	10.939	0.474
776.000	445.750	80.000	20.007	100.276	20.131	11.487	0.541
776.500	445.934	80.000	20.007	100.282	20.132	11.279	0.523
777.000	446.209	80.001	20.007	100.285	20.134	10.951	0.470
777.500	446.442	80.000	20.008	100.278	20.134	10.997	0.484
778.000	446.713	80.000	20.007	100.264	20.131	11.470	0.506
778.500	446.933	80.001	20.008	100.249	20.133	11.094	0.497
779.000	447.183	80.001	20.008	100.238	20.133	11.118	0.481
779.500	447.405	80.000	20.007	100.237	20.132	11.356	0.471
780.000	447.685	80.001	20.007	100.242	20.129	11.744	0.487
780.500	447.874	80.001	20.007	100.248	20.127	12.131	0.486
781.000	448.127	80.002	20.008	100.247	20.129	11.810	0.455
781.500	448.462	80.000	20.007	100.245	20.129	11.766	0.515
782.000	448.675	80.000	20.008	100.232	20.125	12.379	0.568
782.500	448.900	80.002	20.008	100.222	20.127	12.059	0.493
783.000	449.148	80.000	20.008	100.217	20.126	12.308	0.455
783.500	449.429	80.001	20.008	100.223	20.124	12.490	0.501
784.000	449.627	80.002	20.007	100.230	20.126	12.272	0.505
784.500	449.879	80.001	20.008	100.239	20.125	12.446	0.465
785.000	450.101	80.000	20.007	100.241	20.127	12.078	0.462
785.500	450.360	80.001	20.007	100.236	20.124	12.484	0.477
786.000	450.633	80.001	20.008	100.223	20.124	12.506	0.506
786.500	450.839	80.001	20.007	100.215	20.127	12.115	0.505
787.000	451.148	80.002	20.008	100.216	20.124	12.479	0.497
787.500	451.409	80.003	20.008	100.223	20.128	11.956	0.543
788.000	451.598	80.000	20.008	100.234	20.125	12.409	0.510
788.500	451.859	80.001	20.007	100.246	20.125	12.397	0.450
789.000	452.118	80.002	20.007	100.247	20.124	12.512	0.485
789.500	452.338	80.000	20.008	100.243	20.125	12.346	0.499
790.000	452.553	80.001	20.008	100.235	20.124	12.534	0.457
790.500	452.847	80.002	20.007	100.227	20.126	12.197	0.472
791.000	453.015	80.001	20.007	100.222	20.127	12.002	0.486
791.500	453.337	80.004	20.008	100.225	20.126	12.175	0.476
792.001	453.512	80.001	20.008	100.233	20.127	12.113	0.493
792.500	453.758	80.000	20.008	100.241	20.125	12.422	0.459
793.000	454.042	80.000	20.007	100.248	20.125	12.333	0.476
793.500	454.371	80.000	20.007	100.249	20.126	12.293	0.572
794.000	454.550	80.002	20.008	100.245	20.126	12.276	0.560
794.500	454.782	80.000	20.008	100.236	20.127	11.998	0.459
795.000	455.010	80.001	20.008	100.232	20.127	12.101	0.435
795.500	455.280	80.000	20.008	100.233	20.129	11.735	0.479
796.000	455.499	80.001	20.008	100.248	20.130	11.641	0.494
796.500	455.746	80.000	20.007	100.263	20.128	11.962	0.477
797.001	455.952	80.002	20.007	100.279	20.130	11.585	0.460
797.500	456.236	80.001	20.007	100.284	20.131	11.494	0.472
798.000	456.483	80.001	20.007	100.283	20.133	11.160	0.510
798.500	456.724	80.000	20.008	100.271	20.133	11.173	0.510
799.000	456.989	80.000	20.008	100.261	20.129	11.797	0.497
799.500	457.237	80.002	20.008	100.254	20.129	11.784	0.509
800.000	457.482	80.001	20.007	100.259	20.126	12.204	0.503
800.500	457.782	80.000	20.008	100.268	20.128	11.847	0.519
801.000	458.022	80.002	20.006	100.283	20.125	12.455	0.542
801.500	458.213	80.002	20.007	100.290	20.129	11.804	0.485
802.000	458.473	80.000	20.008	100.281	20.128	11.904	0.441
802.500	458.765	80.001	20.007	100.261	20.130	11.640	0.501
803.000	458.991	80.002	20.008	100.238	20.126	12.251	0.535
803.500	459.245	79.999	20.008	100.211	20.130	11.594	0.499
804.000	459.506	80.002	20.008	100.199	20.128	11.905	0.497
804.500	459.718	80.001	20.007	100.200	20.126	12.200	0.494
805.000	460.014	80.000	20.007	100.212	20.128	11.989	0.491
805.500	460.242	80.002	20.007	100.224	20.125	12.350	0.516
806.000	460.475	80.001	20.007	100.232	20.127	12.066	0.492
806.501	460.769	80.000	20.007	100.232	20.128	11.928	0.494
807.000	460.988	80.001	20.008	100.232	20.129	11.687	0.520
807.500	461.247	80.001	20.008	100.228	20.128	11.875	0.496
808.000	461.504	80.001	20.008	100.224	20.129	11.726	0.497
808.500	461.757	79.999	20.007	100.227	20.130	11.580	0.513
809.000	461.944	80.001	20.008	100.229	20.128	11.911	0.475
809.500	462.207	80.002	20.007	100.230	20.129	11.751	0.445
810.000	462.481	80.000	20.007	100.229	20.130	11.603	0.494
810.500	462.712	80.000	20.008	100.228	20.127	12.068	0.521
811.000	462.961	80.001	20.008	100.224	20.129	11.770	0.492
811.500	463.218	80.001	20.007	100.222	20.129	11.729	0.493
812.000	463.504	80.000	20.007	100.221	20.130	11.614	0.525
812.501	463.713	80.000	20.008	100.221	20.128	11.950	0.519
813.000	463.996	80.001	20.007	100.222	20.125	12.414	0.493
813.500	464.210	80.000	20.007	100.221	20.125	12.330	0.495
814.001	464.459	80.001	20.007	100.222	20.128	11.947	0.480
814.500	464.737	80.000	20.008	100.222	20.126	12.207	0.495
815.000	464.999	80.001	20.008	100.222	20.127	12.125	0.534
815.500	465.168	80.001	20.008	100.221	20.125	12.374	0.486
816.000	465.425	80.001	20.007	100.222	20.125	12.334	0.428
816.500	465.746	80.000	20.009	100.223	20.126	12.314	0.502
817.000	465.943	80.000	20.007	100.231	20.125	12.429	0.548
817.500	466.214	80.001	20.008	100.236	20.126	12.273	0.493
818.000	466.484	79.999	20.007	100.234	20.126	12.303	0.504
818.500	466.730	80.000	20.008	100.235	20.125	12.329	0.529
819.000	467.011	80.002	20.008	100.234	20.125	12.444	0.522
819.500	467.254	80.000	20.008	100.226	20.126	12.248	0.525
820.000	467.476	80.001	20.007	100.223	20.127	12.087	0.494
820.500	467.727	79.999	20.008	100.233	20.126	12.192	0.469
821.000	468.002	80.002	20.007	100.240	20.128	11.924	0.500
821.500	468.268	80.000	20.007	100.249	20.127	12.099	0.533
822.000	468.534	80.000	20.007	100.255	20.124	12.477	0.536
822.500	468.774	80.001	20.007	100.254	20.128	11.906	0.520
823.000	469.043	80.001	20.007	100.244	20.126	12.310	0.508
823.500	469.281	80.001	20.009	100.225	20.126	12.293	0.508
824.000	469.530	80.001	20.008	100.212	20.123	12.728	0.497
824.500	469.808	79.999	20.012	100.211	20.126	12.314	0.507
825.000	470.016	80.002	20.001	100.254	20.122	12.855	0.506
825.500	470.227	79.998	20.013	100.245	20.120	13.243	0.453
826.000	470.531	80.000	20.009	100.212	20.123	12.674	0.468
826.500	470.769	79.999	20.008	100.187	20.123	12.729	0.529
827.000	471.009	80.003	20.005	100.161	20.126	12.173	0.510
827.500	471.293	79.999	20.016	100.050	20.128	11.963	0.501
828.000	471.494	80.000	20.007	100.063	20.129	11.797	0.504
828.500	471.771	80.000	20.007	100.134	20.128	11.925	0.482
829.000	472.008	80.000	20.007	100.214	20.127	12.037	0.496
829.500	472.231	80.001	20.007	100.274	20.126	12.215	0.487
830.000	472.475	80.000	20.006	100.367	20.128	11.978	0.464
830.500	472.824	80.001	20.007	100.375	20.127	12.117	0.530
831.000	472.977	80.000	20.007	100.341	20.128	11.968	0.548
831.500	473.221	80.002	20.008	100.284	20.128	11.971	0.449
832.000	473.490	80.000	20.008	100.242	20.127	12.147	0.454
832.500	473.719	80.001	20.007	100.220	20.128	11.868	0.505
833.000	474.006	80.004	20.009	100.219	20.129	11.799	0.507
833.500	474.237	80.003	20.009	100.233	20.129	11.737	0.517
834.000	474.475	80.002	20.010	100.248	20.129	11.800	0.494
834.500	474.719	80.001	20.008	100.259	20.131	11.466	0.476
835.000	474.990	80.001	20.007	100.263	20.132	11.329	0.498
835.500	475.244	80.000	20.008	100.263	20.131	11.485	0.519
836.000	475.529	80.000	20.008	100.263	20.133	11.199	0.532
836.500	475.733	80.003	20.008	100.264	20.136	10.708	0.514
837.000	475.969	80.000	20.007	100.268	20.131	11.396	0.465
837.500	476.197	80.002	20.008	100.273	20.132	11.316	0.452
838.000	476.428	80.002	20.008	100.274	20.134	10.938	0.462
838.500	476.707	80.001	20.007	100.273	20.132	11.304	0.484
839.000	476.964	80.001	20.009	100.265	20.134	10.929	0.523
839.500	477.148	80.001	20.008	100.253	20.132	11.242	0.488
840.000	477.504	80.000	20.007	100.241	20.135	10.867	0.490
840.500	477.677	80.000	20.007	100.241	20.134	10.911	0.535
841.000	477.933	80.001	20.008	100.243	20.130	11.656	0.480
841.500	478.181	80.000	20.007	100.258	20.131	11.515	0.467
842.000	478.410	80.001	20.008	100.271	20.130	11.615	0.490
842.500	478.639	80.001	20.007	100.280	20.130	11.635	0.467
843.000	478.895	80.001	20.008	100.278	20.130	11.592	0.472
843.501	479.162	80.000	20.008	100.268	20.129	11.769	0.504
844.000	479.395	80.001	20.007	100.255	20.129	11.759	0.511
844.500	479.615	80.000	20.007	100.248	20.129	11.797	0.476
845.000	479.827	80.000	20.008	100.245	20.132	11.329	0.442
845.500	480.112	80.001	20.007	100.253	20.131	11.385	0.465
846.000	480.318	79.999	20.007	100.268	20.131	11.403	0.494
846.500	480.528	80.002	20.007	100.276	20.133	11.118	0.453
847.000	480.823	80.000	20.008	100.276	20.133	11.104	0.461
847.500	481.079	80.000	20.007	100.275	20.132	11.214	0.528
848.000	481.271	80.000	20.008	100.269	20.130	11.639	0.500
848.500	481.534	80.001	20.008	100.264	20.131	11.413	0.452
849.000	481.769	80.000	20.007	100.270	20.130	11.674	0.476
849.500	482.032	80.000	20.007	100.273	20.129	11.751	0.498
850.000	482.254	80.001	20.007	100.276	20.126	12.160	0.492
850.500	482.479	79.999	20.007	100.273	20.129	11.789	0.466
851.000	482.763	80.001	20.008	100.267	20.130	11.562	0.478
851.500	482.992	80.000	20.007	100.255	20.130	11.532	0.511
852.000	483.236	80.001	20.007	100.247	20.131	11.379	0.493
852.500	483.491	80.002	20.008	100.237	20.130	11.652	0.486
853.000	483.745	80.000	20.007	100.233	20.129	11.769	0.503
853.500	484.002	80.000	20.008	100.233	20.128	11.843	0.510
854.000	484.281	79.999	20.007	100.236	20.128	11.865	0.524
854.500	484.483	80.002	20.008	100.235	20.124	12.522	0.508
855.000	484.742	80.002	20.008	100.234	20.127	12.101	0.471
855.500	484.961	80.001	20.008	100.232	20.125	12.318	0.470
856.000	485.225	80.001	20.007	100.232	20.124	12.499	0.481
856.500	485.489	80.001	20.008	100.233	20.124	12.537	0.505
857.000	485.707	80.001	20.007	100.239	20.123	12.755	0.505
857.500	485.952	80.001	20.007	100.243	20.125	12.424	0.473
858.000	486.191	80.000	20.007	100.243	20.128	11.903	0.474
858.500	486.443	80.003	20.008	100.232	20.123	12.668	0.488
859.000	486.625	80.000	20.008	100.216	20.123	12.634	0.462
859.500	486.948	80.002	20.008	100.201	20.123	12.735	0.469
860.000	487.201	80.001	20.008	100.198	20.121	12.982	0.541
860.501	487.458	80.001	20.007	100.200	20.120	13.176	0.543
861.000	487.670	80.001	20.008	100.209	20.120	13.110	0.489
861.500	487.933	79.999	20.007	100.220	20.122	12.798	0.472
862.000	488.134	80.001	20.007	100.227	20.119	13.278	0.470
862.500	488.404	80.001	20.007	100.223	20.122	12.871	0.468
863.000	488.669	80.001	20.008	100.214	20.122	12.803	0.503
863.500	488.900	80.001	20.008	100.207	20.122	12.819	0.516
864.000	489.229	80.001	20.007	100.203	20.122	12.878	0.528
864.500	489.466	80.002	20.008	100.204	20.122	12.904	0.563
865.000	489.678	80.001	20.007	100.215	20.122	12.801	0.507
865.500	489.925	80.001	20.007	100.231	20.126	12.205	0.454
866.000	490.163	80.000	20.007	100.235	20.124	12.531	0.472
866.500	490.396	80.002	20.007	100.237	20.123	12.730	0.478
867.000	490.664	80.001	20.008	100.234	20.117	13.593	0.486
867.500	490.921	80.002	20.008	100.228	20.123	12.724	0.513
868.000	491.173	80.001	20.008	100.220	20.124	12.572	0.517
868.501	491.402	80.000	20.008	100.224	20.124	12.529	0.495
869.000	491.667	80.001	20.008	100.231	20.122	12.861	0.487
869.500	491.886	80.000	20.007	100.242	20.124	12.479	0.489
870.000	492.176	80.003	20.011	100.249	20.122	12.939	0.496
870.500	492.396	79.999	20.003	100.274	20.121	13.019	0.509
871.000	492.644	80.002	20.014	100.267	20.125	12.336	0.489
871.500	492.858	79.999	20.010	100.215	20.125	12.325	0.465
872.000	493.094	80.001	20.009	100.183	20.126	12.182	0.456
872.500	493.395	80.000	20.009	100.170	20.123	12.652	0.493
873.000	493.632	80.001	20.009	100.146	20.125	12.432	0.537
873.500	493.846	80.001	20.008	100.150	20.126	12.195	0.494
874.000	494.139	80.001	20.011	100.180	20.127	12.054	0.479
874.500	494.363	80.000	20.008	100.218	20.127	12.110	0.512
875.000	494.629	80.001	20.007	100.267	20.129	11.805	0.503
875.500	494.875	80.002	20.007	100.296	20.127	12.074	0.501
876.000	495.092	80.001	20.007	100.308	20.127	12.074	0.488
876.500	495.319	80.001	20.007	100.329	20.125	12.346	0.454
877.000	495.627	80.001	20.007	100.324	20.127	12.103	0.490
877.500	495.848	80.003	20.008	100.288	20.125	12.380	0.532
878.000	496.090	80.001	20.007	100.264	20.126	12.203	0.496
878.500	496.317	80.001	20.008	100.252	20.127	12.061	0.466
879.000	496.598	80.001	20.007	100.244	20.124	12.495	0.489
879.500	496.835	80.002	20.007	100.233	20.123	12.689	0.513
880.000	497.048	80.000	20.008	100.222	20.126	12.294	0.484
880.500	497.350	80.002	20.008	100.215	20.124	12.529	0.483
881.000	497.548	80.000	20.007	100.222	20.124	12.501	0.508
881.500	497.845	80.001	20.007	100.231	20.123	12.762	0.498
882.000	498.019	80.001	20.007	100.242	20.123	12.775	0.483
882.500	498.289	80.000	20.007	100.252	20.125	12.427	0.457
883.000	498.523	80.001	20.007	100.254	20.122	12.929	0.474
883.500	498.807	80.000	20.008	100.246	20.122	12.915	0.511
884.000	498.997	80.000	20.008	100.236	20.122	12.925	0.496
884.500	499.304	80.001	20.008	100.228	20.117	13.583	0.486
885.000	499.555	80.001	20.007	100.225	20.120	13.236	0.528
885.500	499.825	80.001	20.008	100.228	20.122	12.923	0.540
886.000	500.078	80.001	20.007	100.229	20.119	13.363	0.522
886.500	500.293	80.001	20.007	100.228	20.119	13.336	0.495
887.000	500.614	80.001	20.008	100.221	20.119	13.298	0.502
887.500	500.807	80.001	20.008	100.210	20.119	13.412	0.525
888.000	501.081	80.002	20.008	100.199	20.119	13.406	0.491
888.500	501.304	80.000	20.008	100.193	20.119	13.313	0.482
889.000	501.518	80.001	20.007	100.194	20.118	13.454	0.467
889.500	501.838	80.001	20.007	100.202	20.117	13.674	0.485
890.000	502.079	80.001	20.007	100.207	20.119	13.359	0.547
890.500	502.302	80.002	20.008	100.208	20.117	13.581	0.513
891.000	502.551	80.000	20.007	100.206	20.117	13.633	0.468
891.500	502.779	80.001	20.008	100.197	20.117	13.590	0.474
892.000	503.048	80.002	20.008	100.195	20.116	13.811	0.487
892.500	503.326	80.001	20.008	100.198	20.119	13.328	0.522
893.000	503.571	80.001	20.007	100.214	20.117	13.659	0.535
893.500	503.762	80.000	20.007	100.229	20.117	13.657	0.480
894.000	504.030	80.001	20.007	100.244	20.118	13.490	0.448
894.500	504.276	80.002	20.007	100.248	20.120	13.112	0.486
895.000	504.542	80.001	20.007	100.246	20.117	13.579	0.513
895.500	504.774	79.999	20.008	100.236	20.121	13.089	0.505
896.000	505.043	80.002	20.008	100.224	20.118	13.457	0.499
896.500	505.225	80.000	20.008	100.218	20.119	13.302	0.476
897.000	505.498	80.001	20.007	100.217	20.122	12.942	0.453
897.500	505.719	80.001	20.007	100.223	20.123	12.738	0.474
898.000	505.976	80.002	20.007	100.227	20.120	13.225	0.486
898.500	506.226	80.000	20.008	100.229	20.123	12.760	0.492
899.000	506.434	80.000	20.007	100.228	20.122	12.849	0.482
899.500	506.650	80.001	20.008	100.221	20.121	13.036	0.441
900.000	506.910	80.001	20.007	100.214	20.123	12.704	0.450
900.500	507.173	80.002	20.008	100.215	20.120	13.108	0.500
901.000	507.376	80.000	20.008	100.220	20.121	12.989	0.494
901.500	507.655	80.002	20.007	100.224	20.121	12.950	0.473
902.000	507.856	80.000	20.007	100.231	20.118	13.516	0.481
902.500	508.112	80.001	20.008	100.229	20.117	13.642	0.469
903.001	508.366	80.002	20.008	100.220	20.119	13.308	0.484
903.500	508.602	80.001	20.008	100.208	20.118	13.455	0.500
904.000	508.819	80.001	20.008	100.201	20.120	13.116	0.471
904.500	509.103	80.001	20.008	100.200	20.118	13.501	0.477
905.000	509.361	80.001	20.008	100.204	20.118	13.498	0.522
905.500	509.573	80.000	20.008	100.213	20.117	13.705	0.506
906.000	509.816	80.001	20.008	100.221	20.119	13.420	0.463
906.500	510.078	80.002	20.008	100.225	20.120	13.253	0.480
907.000	510.323	80.002	20.007	100.225	20.118	13.570	0.506
907.500	510.570	80.000	20.008	100.220	20.117	13.686	0.499
908.000	510.826	80.002	20.008	100.219	20.117	13.666	0.498
908.500	511.055	79.999	20.008	100.224	20.119	13.291	0.494
909.000	511.291	80.001	20.008	100.232	20.119	13.263	0.475
909.500	511.535	80.001	20.007	100.241	20.119	13.328	0.473
910.000	511.778	80.001	20.007	100.248	20.120	13.223	0.484
910.500	512.044	80.000	20.008	100.248	20.121	12.996	0.498
911.000	512.267	80.002	20.008	100.242	20.119	13.257	0.499
911.500	512.517	79.999	20.007	100.233	20.120	13.184	0.481
912.000	512.724	80.002	20.008	100.226	20.119	13.405	0.465
912.500	512.972	80.000	20.007	100.229	20.118	13.570	0.456
913.000	513.279	80.001	20.007	100.237	20.119	13.355	0.505
913.500	513.534	80.001	20.007	100.244	20.121	12.991	0.558
914.000	513.751	80.000	20.008	100.251	20.119	13.328	0.517
914.500	513.984	80.002	20.008	100.254	20.120	13.131	0.461
915.000	514.251	80.000	20.008	100.248	20.122	12.839	0.475
915.500	514.506	80.002	20.008	100.241	20.119	13.411	0.511
916.000	514.805	80.001	20.007	100.242	20.120	13.118	0.539
916.500	515.011	80.001	20.008	100.242	20.121	13.008	0.530
917.000	515.257	80.002	20.007	100.247	20.120	13.168	0.478
917.500	515.483	80.000	20.007	100.255	20.120	13.167	0.462
918.000	515.754	80.001	20.007	100.261	20.121	13.090	0.484
918.500	515.941	80.001	20.008	100.258	20.120	13.224	0.477
919.000	516.218	80.001	20.008	100.253	20.118	13.512	0.461
919.500	516.476	80.001	20.008	100.251	20.120	13.258	0.500
920.000	516.715	80.001	20.007	100.249	20.124	12.591	0.516
920.500	516.945	80.000	20.007	100.247	20.119	13.372	0.483
921.000	517.203	80.001	20.007	100.243	20.122	12.820	0.478
921.500	517.418	80.001	20.007	100.239	20.118	13.510	0.481
922.000	517.694	80.000	20.008	100.226	20.119	13.348	0.482
922.500	517.929	80.001	20.008	100.212	20.119	13.369	0.501
923.000	518.194	80.002	20.008	100.201	20.118	13.443	0.506
923.500	518.457	80.001	20.007	100.201	20.117	13.624	0.514
924.000	518.721	80.000	20.008	100.203	20.116	13.824	0.527
924.500	518.974	80.002	20.007	100.211	20.116	13.786	0.522
925.000	519.223	80.001	20.007	100.218	20.120	13.238	0.510
925.500	519.419	80.000	20.008	100.223	20.118	13.435	0.473
926.000	519.708	80.001	20.008	100.216	20.117	13.670	0.465
926.500	519.934	80.001	20.007	100.213	20.118	13.449	0.500
927.000	520.212	80.002	20.007	100.212	20.119	13.423	0.509
927.500	520.454	80.000	20.008	100.213	20.119	13.310	0.512
928.000	520.705	80.002	20.008	100.221	20.119	13.307	0.506
928.500	520.964	79.999	20.007	100.235	20.115	13.964	0.501
929.000	521.201	80.001	20.007	100.241	20.116	13.879	0.503
929.500	521.476	80.001	20.008	100.241	20.118	13.448	0.504
930.000	521.692	80.001	20.008	100.241	20.116	13.835	0.502
930.500	521.918	80.001	20.008	100.233	20.119	13.310	0.467
931.000	522.169	80.001	20.007	100.228	20.119	13.278	0.460
931.500	522.421	80.001	20.007	100.233	20.118	13.428	0.490
932.000	522.700	80.002	20.007	100.241	20.117	13.590	0.517
932.500	522.981	80.000	20.007	100.241	20.119	13.416	0.545
933.000	523.180	80.001	20.008	100.242	20.120	13.143	0.520
933.500	523.401	80.001	20.008	100.239	20.117	13.689	0.450
934.000	523.709	80.002	20.008	100.233	20.117	13.723	0.475
934.500	523.934	80.000	20.007	100.229	20.118	13.473	0.531
935.000	524.210	80.000	20.008	100.236	20.119	13.356	0.517
935.500	524.405	80.002	20.007	100.243	20.121	13.021	0.485
936.000	524.679	80.001	20.007	100.252	20.121	12.996	0.470
936.500	524.926	80.001	20.007	100.255	20.119	13.322	0.495
937.000	525.174	80.000	20.007	100.251	20.118	13.445	0.508
937.500	525.406	80.001	20.008	100.245	20.119	13.282	0.487
938.000	525.681	80.002	20.007	100.242	20.119	13.389	0.494
938.500	525.890	80.001	20.007	100.242	20.122	12.909	0.496
939.000	526.138	80.001	20.008	100.251	20.121	13.035	0.470
939.500	526.370	80.000	20.007	100.268	20.122	12.810	0.469
940.000	526.601	80.003	20.007	100.276	20.121	13.070	0.471
940.500	526.902	80.001	20.007	100.279	20.119	13.271	0.497
941.000	527.091	80.000	20.008	100.279	20.119	13.272	0.512
941.500	527.369	80.001	20.008	100.273	20.120	13.167	0.479
942.000	527.600	80.001	20.007	100.264	20.120	13.128	0.488
942.500	527.895	80.000	20.007	100.261	20.120	13.144	0.518
943.000	528.141	80.001	20.007	100.257	20.119	13.286	0.533
943.500	528.404	80.001	20.007	100.250	20.119	13.342	0.525
944.000	528.649	80.001	20.008	100.242	20.118	13.444	0.509
944.500	528.865	80.001	20.008	100.235	20.117	13.598	0.484
945.000	529.131	80.002	20.007	100.229	20.117	13.629	0.472
945.500	529.362	80.001	20.008	100.225	20.117	13.703	0.490
946.000	529.592	80.002	20.008	100.231	20.116	13.743	0.478
946.500	529.870	80.000	20.007	100.239	20.117	13.585	0.484
947.000	530.150	80.003	20.007	100.247	20.117	13.725	0.533
947.500	530.374	80.000	20.007	100.249	20.115	13.971	0.532
948.000	530.657	80.001	20.007	100.248	20.115	14.015	0.506
948.500	530.893	80.001	20.008	100.237	20.116	13.801	0.513
949.000	531.106	80.002	20.008	100.226	20.115	14.043	0.484
949.500	531.343	80.001	20.007	100.218	20.117	13.703	0.449
950.000	531.596	79.999	20.008	100.217	20.117	13.597	0.470
950.500	531.849	80.003	20.007	100.219	20.114	14.184	0.498
951.000	532.117	80.001	20.008	100.224	20.116	13.843	0.513
951.500	532.359	80.001	20.007	100.223	20.115	13.944	0.515
952.000	532.580	80.001	20.007	100.216	20.112	14.385	0.487
952.500	532.820	80.001	20.008	100.210	20.114	14.055	0.462
953.000	533.069	80.001	20.008	100.209	20.115	14.009	0.475
953.500	533.335	80.002	20.008	100.209	20.112	14.380	0.502
954.000	533.588	80.001	20.007	100.220	20.114	14.203	0.517
954.500	533.842	80.001	20.008	100.233	20.115	13.961	0.513
955.000	534.043	80.004	20.007	100.238	20.113	14.257	0.481
955.501	534.337	80.000	20.008	100.232	20.114	14.076	0.475
956.000	534.556	80.000	20.008	100.225	20.116	13.831	0.504
956.500	534.816	80.002	20.008	100.215	20.117	13.655	0.496
957.000	535.046	80.001	20.007	100.210	20.119	13.419	0.484
957.500	535.342	80.001	20.008	100.210	20.118	13.570	0.508
958.000	535.570	80.001	20.007	100.216	20.116	13.804	0.525
958.500	535.831	80.001	20.007	100.223	20.116	13.786	0.507
959.000	536.057	80.002	20.007	100.223	20.115	13.932	0.488
959.500	536.342	80.001	20.008	100.216	20.117	13.618	0.499
960.000	536.554	80.002	20.008	100.210	20.117	13.688	0.504
960.500	536.815	80.002	20.008	100.208	20.115	13.989	0.485
961.000	537.060	80.000	20.008	100.207	20.114	14.053	0.489
961.500	537.299	80.002	20.007	100.210	20.116	13.856	0.495
962.000	537.544	80.001	20.007	100.218	20.114	14.058	0.484
962.500	537.815	80.003	20.007	100.223	20.114	14.104	0.500
963.000	538.062	80.002	20.008	100.225	20.117	13.676	0.517
963.500	538.337	80.001	20.008	100.226	20.115	14.014	0.519
964.000	538.553	80.003	20.008	100.224	20.116	13.738	0.507
964.500	538.818	80.001	20.008	100.224	20.117	13.586	0.486
965.000	539.068	80.003	20.008	100.230	20.116	13.790	0.498
965.500	539.332	80.000	20.008	100.237	20.115	14.021	0.515
966.000	539.580	80.001	20.007	100.242	20.116	13.789	0.513
966.500	539.800	80.000	20.008	100.242	20.117	13.665	0.490
967.000	540.095	80.001	20.007	100.239	20.117	13.597	0.491
967.500	540.311	80.001	20.008	100.231	20.117	13.648	0.513
968.000	540.556	80.003	20.008	100.224	20.116	13.759	0.486
968.500	540.824	80.001	20.008	100.220	20.116	13.877	0.487
969.000	541.056	80.001	20.007	100.227	20.119	13.397	0.506
969.500	541.306	80.001	20.008	100.237	20.117	13.713	0.491
970.000	541.563	80.003	20.007	100.247	20.117	13.729	0.495
970.500	541.805	80.000	20.008	100.251	20.115	14.032	0.503
971.000	542.037	80.002	20.008	100.251	20.115	14.049	0.486
971.500	542.333	80.001	20.008	100.243	20.114	14.203	0.501
972.000	542.555	80.000	20.008	100.235	20.113	14.217	0.523
972.500	542.853	80.003	20.008	100.232	20.114	14.080	0.519
973.000	543.093	80.001	20.008	100.231	20.115	13.923	0.529
973.500	543.308	80.001	20.007	100.236	20.115	13.992	0.497
974.000	543.571	80.001	20.007	100.240	20.116	13.788	0.467
974.500	543.768	80.001	20.008	100.240	20.115	14.006	0.469
975.000	544.089	80.001	20.008	100.232	20.116	13.786	0.489
975.501	544.282	80.002	20.008	100.227	20.115	13.961	0.516
976.001	544.564	80.000	20.008	100.221	20.116	13.842	0.495
976.500	544.781	80.001	20.007	100.224	20.113	14.302	0.487
977.000	545.067	80.002	20.008	100.232	20.112	14.471	0.501
977.500	545.295	80.001	20.007	100.244	20.117	13.719	0.508
978.000	545.538	80.002	20.007	100.250	20.117	13.612	0.492
978.500	545.780	80.001	20.008	100.251	20.117	13.692	0.478
979.001	546.033	80.002	20.008	100.244	20.118	13.519	0.490
979.500	546.265	80.001	20.008	100.235	20.116	13.787	0.490
980.000	546.540	80.001	20.008	100.231	20.114	14.095	0.496
980.500	546.782	80.002	20.008	100.233	20.113	14.251	0.511
981.000	547.076	80.002	20.007	100.242	20.115	13.946	0.526
981.500	547.304	80.001	20.008	100.249	20.115	13.918	0.529
982.000	547.535	80.003	20.008	100.252	20.114	14.158	0.491
982.500	547.751	80.000	20.007	100.250	20.114	14.095	0.453
983.000	548.009	80.002	20.008	100.243	20.114	14.153	0.460
983.500	548.258	80.002	20.007	100.236	20.115	14.041	0.491
984.000	548.542	80.000	20.008	100.236	20.116	13.848	0.520
984.500	548.759	80.001	20.008	100.241	20.112	14.434	0.517
985.000	548.978	80.001	20.008	100.245	20.114	14.130	0.468
985.500	549.226	80.000	20.007	100.246	20.112	14.456	0.452
986.000	549.510	80.000	20.008	100.244	20.115	13.998	0.500
986.500	549.736	80.001	20.008	100.238	20.115	13.932	0.521
987.000	550.021	80.001	20.007	100.236	20.113	14.277	0.510
987.500	550.273	80.001	20.008	100.238	20.114	14.194	0.524
988.000	550.471	80.001	20.007	100.245	20.114	14.094	0.493
988.500	550.732	80.001	20.007	100.253	20.115	14.019	0.455
989.000	550.935	80.003	20.007	100.260	20.115	13.900	0.462
989.500	551.206	80.001	20.008	100.256	20.113	14.265	0.469
990.001	551.487	80.000	20.008	100.248	20.115	14.010	0.513
990.500	551.691	80.001	20.009	100.241	20.117	13.620	0.519
991.000	551.967	80.002	20.007	100.240	20.114	14.114	0.483
991.500	552.211	80.001	20.007	100.240	20.114	14.149	0.500
992.000	552.458	80.001	20.008	100.246	20.113	14.233	0.505
992.500	552.695	80.000	20.007	100.254	20.113	14.290	0.488
993.000	552.974	80.002	20.008	100.256	20.115	14.006	0.500
993.500	553.222	80.001	20.008	100.249	20.113	14.350	0.521
994.000	553.489	80.003	20.008	100.240	20.116	13.767	0.521
994.500	553.733	80.000	20.007	100.233	20.116	13.752	0.513
995.000	554.028	80.001	20.008	100.230	20.115	13.936	0.525
995.500	554.267	80.000	20.008	100.234	20.114	14.061	0.537
996.000	554.503	80.001	20.008	100.243	20.114	14.078	0.505
996.500	554.749	80.001	20.007	100.250	20.115	13.903	0.478
997.000	555.008	80.002	20.007	100.254	20.114	14.093	0.494
997.500	555.230	80.001	20.008	100.249	20.116	13.865	0.494
998.000	555.478	80.001	20.008	100.242	20.116	13.865	0.476
998.500	555.768	80.002	20.007	100.234	20.114	14.176	0.504
999.000	555.989	80.002	20.008	100.233	20.116	13.864	0.524
999.500	556.243	80.001	20.008	100.234	20.116	13.884	0.493
1000.000	556.496	80.002	20.008	100.243	20.114	14.141	0.491
1000.500	556.744	80.000	20.008	100.247	20.117	13.683	0.504
1001.000	557.016	80.002	20.007	100.246	20.116	13.748	0.510
1001.500	557.247	80.001	20.008	100.235	20.114	14.148	0.511
1002.000	557.521	80.001	20.008	100.221	20.114	14.125	0.504
1002.500	557.766	80.002	20.008	100.205	20.115	13.973	0.512
1003.000	557.984	80.002	20.008	100.197	20.113	14.311	0.491
1003.500	558.227	80.001	20.008	100.197	20.114	14.145	0.462
1004.000	558.479	80.003	20.008	100.203	20.113	14.369	0.478
1004.500	558.747	80.000	20.007	100.210	20.113	14.214	0.507
1005.000	558.974	80.000	20.007	100.218	20.113	14.276	0.508
1005.500	559.232	80.001	20.008	100.221	20.112	14.472	0.491
1006.000	559.467	80.002	20.008	100.219	20.117	13.677	0.489
1006.500	559.761	80.002	20.008	100.220	20.115	14.042	0.511
1007.000	559.974	80.001	20.007	100.228	20.115	13.977	0.518
1007.500	560.230	80.000	20.008	100.236	20.114	14.132	0.488
1008.000	560.482	80.001	20.007	100.244	20.116	13.888	0.488
1008.500	560.747	80.001	20.007	100.253	20.112	14.471	0.513
1009.000	561.003	80.000	20.008	100.254	20.114	14.106	0.519
1009.500	561.260	80.001	20.008	100.247	20.113	14.275	0.517
1010.000	561.546	80.003	20.008	100.240	20.114	14.201	0.528
1010.500	561.825	80.001	20.008	100.234	20.113	14.208	0.554
1011.000	562.086	80.001	20.007	100.234	20.115	14.046	0.552
1011.501	562.288	80.000	20.007	100.243	20.113	14.221	0.501
1012.000	562.553	80.001	20.007	100.251	20.110	14.705	0.465
1012.500	562.815	80.002	20.008	100.255	20.112	14.424	0.497
1013.000	563.040	80.000	20.007	100.254	20.111	14.660	0.507
1013.500	563.292	80.002	20.008	100.246	20.114	14.128	0.482
1014.000	563.563	80.000	20.008	100.237	20.116	13.847	0.500
1014.500	563.809	80.002	20.007	100.232	20.114	14.098	0.520
1015.000	564.071	80.001	20.008	100.235	20.114	14.193	0.513
1015.500	564.319	79.999	20.007	100.242	20.116	13.770	0.509
1016.000	564.578	80.002	20.008	100.251	20.114	14.138	0.508
1016.500	564.835	80.000	20.007	100.257	20.113	14.336	0.512
1017.000	565.090	80.001	20.007	100.257	20.114	14.188	0.514
1017.500	565.364	80.001	20.007	100.250	20.114	14.163	0.521
1018.000	565.609	80.001	20.008	100.238	20.113	14.226	0.524
1018.500	565.837	80.001	20.008	100.231	20.114	14.126	0.496
1019.000	566.058	80.001	20.007	100.230	20.112	14.414	0.461
1019.500	566.346	80.001	20.008	100.236	20.112	14.381	0.479
1020.000	566.631	80.001	20.007	100.246	20.111	14.612	0.541
1020.500	566.834	80.001	20.007	100.258	20.113	14.324	0.530
1021.000	567.095	80.001	20.008	100.258	20.113	14.243	0.476
1021.500	567.397	80.001	20.008	100.249	20.108	15.113	0.514
1022.000	567.603	80.001	20.008	100.238	20.110	14.833	0.536
1022.500	567.881	80.001	20.008	100.229	20.109	14.844	0.496
1023.000	568.105	80.001	20.008	100.224	20.109	14.888	0.493
1023.500	568.369	80.001	20.007	100.231	20.108	15.070	0.495
1024.000	568.610	80.001	20.008	100.242	20.109	14.857	0.497
1024.501	568.877	80.002	20.007	100.250	20.111	14.659	0.506
1025.001	569.139	80.001	20.008	100.254	20.110	14.784	0.518
1025.500	569.348	80.001	20.008	100.250	20.111	14.620	0.500
1026.000	569.627	80.001	20.008	100.240	20.111	14.582	0.480
1026.500	569.862	80.001	20.007	100.232	20.110	14.792	0.501
1027.000	570.105	80.002	20.008	100.227	20.110	14.800	0.495
1027.500	570.342	80.001	20.007	100.230	20.108	15.002	0.479
1028.000	570.623	80.001	20.007	100.239	20.108	15.079	0.500
1028.500	570.867	80.001	20.007	100.249	20.112	14.385	0.522
1029.000	571.160	80.001	20.008	100.256	20.110	14.835	0.531
1029.500	571.366	80.002	20.007	100.259	20.109	14.887	0.518
1030.000	571.635	80.001	20.008	100.252	20.111	14.670	0.487
1030.500	571.898	80.001	20.008	100.243	20.111	14.553	0.504
1031.000	572.176	80.000	20.007	100.242	20.111	14.577	0.537
1031.500	572.426	80.002	20.007	100.243	20.112	14.508	0.534
1032.000	572.665	80.002	20.007	100.245	20.110	14.762	0.508
1032.500	572.868	80.001	20.008	100.253	20.111	14.578	0.466
1033.000	573.095	80.001	20.007	100.254	20.109	14.851	0.436
1033.501	573.366	80.002	20.008	100.248	20.113	14.336	0.463
1034.001	573.614	80.001	20.008	100.240	20.114	14.143	0.508
1034.500	573.882	80.001	20.008	100.234	20.112	14.471	0.518
1035.000	574.135	80.000	20.007	100.233	20.113	14.279	0.519
1035.500	574.350	80.001	20.007	100.240	20.114	14.185	0.494
1036.000	574.586	80.001	20.007	100.247	20.115	14.014	0.460
1036.500	574.848	80.002	20.007	100.256	20.116	13.840	0.475
1037.000	575.114	80.002	20.007	100.260	20.114	14.162	0.513
1037.500	575.342	80.001	20.007	100.253	20.114	14.078	0.511
1038.000	575.607	80.001	20.008	100.245	20.113	14.334	0.493
1038.500	575.842	80.001	20.007	100.237	20.111	14.571	0.496
1039.000	576.088	80.001	20.008	100.230	20.111	14.678	0.490
1039.500	576.364	80.001	20.007	100.232	20.111	14.678	0.502
1040.000	576.611	80.002	20.007	100.239	20.110	14.681	0.522
1040.500	576.854	80.001	20.008	100.247	20.113	14.274	0.506
1041.000	577.115	80.001	20.007	100.254	20.111	14.591	0.497
1041.500	577.389	80.001	20.007	100.255	20.111	14.625	0.519
1042.000	577.646	80.000	20.008	100.248	20.111	14.626	0.533
1042.500	577.849	80.001	20.008	100.240	20.111	14.621	0.496
1043.000	578.108	80.002	20.008	100.237	20.113	14.215	0.461
1043.500	578.375	80.001	20.007	100.237	20.110	14.735	0.494
1044.001	578.586	80.001	20.007	100.243	20.113	14.307	0.502
1044.501	578.860	80.001	20.007	100.251	20.114	14.056	0.482
1045.000	579.098	80.001	20.007	100.252	20.116	13.818	0.499
1045.501	579.355	80.002	20.008	100.248	20.112	14.369	0.504
1046.001	579.605	80.000	20.008	100.242	20.114	14.193	0.501
1046.500	579.860	80.001	20.008	100.240	20.112	14.427	0.506
1047.000	580.109	80.003	20.008	100.241	20.113	14.347	0.504
1047.500	580.365	80.002	20.007	100.247	20.114	14.179	0.504
1048.000	580.626	80.001	20.007	100.256	20.110	14.692	0.511
1048.500	580.921	80.003	20.007	100.259	20.113	14.347	0.536
1049.000	581.136	80.002	20.008	100.254	20.113	14.298	0.533
1049.500	581.414	80.001	20.008	100.245	20.111	14.573	0.502
1050.000	581.622	80.001	20.008	100.238	20.112	14.457	0.490
1050.501	581.858	80.001	20.007	100.230	20.111	14.642	0.465
1051.001	582.140	80.001	20.007	100.225	20.111	14.528	0.481
1051.500	582.386	80.002	20.008	100.224	20.112	14.467	0.523
1052.000	582.658	80.001	20.007	100.224	20.113	14.339	0.523
1052.500	582.895	80.001	20.007	100.224	20.112	14.506	0.514
1053.000	583.139	80.002	20.008	100.223	20.109	14.877	0.495
1053.500	583.375	80.002	20.008	100.223	20.110	14.711	0.480
1054.000	583.654	80.002	20.008	100.223	20.112	14.457	0.498
1054.500	583.869	80.001	20.008	100.229	20.111	14.638	0.505
1055.000	584.103	80.002	20.007	100.237	20.110	14.746	0.471
1055.501	584.426	80.001	20.008	100.246	20.109	14.911	0.503
1056.001	584.639	80.001	20.007	100.253	20.109	14.860	0.547
1056.500	584.852	80.001	20.008	100.253	20.108	15.120	0.481
1057.001	585.128	80.001	20.008	100.248	20.108	15.057	0.457
1057.501	585.379	80.001	20.008	100.240	20.107	15.159	0.508
1058.000	585.658	80.002	20.008	100.237	20.106	15.365	0.529
1058.501	585.861	80.002	20.008	100.238	20.107	15.186	0.506
1059.001	586.135	80.002	20.007	100.244	20.106	15.409	0.479
1059.501	586.388	80.001	20.007	100.244	20.111	14.678	0.502
1060.000	586.658	80.001	20.007	100.244	20.109	14.977	0.525
1060.500	586.914	80.001	20.008	100.238	20.107	15.233	0.524
1061.000	587.157	80.002	20.007	100.229	20.108	15.137	0.513
1061.500	587.377	79.999	20.008	100.222	20.110	14.791	0.481
1062.001	587.627	80.002	20.007	100.229	20.107	15.199	0.466
1062.501	587.865	80.002	20.007	100.237	20.109	14.923	0.479
1063.000	588.163	80.001	20.008	100.246	20.109	14.907	0.513
1063.501	588.393	80.001	20.007	100.252	20.107	15.213	0.532
1064.001	588.598	80.002	20.008	100.253	20.109	14.992	0.481
1064.501	588.912	80.002	20.008	100.246	20.107	15.159	0.477
1065.000	589.140	80.001	20.008	100.238	20.109	14.986	0.531
1065.501	589.347	80.003	20.007	100.236	20.109	14.963	0.489
1066.001	589.622	80.001	20.008	100.238	20.108	15.064	0.459
1066.501	589.861	80.001	20.007	100.244	20.109	14.881	0.498
1067.001	590.146	80.001	20.007	100.245	20.108	15.054	0.519
1067.500	590.376	80.003	20.008	100.246	20.111	14.542	0.520
1068.000	590.607	80.002	20.008	100.235	20.113	14.248	0.488
1068.500	590.865	80.002	20.008	100.224	20.112	14.381	0.475
1069.000	591.096	80.001	20.008	100.213	20.113	14.331	0.488
1069.500	591.341	80.002	20.008	100.213	20.112	14.441	0.482
1070.000	591.610	80.002	20.008	100.218	20.109	14.902	0.495
1070.500	591.838	80.002	20.007	100.231	20.109	14.883	0.506
1071.001	592.079	80.001	20.008	100.243	20.107	15.212	0.483
1071.501	592.331	80.001	20.007	100.252	20.107	15.268	0.481
1072.000	592.563	80.001	20.008	100.251	20.109	14.943	0.488
1072.500	592.782	80.002	20.008	100.245	20.106	15.346	0.468
1073.000	593.061	80.001	20.008	100.238	20.109	14.893	0.475
1073.501	593.275	80.002	20.008	100.232	20.108	15.081	0.495
1074.001	593.557	80.001	20.008	100.235	20.108	15.112	0.494
1074.500	593.798	80.001	20.007	100.243	20.111	14.664	0.509
1075.000	594.081	80.001	20.008	100.250	20.110	14.824	0.524
1075.500	594.309	80.000	20.007	100.257	20.107	15.297	0.518
1076.000	594.561	80.002	20.007	100.263	20.107	15.178	0.496
1076.500	594.773	80.002	20.008	100.257	20.111	14.589	0.472
1077.000	595.032	80.002	20.007	100.251	20.111	14.549	0.467
1077.501	595.305	80.001	20.008	100.254	20.109	14.883	0.501
1078.001	595.527	80.003	20.008	100.255	20.112	14.387	0.513
1078.500	595.808	80.001	20.008	100.255	20.109	14.948	0.499
1079.000	595.999	80.001	20.008	100.261	20.109	14.935	0.488
1079.500	596.273	80.002	20.007	100.265	20.109	14.951	0.469
1080.000	596.568	80.001	20.008	100.263	20.110	14.819	0.517
1080.500	596.759	80.001	20.007	100.258	20.109	14.945	0.527
1081.001	597.036	80.001	20.008	100.250	20.109	14.858	0.477
1081.501	597.267	80.002	20.008	100.250	20.108	15.102	0.488
1082.000	597.535	80.001	20.007	100.249	20.109	14.960	0.504
1082.500	597.785	80.003	20.007	100.250	20.108	15.067	0.509
1083.000	598.041	80.001	20.007	100.254	20.106	15.392	0.512
1083.501	598.306	80.001	20.008	100.257	20.109	14.978	0.514
1084.001	598.598	80.002	20.008	100.250	20.109	14.970	0.539
1084.501	598.830	80.001	20.008	100.242	20.106	15.344	0.541
1085.000	599.129	80.002	20.008	100.234	20.108	15.123	0.527
1085.500	599.305	80.001	20.008	100.229	20.109	14.980	0.503
1086.000	599.512	80.001	20.007	100.232	20.106	15.386	0.429
1086.500	599.814	80.001	20.008	100.239	20.106	15.437	0.446
1087.000	600.033	80.002	20.007	100.245	20.105	15.617	0.515
1087.500	600.279	80.002	20.008	100.246	20.106	15.337	0.493
1088.001	600.555	80.001	20.007	100.243	20.107	15.272	0.493
1088.501	600.751	80.002	20.008	100.233	20.105	15.475	0.497
1089.000	601.004	80.001	20.008	100.220	20.105	15.535	0.461
1089.500	601.283	80.002	20.008	100.213	20.106	15.413	0.491
1090.000	601.507	80.001	20.008	100.213	20.102	15.985	0.518
1090.500	601.773	80.002	20.008	100.215	20.105	15.546	0.496
1091.000	601.978	80.000	20.007	100.218	20.103	15.834	0.480
1091.500	602.245	80.002	20.008	100.225	20.104	15.753	0.472
1092.000	602.479	80.002	20.007	100.225	20.104	15.648	0.487
1092.500	602.782	80.002	20.008	100.220	20.103	15.844	0.519
1093.000	603.037	80.002	20.008	100.210	20.104	15.733	0.547
1093.501	603.278	80.003	20.008	100.204	20.102	15.961	0.527
1094.001	603.510	80.002	20.008	100.202	20.104	15.729	0.485
1094.500	603.748	80.000	20.008	100.204	20.103	15.943	0.472
1095.001	603.994	80.002	20.008	100.211	20.104	15.649	0.477
1095.501	604.238	80.001	20.007	100.219	20.102	16.048	0.487
1096.000	604.531	80.002	20.008	100.224	20.102	16.039	0.513
1096.500	604.734	80.001	20.008	100.222	20.102	16.004	0.516
1097.000	605.001	80.002	20.008	100.216	20.103	15.810	0.483
1097.500	605.271	80.001	20.008	100.214	20.103	15.807	0.503
1098.000	605.535	80.002	20.008	100.214	20.101	16.128	0.536
1098.500	605.750	80.002	20.008	100.217	20.102	15.949	0.507
1099.000	605.993	80.002	20.008	100.229	20.103	15.856	0.469
1099.501	606.266	80.003	20.007	100.236	20.103	15.819	0.487
1100.001	606.515	80.000	20.007	100.235	20.105	15.556	0.519
1100.501	606.733	80.002	20.008	100.235	20.106	15.392	0.495
1101.001	606.970	80.001	20.007	100.228	20.106	15.332	0.461
1101.500	607.242	80.002	20.008	100.221	20.104	15.780	0.482
1102.000	607.470	80.002	20.008	100.221	20.106	15.434	0.505
1102.500	607.741	80.002	20.007	100.229	20.106	15.348	0.499
1103.000	608.003	80.002	20.008	100.238	20.107	15.176	0.516
1103.500	608.267	80.001	20.007	100.248	20.108	15.122	0.529
1104.000	608.479	80.002	20.008	100.252	20.108	15.075	0.501
1104.500	608.749	80.002	20.008	100.248	20.107	15.177	0.479
1105.000	608.982	80.000	20.008	100.240	20.110	14.809	0.492
1105.500	609.196	80.002	20.008	100.234	20.107	15.180	0.475
1106.000	609.467	80.000	20.008	100.231	20.105	15.608	0.466
1106.500	609.711	80.003	20.007	100.235	20.108	15.139	0.500
1107.000	609.908	80.002	20.007	100.244	20.107	15.287	0.478
1107.500	610.197	80.001	20.007	100.248	20.105	15.494	0.464
1108.000	610.435	80.001	20.008	100.248	20.104	15.673	0.507
1108.500	610.718	80.002	20.008	100.239	20.104	15.755	0.524
1109.000	610.874	80.000	20.008	100.224	20.107	15.270	0.480
1109.500	611.126	80.001	20.008	100.211	20.106	15.436	0.424
1110.001	611.430	80.002	20.008	100.207	20.104	15.750	0.482
1110.501	611.669	80.003	20.008	100.207	20.105	15.497	0.550
1111.000	611.910	80.000	20.007	100.212	20.103	15.792	0.512
1111.500	612.142	80.002	20.007	100.220	20.104	15.691	0.476
1112.000	612.389	80.002	20.008	100.225	20.102	15.975	0.476
1112.500	612.639	80.000	20.008	100.226	20.102	15.987	0.488
1113.000	612.891	80.002	20.008	100.226	20.102	16.093	0.500
1113.500	613.143	80.003	20.008	100.225	20.100	16.295	0.503
1114.000	613.344	80.000	20.008	100.224	20.102	16.052	0.478
1114.500	613.622	80.001	20.007	100.229	20.101	16.144	0.466
1115.000	613.877	80.001	20.007	100.237	20.101	16.125	0.506
1115.500	614.147	80.002	20.007	100.245	20.102	15.991	0.529
1116.000	614.382	80.001	20.007	100.250	20.103	15.900	0.515
1116.501	614.667	80.001	20.008	100.250	20.101	16.156	0.512
1117.001	614.906	80.002	20.008	100.244	20.103	15.918	0.522
1117.500	615.126	80.002	20.008	100.237	20.103	15.911	0.491
1118.000	615.382	80.001	20.007	100.232	20.102	16.043	0.467
1118.500	615.674	80.002	20.008	100.234	20.098	16.601	0.512
1119.000	615.912	80.002	20.007	100.242	20.100	16.299	0.539
1119.500	616.149	80.001	20.008	100.251	20.102	15.955	0.502
1120.000	616.414	80.001	20.007	100.257	20.101	16.124	0.488
1120.501	616.628	80.002	20.008	100.255	20.102	16.022	0.490
1121.001	616.909	80.002	20.008	100.249	20.102	16.051	0.487
1121.500	617.142	80.001	20.007	100.239	20.103	15.935	0.505
1122.000	617.383	80.000	20.008	100.231	20.104	15.736	0.494
1122.500	617.671	80.001	20.008	100.225	20.104	15.743	0.501
1123.000	617.914	80.002	20.007	100.231	20.107	15.247	0.530
1123.501	618.165	80.002	20.008	100.237	20.105	15.487	0.513
1124.001	618.397	80.001	20.008	100.240	20.106	15.411	0.489
1124.501	618.652	80.003	20.007	100.240	20.107	15.203	0.485
1125.001	618.897	80.002	20.008	100.238	20.108	15.132	0.493
1125.500	619.116	80.002	20.008	100.231	20.107	15.222	0.482
1126.000	619.386	80.002	20.008	100.228	20.106	15.390	0.477
1126.500	619.636	80.002	20.008	100.234	20.106	15.444	0.505
1127.001	619.870	80.002	20.008	100.241	20.104	15.728	0.502
1127.501	620.101	80.000	20.007	100.249	20.104	15.631	0.474
1128.000	620.378	80.002	20.008	100.257	20.102	16.034	0.487
1128.500	620.589	80.002	20.008	100.256	20.104	15.736	0.498
1129.001	620.828	80.001	20.008	100.250	20.107	15.298	0.469
1129.501	621.141	80.001	20.008	100.243	20.105	15.590	0.501
1130.000	621.364	80.002	20.008	100.237	20.104	15.694	0.544
1130.500	621.627	80.001	20.008	100.237	20.104	15.692	0.511
1131.000	621.881	80.001	20.008	100.244	20.106	15.375	0.501
1131.500	622.143	80.003	20.008	100.252	20.103	15.849	0.516
1132.000	622.372	80.002	20.008	100.259	20.102	16.075	0.504
1132.500	622.648	80.001	20.007	100.258	20.103	15.887	0.498
1133.000	622.854	80.002	20.008	100.251	20.105	15.590	0.493
1133.500	623.164	80.001	20.008	100.242	20.105	15.604	0.499
1134.000	623.411	80.002	20.008	100.236	20.102	15.986	0.536
1134.500	623.635	80.001	20.008	100.237	20.104	15.673	0.513
1135.000	623.861	80.002	20.008	100.244	20.103	15.849	0.460
1135.500	624.150	80.001	20.008	100.251	20.103	15.808	0.482
1136.000	624.394	80.001	20.007	100.257	20.100	16.324	0.524
1136.500	624.644	80.002	20.008	100.253	20.102	16.010	0.514
1137.000	624.911	80.002	20.007	100.240	20.103	15.807	0.505
1137.500	625.171	80.002	20.008	100.231	20.101	16.249	0.522
1138.000	625.390	80.001	20.008	100.225	20.102	15.977	0.504
1138.500	625.709	80.002	20.008	100.225	20.104	15.660	0.509
1139.000	625.985	80.001	20.008	100.232	20.103	15.790	0.566
1139.500	626.274	80.000	20.007	100.239	20.100	16.290	0.580
1140.000	626.532	80.002	20.008	100.240	20.105	15.588	0.556
1140.500	626.756	80.002	20.008	100.239	20.103	15.929	0.514
1141.000	626.998	80.002	20.009	100.233	20.104	15.746	0.474
1141.500	627.271	80.003	20.009	100.226	20.100	16.347	0.490
1142.001	627.531	80.001	20.009	100.222	20.107	15.253	0.524
1142.501	627.752	80.002	20.008	100.230	20.104	15.716	0.507
1143.000	628.048	80.002	20.008	100.237	20.106	15.320	0.499
1143.501	628.268	80.002	20.008	100.243	20.102	16.017	0.516
1144.001	628.511	80.001	20.008	100.244	20.103	15.812	0.489
1144.500	628.740	80.001	20.008	100.243	20.103	15.832	0.468
1145.000	629.022	80.002	20.008	100.235	20.103	15.923	0.492
1145.500	629.279	80.001	20.008	100.228	20.105	15.536	0.525
1146.000	629.513	80.002	20.007	100.230	20.104	15.646	0.515
1146.501	629.772	80.003	20.007	100.235	20.103	15.830	0.492
1147.001	630.024	80.000	20.008	100.242	20.104	15.729	0.502
1147.500	630.305	80.002	20.007	100.247	20.104	15.712	0.522
1148.000	630.566	80.001	20.008	100.247	20.103	15.883	0.537
1148.500	630.826	80.002	20.008	100.239	20.103	15.837	0.531
1149.000	631.075	80.000	20.008	100.233	20.105	15.528	0.515
1149.500	631.310	80.002	20.008	100.230	20.103	15.795	0.496
1150.000	631.563	80.001	20.008	100.233	20.105	15.547	0.486
1150.500	631.844	80.001	20.008	100.243	20.105	15.582	0.511
1151.001	632.090	80.001	20.008	100.251	20.107	15.200	0.531
1151.501	632.309	80.001	20.007	100.254	20.107	15.186	0.496
1152.001	632.588	80.001	20.008	100.251	20.106	15.463	0.482
1152.500	632.835	80.002	20.008	100.244	20.105	15.484	0.512
1153.000	633.096	80.001	20.008	100.240	20.106	15.453	0.517
1153.501	633.371	80.001	20.008	100.240	20.105	15.558	0.522
1154.001	633.608	80.002	20.007	100.244	20.105	15.527	0.524
1154.501	633.837	80.002	20.007	100.251	20.104	15.693	0.489
1155.001	634.127	80.000	20.008	100.251	20.104	15.711	0.492
1155.500	634.369	80.002	20.007	100.244	20.107	15.309	0.525
1156.000	634.640	80.002	20.008	100.236	20.102	15.954	0.523
1156.500	634.864	80.001	20.008	100.229	20.104	15.688	0.504
1157.000	635.130	80.000	20.008	100.222	20.106	15.410	0.492
1157.500	635.385	80.002	20.007	100.223	20.106	15.458	0.506
1158.000	635.636	80.001	20.008	100.226	20.105	15.558	0.514
1158.501	635.873	80.001	20.007	100.228	20.106	15.449	0.497
1159.001	636.128	80.001	20.008	100.227	20.103	15.821	0.490
1159.500	636.410	80.002	20.008	100.227	20.106	15.423	0.515
1160.000	636.678	80.001	20.008	100.225	20.104	15.757	0.543
1160.500	636.912	80.001	20.008	100.225	20.104	15.702	0.526
1161.001	637.127	80.002	20.008	100.227	20.105	15.557	0.476
1161.501	637.434	80.000	20.008	100.234	20.106	15.377	0.485
1162.000	637.678	80.002	20.007	100.239	20.107	15.310	0.536
1162.500	637.945	80.001	20.007	100.239	20.105	15.552	0.531
1163.000	638.177	80.002	20.008	100.236	20.106	15.374	0.505
1163.501	638.437	80.002	20.008	100.225	20.104	15.704	0.496
1164.001	638.636	80.001	20.008	100.213	20.103	15.938	0.476
1164.500	638.936	80.002	20.008	100.209	20.103	15.883	0.479
1165.000	639.176	80.001	20.008	100.209	20.102	16.018	0.520
1165.500	639.429	80.001	20.008	100.217	20.100	16.299	0.516
1166.001	639.667	80.002	20.007	100.232	20.103	15.938	0.492
1166.501	639.954	80.002	20.008	100.239	20.103	15.910	0.507
1167.001	640.193	80.001	20.008	100.237	20.102	16.083	0.525
1167.501	640.463	80.002	20.007	100.231	20.102	16.055	0.518
1168.001	640.697	80.001	20.008	100.216	20.102	16.073	0.507
1168.500	640.908	80.001	20.008	100.208	20.103	15.837	0.475
1169.001	641.189	80.002	20.008	100.211	20.101	16.236	0.468
1169.501	641.431	80.002	20.008	100.220	20.102	16.103	0.507
1170.000	641.674	80.000	20.008	100.231	20.102	16.003	0.504
1170.500	641.959	80.002	20.007	100.240	20.101	16.208	0.507
1171.000	642.167	80.001	20.007	100.238	20.101	16.153	0.510
1171.500	642.425	80.002	20.008	100.226	20.104	15.762	0.480
1172.000	642.651	80.002	20.008	100.215	20.101	16.233	0.475
1172.500	642.971	80.001	20.008	100.211	20.104	15.681	0.515
1173.000	643.202	80.002	20.008	100.213	20.102	15.986	0.548
1173.500	643.471	80.002	20.007	100.221	20.103	15.849	0.525
1174.000	643.729	80.003	20.007	100.231	20.101	16.146	0.513
1174.500	643.956	80.002	20.007	100.235	20.102	16.015	0.506
1175.000	644.203	80.000	20.008	100.231	20.102	16.038	0.480
1175.500	644.441	80.003	20.008	100.223	20.104	15.748	0.480
1176.000	644.675	80.001	20.008	100.216	20.102	16.004	0.478
1176.500	644.963	80.001	20.008	100.214	20.103	15.929	0.497
1177.000	645.240	80.002	20.007	100.218	20.101	16.230	0.544
1177.500	645.458	80.001	20.007	100.229	20.103	15.866	0.530
1178.001	645.675	80.002	20.007	100.238	20.102	15.980	0.465
1178.501	645.973	80.001	20.008	100.240	20.102	16.019	0.474
1179.000	646.215	80.001	20.008	100.239	20.104	15.696	0.527
1179.501	646.433	80.001	20.008	100.230	20.105	15.607	0.500
1180.001	646.683	80.001	20.008	100.222	20.105	15.574	0.464
1180.500	646.977	80.002	20.008	100.219	20.104	15.738	0.506
1181.000	647.163	80.001	20.007	100.225	20.105	15.537	0.512
1181.500	647.405	80.002	20.007	100.233	20.105	15.502	0.454
1182.000	647.676	80.002	20.008	100.245	20.104	15.723	0.470
1182.500	647.943	80.001	20.007	100.248	20.104	15.776	0.525
1183.001	648.205	80.002	20.008	100.246	20.102	15.969	0.533
1183.501	648.484	80.002	20.008	100.235	20.104	15.736	0.535
1184.000	648.723	80.002	20.008	100.226	20.100	16.321	0.530
1184.501	648.965	80.001	20.007	100.220	20.102	16.031	0.500
1185.001	649.202	80.001	20.007	100.226	20.104	15.696	0.480
1185.500	649.452	80.002	20.007	100.236	20.105	15.595	0.482
1186.000	649.710	80.002	20.008	100.245	20.105	15.594	0.497
1186.500	649.942	80.002	20.008	100.247	20.100	16.268	0.499
1187.000	650.215	80.002	20.008	100.244	20.105	15.485	0.498
1187.500	650.463	80.001	20.008	100.237	20.104	15.690	0.513
1188.000	650.692	80.002	20.008	100.236	20.105	15.581	0.499
1188.501	650.952	80.001	20.008	100.240	20.105	15.485	0.483
1189.001	651.224	80.002	20.007	100.251	20.104	15.740	0.511
1189.500	651.459	80.002	20.007	100.261	20.106	15.429	0.520
1190.001	651.715	80.003	20.008	100.268	20.103	15.932	0.498
1190.501	651.960	80.002	20.008	100.269	20.104	15.678	0.496
1191.001	652.208	80.003	20.007	100.268	20.105	15.572	0.497
1191.500	652.440	80.001	20.008	100.265	20.105	15.516	0.487
1192.000	652.727	80.002	20.007	100.269	20.104	15.657	0.499
1192.501	652.974	80.002	20.007	100.273	20.104	15.724	0.526
1193.001	653.242	80.001	20.008	100.278	20.104	15.733	0.524
1193.501	653.486	80.001	20.007	100.279	20.103	15.926	0.514
1194.001	653.763	80.002	20.007	100.276	20.104	15.738	0.517
1194.500	653.988	80.001	20.007	100.264	20.102	15.987	0.511
1195.000	654.229	80.002	20.008	100.252	20.101	16.232	0.484
1195.500	654.482	80.001	20.008	100.246	20.103	15.812	0.480
1196.000	654.801	80.003	20.007	100.244	20.101	16.141	0.533
1196.500	655.017	80.001	20.008	100.244	20.101	16.132	0.553
1197.000	655.282	80.001	20.007	100.251	20.104	15.708	0.508
1197.500	655.507	80.003	20.007	100.254	20.105	15.605	0.486
1198.001	655.790	80.001	20.008	100.248	20.103	15.815	0.499
1198.501	656.026	80.003	20.008	100.241	20.103	15.868	0.513
1199.000	656.314	80.001	20.008	100.236	20.103	15.791	0.521
1199.500	656.555	80.004	20.008	100.235	20.106	15.458	0.527
1200.001	656.797	80.002	20.007	100.241	20.107	15.241	0.507
1200.501	657.011	80.002	20.007	100.249	20.104	15.755	0.470
1201.000	657.298	80.002	20.007	100.257	20.105	15.523	0.478
1201.500	657.588	80.001	20.008	100.262	20.104	15.642	0.539
1202.000	657.827	80.001	20.008	100.254	20.102	15.988	0.553
1202.500	658.063	80.002	20.008	100.246	20.104	15.706	0.502
1203.001	658.351	80.001	20.007	100.242	20.105	15.596	0.499
1203.501	658.622	80.003	20.007	100.242	20.106	15.360	0.541
1204.001	658.829	80.001	20.007	100.244	20.104	15.635	0.519
1204.500	659.050	80.001	20.007	100.251	20.105	15.576	0.453
1205.001	659.333	80.002	20.008	100.256	20.104	15.764	0.466
1205.501	659.589	80.001	20.007	100.254	20.102	16.070	0.521
1206.000	659.836	80.001	20.008	100.249	20.102	15.955	0.521
1206.500	660.094	80.001	20.007	100.243	20.102	16.084	0.504
1207.001	660.279	80.001	20.008	100.236	20.103	15.917	0.474
1207.501	660.600	80.002	20.007	100.232	20.105	15.548	0.475
1208.000	660.879	80.001	20.007	100.237	20.106	15.426	0.553
1208.500	661.089	80.001	20.008	100.243	20.104	15.694	0.544
1209.001	661.345	80.001	20.007	100.251	20.105	15.487	0.477
1209.501	661.564	80.002	20.007	100.258	20.105	15.589	0.471
1210.000	661.847	80.002	20.008	100.262	20.104	15.755	0.489
1210.500	662.075	80.002	20.008	100.263	20.105	15.593	0.507
1211.000	662.330	80.001	20.008	100.261	20.105	15.587	0.497
1211.501	662.571	80.003	20.008	100.259	20.104	15.734	0.489
1212.001	662.854	80.002	20.008	100.260	20.104	15.739	0.510
1212.501	663.087	80.000	20.008	100.260	20.103	15.897	0.520
1213.001	663.374	80.002	20.007	100.260	20.103	15.831	0.518
1213.500	663.585	80.002	20.007	100.259	20.101	16.204	0.509
1214.001	663.853	80.002	20.007	100.252	20.102	15.976	0.488
1214.501	664.108	80.001	20.008	100.244	20.101	16.142	0.501
1215.000	664.387	80.002	20.008	100.236	20.102	16.101	0.529
1215.500	664.634	80.002	20.008	100.228	20.100	16.402	0.530
1216.000	664.897	80.002	20.008	100.227	20.102	16.006	0.518
1216.501	665.163	80.002	20.007	100.236	20.102	16.051	0.520
1217.001	665.325	80.001	20.007	100.243	20.103	15.888	0.478
1217.500	665.632	80.002	20.007	100.251	20.102	15.981	0.448
1218.000	665.831	80.002	20.007	100.253	20.100	16.343	0.487
1218.501	666.116	80.001	20.008	100.248	20.102	15.982	0.495
1219.001	666.392	80.002	20.008	100.240	20.101	16.174	0.522
1219.501	666.647	80.003	20.008	100.234	20.101	16.148	0.546
1220.000	666.959	80.001	20.008	100.233	20.101	16.162	0.550
1220.500	667.161	80.003	20.008	100.241	20.100	16.327	0.541
1221.000	667.373	80.002	20.008	100.249	20.098	16.649	0.464
1221.501	667.606	80.002	20.007	100.256	20.101	16.211	0.430
1222.001	667.844	80.000	20.008	100.255	20.100	16.343	0.458
1222.500	668.124	80.003	20.008	100.247	20.099	16.575	0.495
1223.000	668.391	80.002	20.008	100.238	20.099	16.433	0.533
1223.500	668.624	80.000	20.008	100.231	20.101	16.225	0.523
1224.000	668.885	80.002	20.007	100.230	20.100	16.386	0.497
1224.501	669.182	80.004	20.008	100.237	20.101	16.171	0.526
1225.001	669.425	80.000	20.008	100.245	20.099	16.520	0.549
1225.501	669.645	80.004	20.007	100.254	20.101	16.250	0.501
1226.000	669.953	80.001	20.008	100.259	20.099	16.540	0.496
1226.500	670.191	80.003	20.008	100.253	20.098	16.617	0.538
1227.000	670.407	80.002	20.007	100.245	20.101	16.161	0.500
1227.500	670.674	80.001	20.008	100.237	20.102	15.977	0.469
1228.000	670.888	80.002	20.008	100.235	20.100	16.295	0.482
1228.501	671.173	80.001	20.007	100.236	20.102	16.045	0.490
1229.001	671.412	80.001	20.008	100.244	20.103	15.860	0.512
1229.501	671.652	80.003	20.007	100.253	20.101	16.217	0.501
1230.001	671.927	80.001	20.007	100.258	20.102	16.093	0.497
1230.501	672.151	80.002	20.008	100.253	20.101	16.172	0.507
1231.001	672.380	80.002	20.008	100.246	20.102	16.051	0.476
1231.500	672.670	80.002	20.008	100.238	20.101	16.130	0.486
1232.000	672.913	80.002	20.008	100.231	20.103	15.924	0.526
1232.500	673.149	80.001	20.008	100.233	20.102	15.965	0.506
1233.000	673.446	80.002	20.008	100.240	20.100	16.356	0.506
1233.501	673.638	80.001	20.007	100.247	20.099	16.457	0.511
1234.001	673.888	80.001	20.007	100.255	20.100	16.272	0.466
1234.500	674.140	80.002	20.007	100.254	20.101	16.180	0.473
1235.001	674.357	80.003	20.007	100.244	20.100	16.371	0.486
1235.501	674.653	80.001	20.008	100.232	20.097	16.781	0.491
1236.001	674.907	80.001	20.008	100.225	20.097	16.871	0.531
1236.501	675.159	80.001	20.008	100.218	20.098	16.660	0.528
1237.000	675.392	80.001	20.007	100.220	20.097	16.879	0.496
1237.500	675.651	80.001	20.008	100.232	20.098	16.664	0.489
1238.000	675.901	80.001	20.007	100.242	20.098	16.723	0.500
1238.500	676.113	80.001	20.007	100.245	20.101	16.226	0.485
1239.001	676.353	80.002	20.007	100.245	20.102	16.053	0.457
1239.501	676.636	80.000	20.008	100.243	20.101	16.183	0.488
1240.000	676.917	80.002	20.008	100.235	20.099	16.535	0.543
1240.501	677.149	80.001	20.008	100.230	20.099	16.433	0.538
1241.001	677.403	80.002	20.007	100.234	20.100	16.365	0.500
1241.501	677.658	80.002	20.007	100.241	20.098	16.700	0.498
1242.001	677.948	80.001	20.007	100.249	20.098	16.698	0.527
1242.501	678.173	80.001	20.007	100.250	20.099	16.571	0.530
1243.000	678.425	80.001	20.007	100.248	20.097	16.765	0.496
1243.501	678.640	80.000	20.007	100.241	20.098	16.676	0.472
1244.001	678.905	80.001	20.008	100.234	20.100	16.350	0.473
1244.501	679.183	80.001	20.008	100.227	20.099	16.496	0.511
1245.000	679.435	80.002	20.008	100.233	20.099	16.519	0.537
1245.501	679.709	80.000	20.007	100.241	20.098	16.666	0.529
1246.001	679.945	80.001	20.007	100.244	20.096	17.031	0.518
1246.500	680.203	80.002	20.007	100.244	20.097	16.880	0.502
1247.000	680.425	80.002	20.007	100.239	20.099	16.456	0.486
1247.500	680.660	80.000	20.008	100.225	20.098	16.721	0.469
1248.000	680.937	80.000	20.008	100.212	20.097	16.870	0.485
1248.500	681.148	80.002	20.007	100.208	20.096	16.940	0.500
1249.000	681.385	80.002	20.007	100.210	20.099	16.493	0.467
1249.501	681.630	80.001	20.007	100.222	20.097	16.791	0.465
1250.001	681.892	80.001	20.007	100.236	20.100	16.321	0.495
1250.500	682.102	80.000	20.007	100.249	20.097	16.743	0.490
1251.000	682.387	80.003	20.008	100.258	20.100	16.303	0.483
1251.500	682.621	80.001	20.007	100.265	20.101	16.152	0.507
1252.000	682.867	80.002	20.008	100.266	20.105	15.543	0.500
1252.501	683.121	80.002	20.007	100.266	20.101	16.180	0.490
1253.001	683.328	80.000	20.008	100.274	20.102	16.010	0.480
1253.501	683.588	80.002	20.007	100.284	20.100	16.307	0.464
1254.001	683.839	80.003	20.007	100.296	20.102	15.970	0.489
1254.500	684.095	80.001	20.007	100.305	20.103	15.867	0.509
1255.000	684.388	80.001	20.007	100.312	20.102	16.004	0.528
1255.500	684.575	80.000	20.007	100.308	20.104	15.766	0.514
1256.000	684.800	80.002	20.008	100.294	20.103	15.865	0.446
1256.500	685.051	80.003	20.008	100.279	20.102	16.078	0.445
1257.000	685.254	80.000	20.008	100.267	20.098	16.579	0.465
1257.500	685.517	80.001	20.008	100.260	20.099	16.451	0.460
1258.001	685.764	80.002	20.007	100.257	20.104	15.732	0.488
1258.501	686.040	80.000	20.007	100.260	20.102	16.085	0.517
1259.001	686.262	80.001	20.007	100.263	20.101	16.266	0.510
1259.501	686.512	80.000	20.007	100.262	20.097	16.829	0.485
1260.001	686.745	80.002	20.007	100.258	20.099	16.581	0.478
1260.500	686.937	80.001	20.007	100.251	20.096	16.987	0.454
1261.000	687.204	80.001	20.008	100.244	20.098	16.612	0.442
1261.500	687.462	80.001	20.008	100.243	20.098	16.602	0.492
1262.000	687.692	80.001	20.007	100.244	20.100	16.335	0.506
1262.500	687.952	80.001	20.008	100.247	20.099	16.425	0.489
1263.000	688.181	80.001	20.007	100.254	20.101	16.260	0.489
1263.500	688.466	80.000	20.007	100.261	20.098	16.636	0.501
1264.000	688.638	80.002	20.008	100.262	20.098	16.592	0.486
1264.500	688.914	80.002	20.007	100.258	20.096	16.941	0.453
1265.000	689.181	80.001	20.007	100.252	20.099	16.554	0.495
1265.500	689.364	80.002	20.008	100.246	20.099	16.532	0.496
1266.001	689.661	80.002	20.007	100.246	20.095	17.057	0.465
1266.501	689.868	80.001	20.007	100.246	20.096	16.925	0.492
1267.000	690.088	80.002	20.007	100.249	20.100	16.325	0.466
1267.500	690.415	80.000	20.008	100.254	20.097	16.845	0.487
1268.000	690.679	80.002	20.007	100.255	20.100	16.286	0.569
1268.501	690.838	80.001	20.007	100.248	20.100	16.305	0.507
1269.001	691.084	80.001	20.008	100.240	20.101	16.104	0.414
1269.500	691.331	80.002	20.008	100.238	20.098	16.688	0.449
1270.000	691.559	80.001	20.007	100.240	20.103	15.921	0.484
1270.501	691.817	80.001	20.008	100.250	20.103	15.886	0.480
1271.001	692.065	80.001	20.007	100.264	20.102	16.064	0.496
1271.501	692.354	80.000	20.007	100.277	20.100	16.392	0.521
1272.001	692.650	80.001	20.008	100.281	20.102	16.018	0.561
1272.500	692.863	80.002	20.007	100.277	20.100	16.307	0.547
1273.000	693.107	80.001	20.008	100.269	20.103	15.883	0.484
1273.500	693.345	80.001	20.007	100.261	20.101	16.143	0.470
1274.000	693.607	80.001	20.007	100.255	20.100	16.300	0.491
1274.500	693.804	80.001	20.007	100.254	20.099	16.575	0.479
1275.000	694.085	80.001	20.007	100.256	20.097	16.776	0.468
1275.500	694.316	80.001	20.007	100.255	20.101	16.175	0.495
1276.000	694.548	80.000	20.007	100.248	20.101	16.221	0.488
1276.500	694.747	80.000	20.008	100.242	20.101	16.241	0.446
1277.001	695.072	80.001	20.008	100.234	20.101	16.119	0.477
1277.501	695.285	80.002	20.007	100.227	20.100	16.269	0.531
1278.001	695.577	80.002	20.007	100.229	20.098	16.597	0.521
1278.501	695.853	80.000	20.007	100.237	20.100	16.394	0.537
1279.000	696.054	80.002	20.007	100.244	20.097	16.776	0.523
1279.500	696.345	80.002	20.008	100.251	20.098	16.719	0.484
1280.000	696.613	80.002	20.007	100.256	20.096	16.901	0.525
1280.501	696.786	80.002	20.007	100.250	20.099	16.489	0.500
1281.001	697.072	80.002	20.008	100.243	20.099	16.462	0.450
1281.500	697.308	80.002	20.007	100.235	20.100	16.268	0.491
1282.001	697.538	80.001	20.008	100.228	20.099	16.453	0.495
1282.501	697.806	80.001	20.008	100.229	20.099	16.511	0.482
1283.001	698.085	80.003	20.007	100.236	20.097	16.742	0.522
1283.501	698.315	80.001	20.007	100.244	20.098	16.697	0.528
1284.000	698.591	80.001	20.008	100.252	20.101	16.202	0.508
1284.500	698.833	80.001	20.008	100.259	20.098	16.675	0.512
1285.000	699.124	80.002	20.008	100.257	20.096	17.011	0.525
1285.500	699.414	80.002	20.008	100.250	20.100	16.350	0.557
1286.000	699.634	80.001	20.008	100.246	20.097	16.788	0.546
1286.501	699.857	80.001	20.007	100.245	20.096	16.932	0.476
1287.001	700.164	80.002	20.007	100.246	20.098	16.729	0.486
1287.500	700.339	80.002	20.007	100.252	20.099	16.503	0.506
1288.000	700.608	80.002	20.007	100.259	20.099	16.538	0.463
1288.501	700.894	80.002	20.008	100.260	20.100	16.327	0.499
1289.001	701.140	80.001	20.008	100.254	20.098	16.659	0.544
1289.501	701.380	80.002	20.008	100.251	20.099	16.491	0.509
1290.001	701.605	80.002	20.008	100.243	20.097	16.842	0.476
1290.501	701.907	80.001	20.007	100.243	20.098	16.623	0.496
1291.000	702.165	80.001	20.008	100.246	20.098	16.655	0.543
1291.501	702.346	80.002	20.007	100.252	20.098	16.653	0.499
1292.001	702.642	80.000	20.007	100.255	20.098	16.677	0.457
1292.500	702.894	80.001	20.007	100.255	20.098	16.593	0.512
1293.000	703.139	80.000	20.008	100.248	20.099	16.428	0.522
1293.500	703.385	80.002	20.007	100.241	20.095	17.123	0.494
1294.000	703.660	80.002	20.008	100.234	20.094	17.246	0.506
1294.501	703.899	80.001	20.008	100.234	20.097	16.735	0.518
1295.001	704.141	80.002	20.007	100.242	20.096	17.037	0.498
1295.501	704.430	80.002	20.007	100.249	20.097	16.821	0.505
1296.000	704.647	80.001	20.007	100.257	20.098	16.612	0.518
1296.500	704.883	80.003	20.007	100.263	20.097	16.827	0.480
1297.000	705.178	80.001	20.007	100.260	20.095	17.074	0.493
1297.500	705.465	80.001	20.008	100.252	20.097	16.789	0.556
1298.000	705.669	80.001	20.008	100.248	20.097	16.822	0.536
1298.500	705.904	80.001	20.007	100.248	20.097	16.892	0.465
1299.001	706.156	80.002	20.008	100.248	20.098	16.585	0.464
1299.501	706.424	80.003	20.007	100.250	20.098	16.692	0.504
1300.001	706.653	80.001	20.007	100.258	20.097	16.816	0.508
1300.501	706.933	80.003	20.007	100.260	20.098	16.662	0.503
1301.000	707.138	80.002	20.007	100.253	20.096	16.911	0.497
1301.500	707.440	80.001	20.008	100.246	20.097	16.790	0.496
1302.001	707.677	80.003	20.007	100.239	20.098	16.690	0.523
1302.501	707.957	80.001	20.007	100.232	20.097	16.804	0.528
1303.000	708.189	80.001	20.008	100.232	20.097	16.876	0.514
1303.501	708.498	80.001	20.007	100.239	20.094	17.218	0.526
1304.001	708.711	80.003	20.007	100.252	20.095	17.095	0.532
1304.500	708.993	80.002	20.008	100.261	20.095	17.198	0.509
1305.000	709.244	80.002	20.007	100.268	20.095	17.133	0.515
1305.500	709.515	80.003	20.008	100.262	20.096	16.922	0.527
1306.000	709.737	80.003	20.008	100.254	20.095	17.092	0.507
1306.500	710.019	80.002	20.009	100.239	20.097	16.842	0.498
1307.000	710.267	80.002	20.008	100.234	20.094	17.265	0.517
1307.500	710.525	80.001	20.007	100.234	20.096	17.017	0.518
1308.000	710.786	80.003	20.008	100.241	20.096	16.907	0.512
1308.501	711.082	80.001	20.007	100.248	20.095	17.087	0.538
1309.001	711.308	80.001	20.008	100.257	20.098	16.728	0.540
1309.500	711.523	80.000	20.007	100.261	20.097	16.802	0.482
1310.001	711.776	80.001	20.007	100.262	20.097	16.830	0.454
1310.501	712.112	80.001	20.008	100.256	20.095	17.056	0.529
1311.001	712.324	80.001	20.008	100.255	20.094	17.220	0.569
1311.500	712.591	80.003	20.008	100.255	20.095	17.192	0.514
1312.001	712.919	80.002	20.008	100.255	20.093	17.514	0.537
1312.501	713.148	80.002	20.007	100.256	20.092	17.615	0.576
1313.000	713.402	80.002	20.008	100.260	20.095	17.163	0.520
1313.500	713.651	80.001	20.008	100.255	20.096	16.966	0.493
1314.000	713.892	80.001	20.008	100.248	20.095	17.149	0.497
1314.500	714.149	80.003	20.008	100.244	20.094	17.226	0.494
1315.000	714.464	80.001	20.008	100.244	20.096	16.919	0.535
1315.500	714.712	80.001	20.007	100.247	20.097	16.873	0.568
1316.000	714.991	80.002	20.008	100.257	20.096	16.910	0.545
1316.500	715.208	80.001	20.007	100.264	20.096	16.907	0.511
1317.000	715.499	80.002	20.007	100.268	20.093	17.390	0.502
1317.501	715.727	80.002	20.008	100.266	20.094	17.308	0.513
1318.001	716.013	80.002	20.008	100.257	20.095	17.077	0.517
1318.501	716.228	80.003	20.008	100.250	20.095	17.117	0.507
1319.001	716.465	80.000	20.008	100.250	20.097	16.861	0.476
1319.501	716.728	80.000	20.008	100.256	20.093	17.526	0.476
1320.000	716.923	80.003	20.008	100.265	20.095	17.120	0.479
1320.500	717.224	80.001	20.008	100.280	20.095	17.168	0.478
1321.001	717.487	80.002	20.007	100.285	20.096	17.026	0.530
1321.501	717.728	80.000	20.008	100.283	20.092	17.546	0.534
1322.001	717.991	80.003	20.007	100.269	20.098	16.724	0.504
1322.501	718.233	80.002	20.008	100.254	20.098	16.673	0.504
1323.001	718.466	80.001	20.008	100.240	20.094	17.270	0.490
1323.501	718.744	80.001	20.007	100.237	20.095	17.111	0.493
1324.000	719.004	80.002	20.008	100.241	20.096	16.969	0.524
1324.500	719.316	80.002	20.007	100.250	20.097	16.813	0.554
1325.000	719.545	80.002	20.007	100.258	20.094	17.270	0.557
1325.500	719.772	80.001	20.008	100.263	20.095	17.105	0.499
1326.001	720.055	80.003	20.008	100.258	20.093	17.384	0.483
1326.501	720.284	80.000	20.007	100.254	20.093	17.409	0.511
1327.001	720.553	80.002	20.007	100.254	20.096	17.049	0.505
1327.500	720.784	80.001	20.008	100.253	20.091	17.741	0.499
1328.000	721.015	80.002	20.007	100.255	20.093	17.495	0.481
1328.500	721.264	80.001	20.007	100.261	20.091	17.707	0.471
1329.001	721.516	80.000	20.007	100.262	20.093	17.500	0.491
1329.501	721.745	80.002	20.007	100.261	20.093	17.392	0.491
1330.000	722.059	80.002	20.008	100.254	20.092	17.580	0.512
1330.501	722.306	80.001	20.008	100.246	20.094	17.245	0.552
1331.001	722.542	80.001	20.007	100.243	20.092	17.644	0.521
1331.501	722.820	80.002	20.007	100.243	20.093	17.508	0.498
1332.000	723.050	80.001	20.007	100.245	20.095	17.153	0.511
1332.500	723.343	80.002	20.007	100.252	20.095	17.201	0.516
1333.000	723.577	80.001	20.007	100.261	20.093	17.516	0.526
1333.501	723.874	80.002	20.007	100.264	20.094	17.345	0.529
1334.001	724.098	80.002	20.008	100.258	20.094	17.291	0.525
1334.501	724.364	80.002	20.007	100.251	20.094	17.287	0.505
1335.001	724.616	80.002	20.008	100.245	20.098	16.689	0.504
1335.501	724.902	80.003	20.008	100.238	20.092	17.531	0.528
1336.001	725.146	80.000	20.008	100.238	20.097	16.852	0.534
1336.501	725.378	80.002	20.007	100.245	20.096	17.017	0.503
1337.000	725.638	80.001	20.007	100.252	20.096	17.054	0.484
1337.500	725.923	80.001	20.008	100.259	20.095	17.131	0.519
1338.000	726.210	80.001	20.007	100.258	20.094	17.267	0.558
1338.500	726.455	80.003	20.008	100.251	20.096	17.000	0.552
1339.001	726.698	80.000	20.008	100.241	20.098	16.700	0.510
1339.501	726.929	80.001	20.007	100.234	20.095	17.171	0.481
1340.000	727.251	80.002	20.007	100.233	20.093	17.492	0.513
1340.500	727.477	80.002	20.007	100.240	20.095	17.205	0.551
1341.000	727.729	80.001	20.007	100.246	20.094	17.325	0.513
1341.500	727.996	80.001	20.007	100.255	20.096	17.041	0.499
1342.000	728.224	80.001	20.007	100.255	20.090	17.864	0.507
1342.500	728.452	80.002	20.007	100.247	20.092	17.578	0.475
1343.000	728.739	80.000	20.008	100.238	20.091	17.818	0.485
1343.500	728.956	80.001	20.008	100.230	20.091	17.688	0.510
1344.001	729.244	80.002	20.007	100.222	20.090	17.982	0.504
1344.501	729.480	80.001	20.008	100.226	20.090	17.996	0.515
1345.001	729.702	80.002	20.007	100.235	20.089	18.011	0.491
1345.501	729.997	80.001	20.007	100.242	20.087	18.395	0.487
1346.000	730.288	80.002	20.007	100.250	20.089	18.033	0.551
1346.500	730.500	80.002	20.007	100.250	20.090	17.908	0.544
1347.000	730.772	80.000	20.008	100.244	20.090	17.903	0.494
1347.501	731.052	80.002	20.008	100.239	20.089	18.113	0.518
1348.001	731.267	80.001	20.008	100.239	20.090	17.915	0.524
1348.501	731.549	80.002	20.008	100.244	20.089	18.133	0.496
1349.001	731.748	80.001	20.007	100.252	20.090	17.848	0.489
1349.501	732.080	80.003	20.007	100.260	20.090	17.889	0.506
1350.000	732.312	80.001	20.007	100.265	20.091	17.836	0.547
1350.500	732.535	80.002	20.007	100.265	20.088	18.209	0.509
1351.000	732.782	80.002	20.008	100.261	20.092	17.660	0.462
1351.501	733.069	79.999	20.008	100.260	20.093	17.523	0.502
1352.001	733.347	80.003	20.008	100.261	20.092	17.617	0.550
1352.500	733.588	80.001	20.008	100.262	20.090	17.851	0.542
1353.000	733.837	80.001	20.007	100.265	20.092	17.566	0.504
1353.500	734.065	80.002	20.007	100.267	20.093	17.443	0.483
1354.000	734.317	80.001	20.007	100.267	20.093	17.433	0.479
1354.500	734.578	80.002	20.007	100.263	20.092	17.679	0.496
1355.000	734.843	80.002	20.008	100.256	20.091	17.714	0.520
1355.500	735.101	80.002	20.007	100.246	20.092	17.608	0.525
1356.000	735.359	80.001	20.008	100.240	20.093	17.444	0.519
1356.500	735.570	80.002	20.008	100.240	20.091	17.808	0.493
1357.000	735.792	80.001	20.007	100.244	20.093	17.428	0.451
1357.500	736.122	80.003	20.007	100.250	20.091	17.837	0.492
1358.000	736.323	80.001	20.007	100.257	20.093	17.462	0.542
1358.500	736.561	80.001	20.007	100.255	20.096	16.988	0.485
1359.000	736.780	80.002	20.008	100.249	20.093	17.402	0.448
1359.500	737.057	80.001	20.008	100.241	20.093	17.485	0.476
1360.000	737.293	80.002	20.008	100.234	20.093	17.451	0.505
1360.500	737.519	80.000	20.007	100.233	20.094	17.216	0.488
1361.000	737.774	80.002	20.007	100.241	20.089	18.035	0.471
1361.500	738.047	80.001	20.007	100.250	20.092	17.629	0.504
1362.000	738.229	80.002	20.007	100.258	20.094	17.323	0.492
1362.500	738.530	80.001	20.008	100.265	20.093	17.403	0.470
1363.000	738.780	80.001	20.008	100.266	20.090	17.957	0.517
1363.500	738.982	80.002	20.007	100.260	20.093	17.414	0.501
1364.000	739.276	80.001	20.008	100.253	20.092	17.649	0.474
1364.500	739.497	80.003	20.008	100.252	20.091	17.794	0.506
1365.000	739.757	80.001	20.007	100.254	20.093	17.407	0.498
1365.500	740.046	80.002	20.008	100.257	20.092	17.595	0.515
1366.000	740.248	80.001	20.007	100.270	20.091	17.743	0.520
1366.500	740.478	80.000	20.007	100.276	20.092	17.651	0.461
1367.000	740.730	80.002	20.007	100.276	20.092	17.621	0.457
1367.500	741.054	80.001	20.008	100.268	20.090	17.962	0.529
1368.000	741.293	80.001	20.007	100.258	20.093	17.496	0.570
1368.500	741.515	80.002	20.008	100.243	20.092	17.625	0.512
1369.000	741.793	80.002	20.008	100.239	20.088	18.257	0.480
1369.500	742.036	80.002	20.007	100.241	20.090	17.968	0.511
1370.000	742.308	80.002	20.008	100.247	20.087	18.477	0.518
1370.500	742.481	80.002	20.007	100.257	20.087	18.475	0.480
