Sample Weight (mg):	2
Heating Rate (C/s):	0.5
Combustor Temp (C):	900
N2 Flow Rate (cc/min):	80
O2 Flow Rate (cc/min):	20
Time (s)	Temperature (C)	N2 flow rate (cc/min)	O2 flow rate (cc/min)	Flow Rate (cc/min)	Oxygen (%)	HRR (W/g)	Heating rate (C/s)
0.000	90.134	79.997	20.008	99.689	20.169	0.799	-0.126
0.500	90.125	79.997	20.008	99.696	20.169	0.925	-0.076
1.000	90.043	79.997	20.007	99.705	20.170	0.737	-0.064
1.500	89.905	79.998	20.008	99.711	20.165	1.417	-0.155
2.000	89.950	79.997	20.008	99.710	20.169	0.862	-0.156
2.500	89.902	79.996	20.008	99.710	20.169	0.915	-0.048
3.000	89.835	79.996	20.007	99.714	20.163	1.860	-0.059
3.500	89.806	79.997	20.008	99.714	20.164	1.556	-0.106
4.000	89.743	80.002	20.013	99.715	20.162	1.966	-0.094
4.500	89.715	80.000	20.014	99.716	20.158	2.587	-0.091
5.000	89.657	80.000	20.008	99.721	20.154	3.199	-0.088
5.501	89.553	80.001	20.009	99.724	20.148	4.068	-0.124
6.000	89.486	80.001	20.009	99.737	20.147	4.230	-0.166
6.500	89.458	80.000	20.008	99.764	20.143	4.911	-0.133
7.000	89.358	80.000	20.009	99.810	20.137	5.925	-0.112
7.500	89.305	80.000	20.008	99.865	20.130	6.906	-0.141
8.000	89.283	80.001	20.009	99.930	20.126	7.493	-0.114
8.501	89.200	80.001	20.008	99.996	20.121	8.309	-0.090
9.001	89.191	80.002	20.009	100.049	20.121	8.391	-0.099
9.500	89.088	80.000	20.009	100.087	20.115	9.329	-0.102
10.000	89.040	80.000	20.009	100.113	20.113	9.680	-0.132
10.500	88.972	80.000	20.009	100.134	20.106	10.677	-0.133
11.000	88.897	80.001	20.009	100.154	20.108	10.402	-0.130
11.500	88.911	79.999	20.008	100.175	20.106	10.662	-0.102
12.000	88.848	80.001	20.009	100.192	20.106	10.770	-0.054
12.501	88.771	80.002	20.009	100.201	20.101	11.480	-0.094
13.001	88.722	80.000	20.009	100.205	20.100	11.708	-0.133
13.500	88.661	79.999	20.009	100.206	20.103	11.143	-0.118
14.000	88.689	80.000	20.008	100.204	20.095	12.484	-0.072
14.500	88.585	80.001	20.008	100.205	20.095	12.427	-0.055
15.000	88.543	80.000	20.008	100.211	20.092	12.921	-0.111
15.500	88.542	80.001	20.008	100.218	20.092	12.884	-0.095
16.000	88.447	80.000	20.009	100.219	20.091	13.036	-0.070
16.500	88.436	80.000	20.009	100.221	20.093	12.697	-0.101
17.000	88.376	80.000	20.009	100.221	20.092	12.839	-0.088
17.500	88.327	80.001	20.008	100.225	20.089	13.318	-0.090
18.000	88.321	80.000	20.009	100.233	20.088	13.437	-0.082
18.500	88.258	80.000	20.008	100.240	20.093	12.719	-0.063
19.000	88.288	80.000	20.008	100.249	20.091	12.977	-0.051
19.500	88.232	80.001	20.008	100.252	20.090	13.139	-0.029
20.000	88.259	79.999	20.009	100.247	20.093	12.691	-0.027
20.500	88.175	80.000	20.008	100.233	20.091	13.111	-0.043
21.001	88.108	80.000	20.009	100.222	20.092	12.856	-0.104
21.500	88.153	80.000	20.008	100.212	20.090	13.229	-0.086
22.000	88.114	80.001	20.008	100.210	20.090	13.215	-0.008
22.500	88.066	80.000	20.008	100.212	20.091	13.097	-0.041
23.000	88.024	80.001	20.009	100.214	20.088	13.497	-0.088
23.500	88.002	80.001	20.008	100.210	20.090	13.201	-0.076
24.000	87.952	79.999	20.008	100.201	20.092	12.869	-0.068
24.500	87.959	80.001	20.009	100.193	20.093	12.748	-0.058
25.000	87.957	80.000	20.008	100.185	20.092	12.920	-0.019
25.500	87.922	80.000	20.008	100.184	20.093	12.702	-0.016
26.001	87.840	80.000	20.009	100.185	20.091	12.995	-0.077
26.500	87.827	80.001	20.008	100.186	20.090	13.165	-0.106
27.000	87.863	80.000	20.009	100.181	20.091	13.028	-0.036
27.500	87.902	80.000	20.009	100.173	20.091	13.044	0.049
28.000	87.807	80.000	20.009	100.164	20.091	13.119	0.010
28.500	87.780	80.001	20.008	100.161	20.091	13.029	-0.088
29.000	87.698	79.999	20.008	100.162	20.093	12.760	-0.116
29.500	87.824	80.000	20.008	100.166	20.091	13.057	-0.033
30.000	87.767	80.000	20.009	100.173	20.091	13.107	0.056
30.500	87.811	80.001	20.009	100.174	20.088	13.550	0.028
31.000	87.773	80.000	20.008	100.170	20.090	13.237	-0.004
31.500	87.689	80.001	20.009	100.164	20.091	13.111	-0.058
32.000	87.712	80.000	20.008	100.164	20.090	13.170	-0.091
32.500	87.712	80.000	20.009	100.166	20.091	13.011	-0.019
33.001	87.695	80.000	20.008	100.172	20.087	13.693	0.003
33.501	87.725	80.000	20.009	100.177	20.087	13.625	-0.002
34.001	87.707	80.000	20.009	100.173	20.088	13.444	0.013
34.501	87.664	80.000	20.009	100.170	20.085	13.958	-0.024
35.001	87.768	80.000	20.008	100.168	20.082	14.533	-0.001
35.501	87.762	79.999	20.009	100.171	20.085	14.055	0.080
36.000	87.687	80.000	20.008	100.179	20.081	14.559	0.009
36.500	87.655	80.000	20.009	100.189	20.082	14.501	-0.094
37.000	87.695	80.000	20.009	100.198	20.084	14.085	-0.050
37.500	87.705	80.000	20.009	100.205	20.084	14.219	0.029
38.000	87.698	80.003	20.008	100.210	20.082	14.516	0.027
38.500	87.723	80.000	20.009	100.213	20.082	14.439	0.011
39.000	87.714	80.001	20.009	100.227	20.078	15.140	0.017
39.500	87.741	79.999	20.009	100.239	20.079	14.936	0.017
40.000	87.723	79.999	20.008	100.249	20.078	15.156	0.014
40.500	87.784	80.001	20.009	100.246	20.079	14.888	0.026
41.000	87.770	80.000	20.009	100.243	20.078	15.130	0.045
41.500	87.781	80.000	20.009	100.231	20.078	15.149	0.022
42.000	87.764	80.000	20.008	100.224	20.078	15.122	-0.005
42.501	87.741	80.001	20.008	100.220	20.079	14.897	-0.023
43.001	87.769	80.000	20.008	100.225	20.077	15.242	-0.018
43.501	87.816	80.001	20.008	100.227	20.077	15.227	0.040
44.001	87.806	80.000	20.008	100.231	20.074	15.661	0.056
44.501	87.834	80.001	20.009	100.226	20.074	15.708	0.028
45.001	87.811	80.000	20.009	100.222	20.072	16.049	0.012
45.500	87.815	80.001	20.009	100.225	20.071	16.183	-0.007
46.000	87.871	80.002	20.008	100.232	20.075	15.509	0.021
46.500	87.882	80.000	20.008	100.240	20.071	16.162	0.063
47.000	87.903	80.000	20.009	100.251	20.070	16.326	0.049
47.500	87.951	80.001	20.009	100.261	20.066	16.912	0.051
48.001	87.966	80.000	20.009	100.262	20.067	16.805	0.066
48.501	87.955	80.002	20.009	100.272	20.066	16.992	0.033
49.000	88.019	79.999	20.008	100.284	20.070	16.388	0.029
49.501	88.054	80.000	20.008	100.292	20.064	17.214	0.076
50.001	88.110	80.001	20.009	100.298	20.064	17.323	0.095
50.501	88.128	80.000	20.008	100.306	20.061	17.776	0.082
51.000	88.225	80.001	20.009	100.304	20.062	17.577	0.094
51.500	88.136	80.000	20.008	100.300	20.062	17.599	0.061
52.001	88.170	80.001	20.009	100.300	20.058	18.283	-0.023
52.501	88.245	80.000	20.008	100.306	20.059	18.015	0.027
53.000	88.379	80.000	20.008	100.313	20.058	18.237	0.159
53.500	88.400	80.000	20.008	100.316	20.059	18.036	0.182
54.000	88.405	80.001	20.010	100.315	20.057	18.307	0.091
54.500	88.441	80.001	20.009	100.313	20.058	18.235	0.034
55.001	88.488	79.999	20.009	100.309	20.057	18.407	0.062
55.501	88.598	80.001	20.009	100.310	20.055	18.623	0.120
56.001	88.592	79.999	20.009	100.316	20.058	18.246	0.130
56.500	88.676	80.001	20.008	100.325	20.055	18.641	0.091
57.000	88.742	80.000	20.009	100.332	20.055	18.672	0.114
57.500	88.803	80.000	20.009	100.337	20.052	19.106	0.138
58.000	88.830	80.001	20.009	100.337	20.059	18.133	0.108
58.501	88.950	80.000	20.008	100.345	20.058	18.270	0.117
59.001	88.976	80.000	20.009	100.352	20.057	18.424	0.146
59.500	89.089	80.001	20.009	100.362	20.056	18.535	0.142
60.000	89.140	79.999	20.009	100.370	20.056	18.582	0.151
60.500	89.201	80.001	20.008	100.374	20.057	18.341	0.138
61.000	89.236	80.000	20.010	100.366	20.060	17.978	0.104
61.500	89.316	80.001	20.008	100.358	20.058	18.289	0.106
62.000	89.438	80.000	20.009	100.349	20.056	18.506	0.159
62.500	89.536	80.000	20.009	100.341	20.056	18.535	0.211
63.000	89.538	80.001	20.009	100.337	20.055	18.631	0.160
63.501	89.664	79.999	20.008	100.337	20.058	18.268	0.114
64.001	89.704	80.001	20.009	100.333	20.057	18.399	0.147
64.500	89.891	80.000	20.010	100.328	20.058	18.215	0.196
65.000	89.974	80.001	20.009	100.325	20.058	18.278	0.249
65.501	90.039	80.000	20.009	100.326	20.057	18.425	0.209
66.001	90.112	80.001	20.008	100.328	20.055	18.736	0.143
66.500	90.183	79.999	20.008	100.334	20.056	18.585	0.141
67.000	90.280	80.001	20.009	100.348	20.055	18.656	0.156
67.500	90.421	80.000	20.009	100.354	20.056	18.519	0.203
68.000	90.488	80.001	20.008	100.354	20.057	18.404	0.223
68.500	90.596	80.001	20.009	100.355	20.054	18.848	0.191
69.000	90.655	80.000	20.008	100.360	20.055	18.699	0.171
69.500	90.722	80.000	20.008	100.363	20.054	18.797	0.147
70.000	90.921	80.001	20.008	100.370	20.055	18.644	0.196
70.500	91.025	80.001	20.009	100.374	20.055	18.698	0.285
71.000	91.079	80.000	20.008	100.372	20.054	18.845	0.230
71.500	91.221	80.002	20.009	100.364	20.057	18.423	0.177
72.000	91.354	80.000	20.009	100.352	20.056	18.523	0.236
72.500	91.443	80.000	20.009	100.347	20.055	18.775	0.249
73.000	91.525	80.000	20.008	100.350	20.054	18.920	0.196
73.500	91.618	80.001	20.009	100.355	20.052	19.126	0.173
74.000	91.833	80.001	20.009	100.357	20.050	19.541	0.242
74.500	91.920	80.000	20.009	100.358	20.056	18.605	0.305
75.000	92.010	80.001	20.009	100.353	20.051	19.269	0.239
75.500	92.143	80.000	20.010	100.347	20.051	19.319	0.200
76.000	92.203	80.001	20.008	100.348	20.050	19.424	0.208
76.500	92.368	80.000	20.009	100.355	20.049	19.582	0.209
77.000	92.479	80.001	20.008	100.361	20.048	19.796	0.250
77.500	92.615	80.000	20.009	100.369	20.049	19.660	0.262
78.000	92.730	80.001	20.009	100.369	20.050	19.507	0.249
78.500	92.817	80.000	20.010	100.363	20.048	19.793	0.227
79.001	92.943	80.001	20.008	100.363	20.047	19.998	0.208
79.501	93.120	80.000	20.009	100.365	20.047	20.037	0.258
80.000	93.258	80.000	20.008	100.373	20.043	20.563	0.309
80.500	93.370	80.001	20.009	100.385	20.044	20.365	0.282
81.000	93.535	80.002	20.009	100.392	20.045	20.255	0.263
81.500	93.645	80.000	20.010	100.393	20.045	20.233	0.276
82.000	93.787	80.001	20.008	100.392	20.046	20.091	0.264
82.501	93.896	80.002	20.009	100.384	20.047	19.949	0.252
83.001	94.051	80.000	20.008	100.380	20.045	20.343	0.257
83.501	94.138	80.001	20.009	100.387	20.044	20.475	0.253
84.001	94.331	80.001	20.008	100.394	20.045	20.330	0.261
84.501	94.471	80.001	20.009	100.402	20.043	20.585	0.306
85.000	94.625	80.001	20.008	100.409	20.046	20.175	0.313
85.501	94.744	80.001	20.009	100.409	20.043	20.542	0.283
86.001	94.898	80.000	20.009	100.408	20.043	20.512	0.273
86.500	95.054	80.002	20.009	100.409	20.042	20.694	0.292
87.000	95.181	79.999	20.009	100.414	20.042	20.683	0.297
87.500	95.394	80.000	20.009	100.420	20.041	20.830	0.311
88.000	95.518	80.001	20.009	100.430	20.043	20.567	0.338
88.500	95.674	80.001	20.009	100.431	20.041	20.950	0.309
89.000	95.809	80.001	20.009	100.429	20.039	21.183	0.286
89.500	95.955	79.999	20.009	100.422	20.040	21.034	0.286
90.001	96.131	80.001	20.009	100.416	20.040	21.025	0.302
90.501	96.304	80.001	20.009	100.414	20.042	20.763	0.336
91.000	96.502	79.999	20.008	100.414	20.041	20.981	0.360
91.501	96.635	80.000	20.008	100.417	20.040	20.989	0.351
92.001	96.745	80.002	20.008	100.418	20.038	21.430	0.287
92.501	96.942	80.000	20.009	100.414	20.039	21.196	0.275
93.001	97.109	80.000	20.009	100.414	20.040	21.069	0.336
93.500	97.265	80.000	20.009	100.414	20.039	21.233	0.344
94.000	97.482	80.001	20.009	100.413	20.037	21.516	0.348
94.500	97.611	79.999	20.009	100.416	20.040	21.095	0.359
95.000	97.805	80.000	20.009	100.420	20.042	20.785	0.335
95.501	97.970	80.000	20.009	100.419	20.042	20.678	0.341
96.001	98.138	80.001	20.009	100.419	20.041	20.930	0.346
96.500	98.337	80.000	20.009	100.420	20.041	20.864	0.350
97.000	98.547	80.000	20.009	100.422	20.042	20.775	0.388
97.500	98.790	80.000	20.009	100.424	20.043	20.669	0.431
98.000	98.975	80.000	20.009	100.425	20.039	21.262	0.441
98.500	99.186	80.000	20.009	100.425	20.041	20.883	0.412
99.001	99.325	80.000	20.009	100.424	20.042	20.678	0.373
99.501	99.559	80.000	20.009	100.420	20.040	21.048	0.361
100.001	99.761	80.000	20.009	100.417	20.042	20.698	0.405
100.501	99.902	80.001	20.009	100.425	20.042	20.773	0.390
101.001	100.162	80.000	20.009	100.432	20.042	20.700	0.371
101.501	100.341	80.001	20.009	100.441	20.042	20.817	0.420
102.000	100.510	80.001	20.009	100.446	20.042	20.716	0.394
102.500	100.724	80.000	20.009	100.446	20.039	21.184	0.366
103.000	100.958	80.001	20.010	100.439	20.042	20.752	0.416
103.501	101.157	80.001	20.009	100.436	20.040	21.036	0.440
104.001	101.378	79.999	20.009	100.435	20.039	21.164	0.426
104.500	101.592	80.000	20.009	100.437	20.040	21.052	0.427
105.000	101.792	80.000	20.009	100.444	20.041	20.894	0.424
105.500	102.008	80.001	20.009	100.446	20.042	20.815	0.415
106.000	102.233	80.001	20.009	100.442	20.040	21.100	0.429
106.500	102.471	80.001	20.009	100.434	20.043	20.572	0.452
107.000	102.664	80.000	20.009	100.426	20.040	21.080	0.447
107.500	102.912	80.000	20.009	100.425	20.043	20.512	0.436
108.000	103.075	80.001	20.008	100.430	20.041	20.843	0.426
108.500	103.298	80.001	20.008	100.438	20.041	20.845	0.398
109.000	103.516	79.999	20.009	100.442	20.045	20.295	0.413
109.500	103.687	80.001	20.010	100.443	20.040	21.001	0.415
110.000	103.971	80.000	20.009	100.444	20.043	20.653	0.423
110.500	104.146	80.001	20.009	100.446	20.045	20.284	0.457
111.000	104.418	80.000	20.009	100.448	20.045	20.286	0.452
111.500	104.636	80.002	20.009	100.454	20.043	20.621	0.469
112.000	104.863	80.000	20.009	100.455	20.042	20.708	0.468
112.500	105.067	79.999	20.009	100.450	20.042	20.688	0.438
113.001	105.317	80.000	20.009	100.442	20.044	20.500	0.443
113.501	105.533	80.000	20.009	100.435	20.045	20.264	0.460
114.001	105.755	80.001	20.008	100.435	20.044	20.425	0.452
114.501	105.964	79.999	20.009	100.440	20.046	20.110	0.434
115.000	106.246	80.001	20.009	100.447	20.046	20.130	0.461
115.500	106.465	80.000	20.009	100.451	20.044	20.483	0.496
116.000	106.675	79.999	20.009	100.447	20.045	20.335	0.465
116.500	106.904	80.000	20.009	100.441	20.043	20.544	0.434
117.000	107.116	80.000	20.009	100.439	20.043	20.600	0.441
117.500	107.380	80.001	20.009	100.438	20.040	20.995	0.459
118.000	107.643	79.998	20.009	100.442	20.043	20.522	0.501
118.500	107.827	80.002	20.009	100.449	20.044	20.465	0.487
119.000	108.058	80.001	20.009	100.446	20.045	20.197	0.431
119.500	108.330	80.001	20.009	100.439	20.045	20.201	0.459
120.000	108.602	80.001	20.009	100.431	20.045	20.312	0.523
120.500	108.814	80.000	20.009	100.424	20.046	20.091	0.514
121.000	109.060	80.000	20.008	100.422	20.045	20.216	0.471
121.500	109.352	80.001	20.009	100.429	20.044	20.410	0.498
122.000	109.581	80.001	20.009	100.432	20.045	20.205	0.530
122.501	109.813	80.000	20.009	100.433	20.046	20.062	0.491
123.001	110.069	80.002	20.009	100.431	20.047	20.020	0.474
123.501	110.361	80.001	20.009	100.424	20.049	19.604	0.518
124.001	110.616	80.001	20.009	100.418	20.047	19.928	0.548
124.500	110.834	79.999	20.009	100.420	20.046	20.096	0.510
125.000	111.113	80.001	20.009	100.425	20.047	19.954	0.484
125.500	111.328	80.001	20.009	100.426	20.047	19.924	0.496
126.001	111.630	80.001	20.009	100.427	20.047	20.037	0.506
126.501	111.915	80.001	20.009	100.425	20.047	19.953	0.552
127.000	112.216	80.001	20.009	100.419	20.049	19.583	0.586
127.501	112.448	80.001	20.009	100.413	20.046	20.126	0.560
128.000	112.738	80.000	20.009	100.416	20.046	20.175	0.528
128.500	112.980	79.999	20.009	100.425	20.045	20.228	0.527
129.000	113.275	80.000	20.009	100.429	20.047	19.955	0.534
129.500	113.501	80.001	20.009	100.431	20.045	20.216	0.529
130.000	113.762	80.000	20.009	100.429	20.045	20.223	0.504
130.500	114.106	80.000	20.009	100.418	20.047	20.021	0.546
131.001	114.333	80.001	20.009	100.407	20.047	20.021	0.588
131.500	114.622	80.001	20.009	100.403	20.049	19.632	0.544
132.000	114.924	80.001	20.009	100.404	20.047	19.915	0.554
132.500	115.159	80.000	20.009	100.408	20.047	19.991	0.564
133.000	115.411	80.001	20.009	100.415	20.046	20.037	0.512
133.501	115.735	80.001	20.009	100.418	20.049	19.628	0.531
134.000	115.972	80.000	20.009	100.414	20.050	19.530	0.568
134.500	116.287	80.000	20.009	100.410	20.046	20.094	0.556
135.000	116.477	80.001	20.009	100.409	20.049	19.576	0.529
135.500	116.842	80.001	20.009	100.408	20.048	19.813	0.530
136.000	117.076	79.999	20.009	100.410	20.048	19.739	0.577
136.500	117.367	80.001	20.009	100.415	20.049	19.573	0.562
137.000	117.639	80.001	20.009	100.417	20.052	19.240	0.544
137.500	117.921	80.000	20.009	100.413	20.050	19.440	0.559
138.000	118.212	80.000	20.009	100.412	20.051	19.330	0.564
138.500	118.496	80.001	20.009	100.412	20.053	18.999	0.574
139.000	118.799	80.001	20.009	100.414	20.051	19.405	0.581
139.500	119.060	80.001	20.009	100.422	20.051	19.281	0.575
140.000	119.371	80.000	20.008	100.428	20.052	19.110	0.568
140.500	119.642	80.001	20.009	100.429	20.050	19.477	0.577
141.000	119.909	80.000	20.009	100.428	20.052	19.146	0.560
141.500	120.212	80.001	20.009	100.425	20.050	19.411	0.554
142.000	120.469	80.000	20.009	100.417	20.051	19.282	0.565
142.500	120.763	80.000	20.009	100.417	20.051	19.308	0.556
143.000	121.047	80.001	20.009	100.417	20.051	19.305	0.565
143.500	121.309	80.001	20.009	100.419	20.051	19.341	0.562
144.000	121.603	80.001	20.009	100.416	20.053	19.057	0.551
144.500	121.910	80.000	20.009	100.409	20.050	19.494	0.579
145.000	122.192	79.999	20.009	100.400	20.050	19.520	0.596
145.500	122.506	80.001	20.009	100.398	20.054	18.923	0.593
146.000	122.748	80.000	20.009	100.399	20.054	18.923	0.576
146.500	123.036	80.001	20.009	100.403	20.053	18.956	0.543
147.000	123.352	80.001	20.009	100.410	20.052	19.095	0.567
147.500	123.645	80.000	20.009	100.415	20.052	19.122	0.606
148.000	123.916	80.001	20.009	100.409	20.054	18.931	0.586
148.500	124.205	80.001	20.009	100.402	20.055	18.753	0.562
149.000	124.495	80.001	20.009	100.395	20.055	18.642	0.569
149.500	124.794	80.001	20.009	100.396	20.055	18.694	0.584
150.000	125.053	80.000	20.009	100.399	20.057	18.342	0.573
150.500	125.324	80.000	20.009	100.406	20.058	18.210	0.544
151.000	125.677	80.001	20.009	100.406	20.057	18.326	0.577
151.500	125.947	80.000	20.009	100.404	20.058	18.241	0.624
152.000	126.202	80.000	20.009	100.396	20.057	18.311	0.574
152.500	126.509	80.001	20.009	100.388	20.057	18.410	0.543
153.000	126.819	80.000	20.009	100.379	20.058	18.279	0.589
153.500	127.104	80.001	20.009	100.378	20.059	18.145	0.606
154.000	127.411	80.001	20.008	100.377	20.057	18.429	0.593
154.500	127.657	79.999	20.009	100.376	20.056	18.612	0.573
155.000	127.976	80.001	20.009	100.376	20.055	18.678	0.559
155.500	128.277	80.000	20.009	100.376	20.055	18.735	0.592
156.000	128.551	80.001	20.009	100.377	20.055	18.768	0.598
156.500	128.797	80.001	20.009	100.377	20.055	18.632	0.548
157.000	129.133	80.000	20.009	100.378	20.056	18.585	0.551
157.500	129.422	80.001	20.009	100.379	20.055	18.690	0.603
158.000	129.693	80.001	20.009	100.378	20.056	18.536	0.592
158.500	130.014	80.000	20.009	100.372	20.056	18.520	0.576
159.000	130.274	80.001	20.009	100.368	20.056	18.507	0.587
159.500	130.582	79.999	20.008	100.368	20.056	18.510	0.574
160.000	130.839	80.001	20.009	100.369	20.058	18.209	0.566
160.500	131.130	79.999	20.008	100.372	20.057	18.403	0.556
161.000	131.438	80.001	20.008	100.378	20.055	18.631	0.573
161.500	131.753	80.000	20.009	100.380	20.058	18.288	0.611
162.000	132.076	80.001	20.009	100.373	20.057	18.349	0.631
162.500	132.353	80.000	20.009	100.364	20.056	18.468	0.619
163.000	132.688	80.000	20.009	100.360	20.059	18.047	0.606
163.500	132.964	80.001	20.008	100.360	20.059	18.013	0.611
164.000	133.263	80.001	20.009	100.361	20.058	18.237	0.593
164.500	133.563	80.000	20.008	100.368	20.058	18.204	0.587
165.000	133.898	80.000	20.009	100.372	20.059	18.023	0.618
165.500	134.224	80.001	20.009	100.367	20.059	18.077	0.648
166.000	134.488	80.000	20.009	100.358	20.061	17.694	0.625
166.500	134.760	80.001	20.009	100.351	20.059	18.094	0.563
167.000	135.060	80.000	20.008	100.347	20.058	18.199	0.554
167.500	135.386	80.000	20.009	100.350	20.057	18.323	0.599
168.000	135.692	80.000	20.009	100.352	20.058	18.269	0.629
168.500	135.980	80.001	20.009	100.355	20.060	17.972	0.613
169.000	136.258	80.000	20.009	100.355	20.060	17.972	0.580
169.500	136.533	79.999	20.009	100.353	20.057	18.433	0.560
170.001	136.873	80.000	20.008	100.347	20.062	17.645	0.585
170.500	137.114	80.001	20.008	100.347	20.061	17.692	0.598
171.000	137.409	79.999	20.008	100.351	20.062	17.555	0.558
171.500	137.727	80.001	20.009	100.357	20.062	17.670	0.575
172.000	138.007	80.001	20.008	100.356	20.063	17.470	0.606
172.500	138.334	80.000	20.009	100.355	20.062	17.639	0.602
173.000	138.611	80.000	20.008	100.353	20.063	17.500	0.605
173.500	138.911	80.001	20.009	100.347	20.062	17.658	0.590
174.000	139.225	79.999	20.008	100.349	20.065	17.158	0.595
174.500	139.503	80.001	20.008	100.355	20.066	16.985	0.603
175.000	139.804	80.000	20.008	100.358	20.064	17.344	0.586
175.500	140.119	80.002	20.008	100.358	20.067	16.784	0.598
176.000	140.402	80.000	20.009	100.357	20.065	17.152	0.607
176.500	140.722	80.001	20.009	100.350	20.064	17.348	0.601
177.000	140.965	80.000	20.008	100.343	20.066	17.021	0.583
177.500	141.284	80.000	20.009	100.343	20.067	16.740	0.562
178.000	141.560	80.000	20.008	100.351	20.067	16.733	0.579
178.500	141.894	80.001	20.009	100.358	20.068	16.718	0.602
179.000	142.168	79.999	20.009	100.359	20.066	17.028	0.609
179.500	142.469	80.000	20.008	100.359	20.066	16.972	0.592
180.000	142.771	80.001	20.009	100.355	20.068	16.662	0.589
180.500	143.060	80.000	20.008	100.346	20.066	16.974	0.597
181.000	143.384	80.000	20.009	100.339	20.067	16.867	0.602
181.500	143.684	80.001	20.009	100.342	20.069	16.529	0.618
182.000	144.001	80.000	20.009	100.344	20.071	16.187	0.620
182.500	144.272	80.000	20.008	100.348	20.068	16.603	0.602
183.000	144.612	80.000	20.008	100.349	20.070	16.322	0.599
183.500	144.830	80.000	20.009	100.348	20.070	16.333	0.585
184.000	145.161	80.001	20.009	100.341	20.071	16.147	0.553
184.500	145.469	80.000	20.008	100.337	20.069	16.449	0.594
185.000	145.756	80.000	20.008	100.332	20.071	16.201	0.617
185.500	146.057	80.000	20.009	100.332	20.074	15.712	0.592
186.000	146.351	79.999	20.008	100.331	20.073	15.881	0.592
186.500	146.652	80.000	20.009	100.328	20.071	16.145	0.595
187.000	146.972	79.999	20.009	100.321	20.071	16.137	0.608
187.501	147.205	80.002	20.009	100.314	20.073	15.928	0.587
188.000	147.566	80.000	20.009	100.305	20.072	16.022	0.574
188.500	147.815	80.000	20.009	100.301	20.072	16.048	0.602
189.000	148.092	80.000	20.008	100.306	20.070	16.393	0.568
189.500	148.434	80.000	20.008	100.312	20.070	16.416	0.572
190.000	148.705	80.000	20.009	100.314	20.070	16.406	0.616
190.500	148.991	80.000	20.008	100.315	20.069	16.512	0.585
191.000	149.340	80.000	20.009	100.312	20.069	16.474	0.596
191.500	149.619	80.000	20.009	100.305	20.068	16.635	0.631
192.000	149.909	80.000	20.008	100.299	20.069	16.534	0.599
192.500	150.186	80.000	20.009	100.300	20.070	16.334	0.568
193.000	150.509	80.002	20.008	100.306	20.067	16.864	0.584
193.500	150.797	80.000	20.008	100.308	20.068	16.620	0.605
194.000	151.086	79.999	20.009	100.306	20.069	16.570	0.594
194.500	151.401	80.000	20.009	100.299	20.067	16.795	0.591
195.000	151.658	80.001	20.009	100.291	20.068	16.716	0.588
195.500	151.992	80.001	20.009	100.285	20.070	16.265	0.581
196.000	152.293	80.001	20.009	100.283	20.071	16.143	0.613
196.500	152.531	79.999	20.008	100.293	20.069	16.514	0.587
197.000	152.842	80.001	20.008	100.307	20.068	16.672	0.544
197.500	153.157	80.000	20.008	100.317	20.067	16.734	0.587
198.000	153.473	79.999	20.011	100.316	20.067	16.849	0.628
198.500	153.717	80.001	20.004	100.339	20.066	16.979	0.596
199.000	154.010	80.002	20.013	100.317	20.067	16.858	0.549
199.500	154.276	80.001	20.009	100.274	20.068	16.730	0.548
200.000	154.557	80.001	20.008	100.249	20.070	16.396	0.553
200.500	154.886	80.002	20.004	100.240	20.069	16.561	0.579
201.000	155.172	80.000	20.013	100.169	20.072	16.055	0.613
201.500	155.439	80.000	20.009	100.184	20.071	16.207	0.584
202.000	155.740	80.000	20.006	100.255	20.073	15.925	0.560
202.500	156.025	80.001	20.008	100.316	20.071	16.107	0.576
203.000	156.351	80.001	20.009	100.354	20.074	15.726	0.598
203.500	156.618	79.999	20.008	100.418	20.075	15.510	0.602
204.000	156.918	80.001	20.008	100.428	20.075	15.623	0.580
204.500	157.184	80.000	20.008	100.402	20.075	15.514	0.567
205.000	157.425	80.000	20.009	100.368	20.074	15.739	0.537
205.500	157.746	79.999	20.009	100.341	20.073	15.821	0.535
206.000	158.002	80.001	20.009	100.323	20.075	15.517	0.569
206.500	158.236	80.001	20.009	100.312	20.076	15.422	0.534
207.000	158.608	79.999	20.008	100.304	20.077	15.273	0.548
207.500	158.881	80.000	20.009	100.305	20.076	15.461	0.625
208.000	159.135	80.001	20.008	100.312	20.076	15.422	0.586
208.500	159.414	80.000	20.008	100.321	20.076	15.346	0.530
209.000	159.674	80.002	20.009	100.327	20.079	14.983	0.535
209.500	159.949	80.001	20.009	100.327	20.080	14.786	0.537
210.000	160.230	80.000	20.009	100.321	20.080	14.841	0.546
210.500	160.495	80.001	20.009	100.316	20.078	15.132	0.551
211.000	160.820	80.001	20.009	100.316	20.080	14.820	0.568
211.500	161.093	80.000	20.008	100.318	20.078	15.093	0.594
212.001	161.404	80.000	20.008	100.331	20.078	15.108	0.591
212.500	161.700	80.000	20.009	100.336	20.079	14.943	0.596
213.000	161.954	80.000	20.008	100.337	20.077	15.290	0.578
213.500	162.227	80.001	20.008	100.333	20.077	15.289	0.539
214.000	162.538	80.000	20.009	100.330	20.075	15.534	0.556
214.500	162.795	80.000	20.006	100.333	20.074	15.717	0.576
215.001	163.064	80.002	20.010	100.328	20.076	15.412	0.547
215.501	163.317	80.001	20.010	100.309	20.074	15.661	0.525
216.000	163.594	80.000	20.008	100.299	20.075	15.576	0.526
216.500	163.889	80.001	20.008	100.294	20.075	15.617	0.551
217.001	164.214	80.000	20.008	100.279	20.076	15.332	0.596
217.500	164.462	80.001	20.008	100.281	20.078	15.142	0.596
218.000	164.736	80.001	20.008	100.302	20.073	15.896	0.548
218.500	164.997	80.001	20.007	100.317	20.074	15.683	0.528
219.000	165.262	80.001	20.009	100.321	20.077	15.256	0.531
219.500	165.568	80.000	20.009	100.322	20.077	15.248	0.548
220.000	165.822	80.001	20.007	100.342	20.079	14.903	0.565
220.500	166.076	80.000	20.008	100.360	20.080	14.724	0.534
221.000	166.408	80.001	20.009	100.368	20.082	14.534	0.547
221.500	166.693	79.999	20.009	100.371	20.080	14.751	0.601
222.000	166.929	80.001	20.009	100.378	20.079	14.957	0.570
222.500	167.219	80.000	20.009	100.364	20.078	15.072	0.524
223.000	167.512	80.000	20.009	100.352	20.077	15.224	0.554
223.500	167.805	79.999	20.007	100.351	20.077	15.160	0.584
224.000	168.046	80.002	20.009	100.348	20.078	15.096	0.560
224.500	168.331	80.000	20.010	100.314	20.078	15.019	0.530
225.001	168.633	80.000	20.008	100.284	20.079	14.910	0.556
225.501	168.908	80.001	20.008	100.260	20.078	15.047	0.582
226.000	169.181	79.999	20.008	100.242	20.080	14.796	0.563
226.500	169.428	80.002	20.009	100.236	20.079	14.924	0.534
227.000	169.683	80.001	20.009	100.259	20.083	14.392	0.511
227.500	169.979	80.000	20.008	100.305	20.080	14.724	0.527
228.000	170.274	80.000	20.007	100.346	20.082	14.516	0.571
228.500	170.534	80.001	20.009	100.370	20.081	14.685	0.573
229.000	170.851	79.999	20.009	100.382	20.079	14.957	0.566
229.500	171.130	80.000	20.009	100.386	20.078	15.104	0.587
230.000	171.380	80.000	20.009	100.363	20.077	15.235	0.562
230.500	171.626	80.000	20.009	100.334	20.075	15.599	0.512
231.000	171.927	79.999	20.009	100.312	20.073	15.939	0.522
231.500	172.195	80.001	20.009	100.303	20.073	15.801	0.558
232.000	172.412	80.000	20.009	100.296	20.072	15.958	0.527
232.500	172.690	80.000	20.009	100.290	20.072	16.075	0.490
233.000	172.994	80.001	20.009	100.281	20.069	16.442	0.538
233.500	173.286	79.998	20.012	100.277	20.068	16.693	0.589
234.000	173.534	80.001	20.003	100.311	20.067	16.795	0.568
234.500	173.783	80.002	20.014	100.306	20.067	16.804	0.519
235.000	174.048	80.000	20.010	100.269	20.068	16.673	0.506
235.500	174.350	80.002	20.008	100.241	20.067	16.727	0.540
236.000	174.650	79.999	20.007	100.221	20.069	16.511	0.584
236.500	174.937	80.003	20.009	100.164	20.067	16.729	0.594
237.000	175.204	80.001	20.009	100.138	20.068	16.569	0.571
237.500	175.471	80.001	20.009	100.193	20.068	16.596	0.544
238.000	175.710	80.000	20.007	100.259	20.068	16.584	0.520
238.500	176.013	80.001	20.008	100.318	20.068	16.620	0.524
239.000	176.297	80.001	20.008	100.361	20.068	16.622	0.565
239.500	176.558	80.000	20.008	100.402	20.070	16.386	0.566
240.000	176.810	80.001	20.009	100.387	20.068	16.628	0.529
240.500	177.098	79.999	20.009	100.347	20.072	16.067	0.526
241.000	177.356	80.001	20.009	100.305	20.071	16.164	0.543
241.500	177.639	80.001	20.009	100.285	20.071	16.159	0.543
242.000	177.911	80.000	20.009	100.286	20.069	16.466	0.548
242.500	178.195	80.000	20.008	100.299	20.070	16.395	0.555
243.000	178.448	80.000	20.009	100.311	20.070	16.318	0.547
243.500	178.751	80.001	20.009	100.317	20.068	16.565	0.547
244.000	178.990	79.999	20.009	100.311	20.070	16.376	0.549
244.500	179.236	80.001	20.009	100.298	20.068	16.592	0.514
245.000	179.479	80.000	20.009	100.282	20.070	16.325	0.487
245.500	179.775	80.001	20.008	100.273	20.070	16.382	0.513
246.000	180.034	80.000	20.009	100.272	20.067	16.834	0.547
246.500	180.259	80.000	20.009	100.272	20.066	16.892	0.520
247.000	180.542	80.000	20.008	100.268	20.067	16.858	0.496
247.500	180.781	80.000	20.009	100.261	20.068	16.705	0.515
248.000	181.065	80.000	20.009	100.250	20.069	16.472	0.523
248.500	181.320	80.000	20.009	100.235	20.069	16.484	0.531
249.000	181.601	80.001	20.008	100.228	20.067	16.822	0.538
249.500	181.855	80.001	20.009	100.231	20.065	17.091	0.535
250.000	182.135	79.999	20.008	100.239	20.065	17.049	0.534
250.500	182.423	80.000	20.008	100.247	20.067	16.742	0.551
251.000	182.655	79.999	20.008	100.251	20.067	16.827	0.544
251.500	182.881	80.000	20.009	100.248	20.064	17.221	0.489
252.000	183.178	80.001	20.009	100.240	20.064	17.242	0.491
252.500	183.465	80.001	20.008	100.236	20.064	17.203	0.554
253.000	183.695	80.000	20.009	100.235	20.065	17.104	0.550
253.500	184.001	80.000	20.009	100.240	20.066	16.991	0.526
254.000	184.237	80.000	20.008	100.249	20.066	17.009	0.539
254.500	184.552	80.000	20.008	100.257	20.064	17.286	0.546
255.000	184.787	80.000	20.009	100.259	20.066	16.879	0.551
255.500	185.039	80.000	20.008	100.251	20.063	17.446	0.519
256.000	185.298	80.000	20.009	100.242	20.066	16.956	0.499
256.500	185.595	79.999	20.008	100.236	20.065	17.064	0.533
257.000	185.869	80.000	20.009	100.236	20.066	16.965	0.563
257.500	186.114	80.000	20.008	100.239	20.066	16.885	0.545
258.000	186.349	80.001	20.008	100.245	20.068	16.579	0.500
258.500	186.661	80.000	20.008	100.247	20.063	17.412	0.514
259.001	186.900	80.000	20.010	100.243	20.067	16.826	0.549
259.500	187.169	80.001	20.009	100.235	20.067	16.787	0.530
260.000	187.408	80.000	20.008	100.228	20.069	16.486	0.508
260.500	187.676	80.000	20.009	100.227	20.069	16.555	0.507
261.000	187.937	80.000	20.009	100.233	20.072	15.996	0.518
261.500	188.242	80.001	20.009	100.245	20.072	16.076	0.547
262.000	188.459	80.000	20.009	100.254	20.069	16.498	0.544
262.500	188.722	80.000	20.009	100.262	20.071	16.190	0.501
263.000	189.053	80.000	20.009	100.265	20.068	16.580	0.537
263.500	189.286	80.000	20.009	100.266	20.071	16.101	0.579
264.000	189.524	80.001	20.009	100.263	20.071	16.222	0.517
264.500	189.815	80.000	20.009	100.264	20.071	16.084	0.500
265.000	190.059	80.000	20.009	100.272	20.071	16.238	0.532
265.500	190.339	80.000	20.009	100.278	20.069	16.503	0.529
266.000	190.593	80.001	20.009	100.277	20.069	16.421	0.529
266.500	190.822	80.001	20.009	100.273	20.070	16.291	0.509
267.000	191.094	80.001	20.009	100.265	20.072	16.113	0.492
267.500	191.341	80.000	20.009	100.258	20.072	16.085	0.509
268.000	191.626	80.001	20.009	100.258	20.073	15.950	0.525
268.500	191.847	79.999	20.008	100.265	20.072	16.002	0.519
269.000	192.124	80.000	20.009	100.280	20.073	15.923	0.502
269.500	192.374	80.000	20.009	100.293	20.072	15.972	0.512
270.000	192.640	80.000	20.009	100.296	20.071	16.219	0.522
270.500	192.884	80.001	20.009	100.290	20.071	16.165	0.513
271.000	193.135	79.999	20.009	100.284	20.072	15.982	0.502
271.500	193.373	80.000	20.008	100.279	20.070	16.331	0.492
272.000	193.659	80.001	20.009	100.278	20.072	16.089	0.507
272.500	193.923	80.000	20.009	100.277	20.067	16.812	0.537
273.000	194.157	80.000	20.009	100.278	20.064	17.212	0.524
273.500	194.445	80.001	20.009	100.276	20.066	17.014	0.510
274.000	194.722	79.998	20.008	100.273	20.065	17.183	0.544
274.500	194.969	80.002	20.007	100.301	20.067	16.722	0.545
275.000	195.248	80.000	20.011	100.274	20.067	16.774	0.525
275.500	195.438	80.001	20.009	100.244	20.069	16.542	0.497
276.000	195.702	80.000	20.008	100.224	20.069	16.462	0.461
276.500	195.996	80.002	20.005	100.208	20.068	16.684	0.506
277.000	196.233	80.001	20.013	100.118	20.070	16.399	0.545
277.500	196.483	80.001	20.009	100.144	20.073	15.914	0.509
278.000	196.705	79.999	20.006	100.214	20.073	15.825	0.480
278.500	196.991	80.001	20.007	100.279	20.071	16.203	0.490
279.000	197.249	80.000	20.008	100.323	20.071	16.194	0.526
279.500	197.493	80.002	20.009	100.399	20.072	15.927	0.523
280.000	197.719	80.000	20.009	100.408	20.071	16.168	0.486
280.500	197.976	80.001	20.009	100.375	20.071	16.201	0.476
281.000	198.235	80.001	20.009	100.337	20.070	16.290	0.500
281.500	198.515	80.001	20.008	100.313	20.072	15.949	0.528
282.000	198.731	80.000	20.008	100.295	20.074	15.702	0.517
282.500	199.028	79.999	20.009	100.287	20.071	16.197	0.504
283.000	199.247	80.001	20.008	100.283	20.070	16.377	0.515
283.500	199.470	80.000	20.009	100.278	20.072	16.096	0.479
284.000	199.764	80.001	20.009	100.271	20.072	15.973	0.480
284.500	199.975	79.999	20.009	100.263	20.071	16.218	0.511
285.000	200.249	80.001	20.009	100.258	20.071	16.202	0.495
285.500	200.506	80.001	20.009	100.251	20.070	16.294	0.508
286.000	200.735	80.000	20.009	100.250	20.071	16.128	0.508
286.500	201.005	80.000	20.008	100.251	20.072	15.976	0.492
287.000	201.232	80.002	20.008	100.254	20.069	16.413	0.498
287.500	201.476	79.999	20.009	100.249	20.072	16.046	0.484
288.000	201.736	80.000	20.009	100.244	20.068	16.633	0.488
288.500	201.916	80.002	20.009	100.237	20.069	16.542	0.473
289.000	202.176	79.997	20.010	100.232	20.062	17.510	0.440
289.500	202.465	80.002	20.006	100.275	20.065	17.081	0.494
290.000	202.675	80.001	20.013	100.251	20.064	17.206	0.524
290.500	202.952	79.999	20.009	100.217	20.065	17.062	0.493
291.000	203.238	80.002	20.009	100.199	20.065	17.068	0.525
291.500	203.474	80.000	20.008	100.184	20.065	17.074	0.543
292.000	203.736	80.000	20.008	100.129	20.069	16.483	0.510
292.500	203.983	79.998	20.006	100.152	20.069	16.529	0.503
293.000	204.199	80.004	20.010	100.172	20.068	16.671	0.486
293.500	204.457	80.000	20.009	100.132	20.069	16.492	0.468
294.000	204.725	80.001	20.008	100.173	20.068	16.584	0.499
294.500	204.955	80.001	20.006	100.230	20.068	16.713	0.512
295.000	205.245	80.001	20.007	100.277	20.068	16.598	0.509
295.500	205.495	80.000	20.008	100.312	20.068	16.588	0.530
296.000	205.732	80.001	20.009	100.382	20.068	16.581	0.514
296.500	205.972	80.000	20.008	100.360	20.068	16.715	0.482
297.000	206.228	80.000	20.008	100.317	20.069	16.463	0.487
297.500	206.530	80.000	20.008	100.278	20.069	16.511	0.527
298.000	206.747	80.001	20.009	100.262	20.068	16.564	0.538
298.500	206.996	80.000	20.009	100.256	20.069	16.523	0.492
299.000	207.225	80.000	20.008	100.255	20.069	16.480	0.472
299.500	207.496	80.001	20.008	100.255	20.068	16.690	0.489
300.000	207.729	80.000	20.009	100.256	20.071	16.102	0.502
300.500	208.006	79.999	20.008	100.259	20.070	16.310	0.507
301.000	208.244	80.000	20.008	100.269	20.067	16.815	0.513
301.500	208.543	79.999	20.009	100.277	20.066	16.960	0.526
302.000	208.771	80.001	20.009	100.277	20.068	16.660	0.532
302.500	209.019	80.001	20.008	100.276	20.068	16.645	0.501
303.000	209.268	80.000	20.009	100.273	20.067	16.847	0.486
303.500	209.560	80.000	20.009	100.265	20.071	16.244	0.519
304.000	209.765	80.000	20.008	100.259	20.068	16.698	0.519
304.500	210.021	79.999	20.009	100.259	20.067	16.782	0.479
305.000	210.254	80.001	20.008	100.260	20.067	16.798	0.475
305.500	210.523	80.000	20.009	100.260	20.069	16.540	0.495
306.000	210.737	80.000	20.009	100.257	20.068	16.710	0.492
306.500	210.987	79.999	20.009	100.253	20.069	16.508	0.474
307.000	211.250	80.000	20.009	100.252	20.069	16.441	0.489
307.500	211.496	80.001	20.009	100.253	20.067	16.742	0.511
308.000	211.792	80.000	20.009	100.254	20.070	16.301	0.526
308.500	212.019	80.000	20.008	100.257	20.070	16.395	0.533
309.000	212.278	80.001	20.008	100.254	20.069	16.554	0.504
309.500	212.518	80.000	20.009	100.247	20.070	16.338	0.492
310.000	212.718	80.000	20.009	100.238	20.070	16.363	0.470
310.500	212.992	80.000	20.009	100.232	20.069	16.440	0.457
311.000	213.218	80.001	20.009	100.232	20.071	16.143	0.487
311.500	213.515	80.000	20.009	100.245	20.070	16.380	0.511
312.000	213.752	80.000	20.008	100.260	20.070	16.270	0.529
312.500	213.936	80.001	20.009	100.272	20.069	16.485	0.478
313.000	214.215	80.000	20.009	100.274	20.069	16.446	0.442
313.500	214.500	80.000	20.009	100.271	20.067	16.748	0.513
314.000	214.754	80.001	20.009	100.268	20.070	16.300	0.552
314.500	214.951	79.999	20.008	100.267	20.068	16.590	0.495
315.000	215.212	80.000	20.008	100.271	20.069	16.526	0.455
315.500	215.454	79.999	20.008	100.281	20.069	16.452	0.481
316.000	215.711	80.002	20.008	100.282	20.070	16.343	0.501
316.500	215.983	80.000	20.009	100.274	20.068	16.575	0.514
317.000	216.174	80.000	20.009	100.259	20.069	16.543	0.496
317.500	216.428	80.000	20.008	100.249	20.067	16.865	0.454
318.000	216.689	80.000	20.009	100.244	20.069	16.505	0.480
318.500	216.967	79.999	20.008	100.246	20.067	16.762	0.527
319.000	217.192	80.000	20.008	100.252	20.064	17.243	0.521
319.500	217.480	80.002	20.009	100.254	20.068	16.657	0.508
320.000	217.688	79.999	20.009	100.245	20.066	16.915	0.505
320.500	217.961	79.999	20.009	100.229	20.066	16.952	0.489
321.000	218.181	79.999	20.009	100.217	20.068	16.633	0.487
321.500	218.442	80.001	20.009	100.208	20.066	16.984	0.487
322.000	218.680	80.001	20.008	100.212	20.068	16.690	0.490
322.500	218.925	80.001	20.008	100.223	20.068	16.626	0.491
323.000	219.211	80.000	20.009	100.235	20.065	17.037	0.507
323.500	219.430	80.001	20.009	100.240	20.067	16.799	0.518
324.000	219.709	80.000	20.009	100.239	20.069	16.463	0.502
324.500	219.941	80.001	20.009	100.235	20.067	16.872	0.505
325.000	220.218	80.000	20.009	100.228	20.067	16.824	0.510
325.500	220.492	80.001	20.009	100.230	20.067	16.729	0.530
326.000	220.745	80.000	20.008	100.237	20.068	16.718	0.539
326.500	221.005	80.002	20.008	100.245	20.068	16.686	0.520
327.000	221.213	80.000	20.008	100.250	20.068	16.614	0.490
327.500	221.454	79.999	20.009	100.249	20.065	17.089	0.459
328.000	221.717	80.001	20.009	100.242	20.066	16.954	0.477
328.500	221.977	80.000	20.009	100.235	20.065	17.094	0.513
329.000	222.179	80.001	20.008	100.232	20.066	16.995	0.492
329.500	222.472	80.002	20.009	100.234	20.065	17.094	0.479
330.000	222.692	79.999	20.009	100.242	20.066	17.014	0.504
330.500	222.986	80.000	20.009	100.250	20.062	17.501	0.513
331.000	223.233	80.000	20.008	100.253	20.065	17.031	0.528
331.500	223.485	80.000	20.009	100.249	20.068	16.701	0.520
332.000	223.724	80.001	20.009	100.241	20.066	16.985	0.495
332.500	223.973	80.001	20.009	100.235	20.066	16.946	0.489
333.000	224.270	80.001	20.009	100.233	20.068	16.704	0.517
333.500	224.502	80.001	20.008	100.238	20.067	16.743	0.538
334.000	224.720	79.999	20.008	100.245	20.067	16.864	0.490
334.500	224.956	80.000	20.008	100.251	20.069	16.484	0.452
335.001	225.226	80.000	20.009	100.250	20.068	16.666	0.480
335.500	225.498	80.000	20.009	100.244	20.065	17.133	0.524
336.000	225.788	80.001	20.009	100.235	20.066	16.945	0.552
336.500	226.000	80.001	20.009	100.233	20.069	16.457	0.532
337.001	226.296	79.999	20.008	100.241	20.069	16.475	0.505
337.501	226.525	80.001	20.008	100.256	20.070	16.372	0.516
338.000	226.802	80.000	20.008	100.263	20.068	16.626	0.516
338.500	227.049	80.001	20.009	100.266	20.067	16.752	0.515
339.000	227.249	80.000	20.009	100.260	20.068	16.577	0.485
339.501	227.562	80.001	20.009	100.246	20.070	16.278	0.480
340.000	227.797	80.000	20.009	100.231	20.068	16.708	0.530
340.500	228.056	79.999	20.009	100.226	20.066	16.945	0.521
341.000	228.319	80.000	20.008	100.231	20.065	17.073	0.509
341.500	228.504	80.000	20.009	100.238	20.068	16.706	0.485
342.000	228.785	80.001	20.009	100.238	20.066	16.940	0.456
342.500	229.040	80.001	20.009	100.239	20.064	17.204	0.500
343.000	229.307	80.000	20.009	100.232	20.066	16.895	0.529
343.500	229.517	80.001	20.009	100.222	20.066	16.972	0.500
344.000	229.797	80.001	20.009	100.216	20.068	16.602	0.484
344.500	230.022	79.998	20.008	100.217	20.068	16.661	0.498
345.000	230.308	80.000	20.008	100.219	20.066	16.992	0.508
345.500	230.543	80.002	20.009	100.222	20.068	16.704	0.516
346.000	230.760	80.000	20.009	100.217	20.066	16.951	0.487
346.500	231.024	79.999	20.009	100.212	20.065	17.111	0.467
347.000	231.299	80.000	20.009	100.207	20.067	16.870	0.510
347.500	231.566	80.001	20.009	100.206	20.066	16.983	0.540
348.000	231.861	80.000	20.008	100.206	20.066	16.897	0.552
348.500	232.074	80.000	20.009	100.214	20.064	17.323	0.535
349.000	232.329	79.999	20.009	100.219	20.065	17.108	0.489
349.500	232.624	80.000	20.008	100.220	20.063	17.412	0.509
350.000	232.843	80.000	20.009	100.214	20.062	17.529	0.532
350.500	233.117	79.999	20.009	100.208	20.062	17.652	0.504
351.000	233.374	80.001	20.009	100.206	20.064	17.307	0.512
351.500	233.579	80.000	20.008	100.207	20.065	17.113	0.496
352.000	233.837	80.000	20.009	100.211	20.063	17.355	0.462
352.500	234.112	80.000	20.008	100.219	20.066	17.035	0.498
353.000	234.418	80.001	20.009	100.225	20.064	17.281	0.557
353.500	234.613	79.999	20.008	100.218	20.064	17.234	0.541
354.000	234.843	80.001	20.009	100.211	20.068	16.682	0.463
354.501	235.132	80.000	20.009	100.208	20.068	16.700	0.472
355.001	235.394	80.000	20.009	100.206	20.068	16.592	0.536
355.500	235.642	80.001	20.009	100.205	20.068	16.701	0.531
356.000	235.891	80.000	20.009	100.215	20.068	16.595	0.503
356.500	236.147	80.001	20.008	100.221	20.066	16.904	0.501
357.000	236.402	80.001	20.009	100.221	20.067	16.807	0.508
357.500	236.634	80.000	20.009	100.218	20.067	16.734	0.499
358.000	236.932	79.999	20.009	100.219	20.067	16.792	0.509
358.500	237.153	80.001	20.008	100.215	20.069	16.515	0.524
359.000	237.429	80.000	20.009	100.216	20.069	16.389	0.508
359.500	237.712	80.000	20.009	100.220	20.069	16.478	0.527
360.000	237.966	80.001	20.009	100.225	20.066	16.879	0.548
360.500	238.220	80.000	20.009	100.225	20.064	17.246	0.523
361.000	238.454	80.001	20.009	100.224	20.066	17.015	0.498
361.500	238.704	80.000	20.009	100.223	20.067	16.775	0.486
362.000	238.951	80.000	20.009	100.222	20.070	16.354	0.491
362.500	239.280	80.000	20.008	100.223	20.070	16.397	0.537
363.000	239.480	80.000	20.008	100.229	20.067	16.768	0.553
363.500	239.719	80.000	20.009	100.238	20.067	16.799	0.484
364.000	240.014	80.000	20.009	100.246	20.065	17.050	0.486
364.500	240.228	79.999	20.008	100.253	20.069	16.498	0.522
365.000	240.511	80.000	20.008	100.258	20.070	16.393	0.503
365.500	240.743	80.001	20.008	100.260	20.070	16.331	0.506
366.000	240.944	80.001	20.008	100.252	20.071	16.248	0.474
366.500	241.217	80.001	20.009	100.243	20.070	16.315	0.453
367.000	241.503	80.001	20.009	100.226	20.067	16.772	0.517
367.500	241.801	80.000	20.009	100.212	20.071	16.142	0.571
368.000	242.007	80.001	20.009	100.200	20.067	16.801	0.543
368.500	242.317	80.000	20.009	100.198	20.067	16.859	0.510
369.000	242.568	79.998	20.010	100.200	20.064	17.210	0.539
369.500	242.829	80.002	20.005	100.246	20.066	17.001	0.537
370.000	243.085	80.000	20.011	100.221	20.065	17.057	0.514
370.500	243.325	80.002	20.009	100.182	20.066	17.000	0.506
371.000	243.557	80.000	20.008	100.150	20.065	17.149	0.485
371.500	243.804	80.001	20.006	100.133	20.066	17.000	0.476
372.001	244.101	80.001	20.011	100.070	20.065	17.113	0.511
372.500	244.342	80.001	20.008	100.087	20.067	16.860	0.541
373.000	244.611	79.999	20.006	100.142	20.070	16.349	0.524
373.500	244.852	80.003	20.009	100.180	20.067	16.709	0.510
374.000	245.097	80.001	20.010	100.179	20.069	16.435	0.498
374.500	245.379	80.002	20.007	100.225	20.071	16.191	0.507
375.000	245.622	80.000	20.008	100.259	20.068	16.648	0.526
375.500	245.870	80.001	20.008	100.263	20.065	17.097	0.508
376.000	246.096	79.999	20.007	100.266	20.065	17.071	0.483
376.500	246.340	80.000	20.008	100.291	20.069	16.493	0.472
377.000	246.603	80.000	20.008	100.273	20.069	16.455	0.489
377.500	246.874	80.001	20.007	100.252	20.069	16.463	0.520
378.000	247.133	80.002	20.008	100.238	20.067	16.815	0.531
378.500	247.404	80.002	20.008	100.238	20.069	16.468	0.530
379.000	247.653	80.002	20.008	100.238	20.071	16.128	0.526
379.500	247.877	80.001	20.007	100.246	20.071	16.229	0.496
380.000	248.134	80.001	20.008	100.251	20.070	16.268	0.476
380.500	248.421	80.002	20.008	100.254	20.069	16.433	0.513
381.000	248.679	80.001	20.008	100.246	20.069	16.553	0.545
381.500	248.953	80.003	20.008	100.233	20.071	16.201	0.538
382.000	249.213	80.001	20.008	100.223	20.071	16.110	0.533
382.500	249.458	80.000	20.008	100.216	20.071	16.238	0.519
383.000	249.708	80.001	20.008	100.212	20.069	16.554	0.500
383.500	249.948	80.001	20.008	100.212	20.072	16.039	0.492
384.000	250.142	80.001	20.008	100.213	20.073	15.857	0.462
384.500	250.423	80.001	20.008	100.208	20.070	16.268	0.454
385.000	250.657	80.000	20.008	100.196	20.071	16.121	0.495
385.500	250.911	80.001	20.008	100.181	20.073	15.786	0.502
386.000	251.169	80.002	20.008	100.171	20.073	15.903	0.500
386.500	251.460	80.001	20.008	100.167	20.072	15.963	0.531
387.000	251.698	80.001	20.008	100.166	20.071	16.184	0.539
387.500	251.939	80.001	20.008	100.172	20.074	15.776	0.504
388.000	252.191	80.001	20.009	100.179	20.070	16.317	0.486
388.500	252.417	80.001	20.008	100.179	20.069	16.446	0.486
389.000	252.681	80.001	20.008	100.179	20.069	16.440	0.484
389.500	252.902	80.002	20.008	100.183	20.070	16.302	0.487
390.000	253.160	80.001	20.008	100.191	20.069	16.418	0.482
390.500	253.448	80.000	20.008	100.199	20.070	16.315	0.512
391.000	253.638	80.001	20.009	100.210	20.068	16.718	0.512
391.500	253.897	80.001	20.008	100.212	20.070	16.400	0.464
392.000	254.105	80.002	20.008	100.208	20.069	16.510	0.458
392.500	254.371	80.002	20.009	100.201	20.068	16.581	0.471
393.000	254.633	80.000	20.008	100.198	20.070	16.331	0.501
393.500	254.896	80.001	20.009	100.200	20.071	16.168	0.526
394.000	255.116	80.002	20.008	100.206	20.069	16.438	0.504
394.500	255.370	80.000	20.008	100.213	20.069	16.460	0.478
395.000	255.641	80.001	20.008	100.221	20.068	16.644	0.500
395.500	255.863	80.001	20.008	100.217	20.066	16.974	0.509
396.000	256.132	80.002	20.008	100.210	20.065	17.106	0.492
396.500	256.329	80.001	20.009	100.210	20.067	16.858	0.478
397.000	256.603	80.001	20.008	100.210	20.067	16.792	0.469
397.500	256.832	80.001	20.007	100.216	20.068	16.659	0.488
398.000	257.092	80.001	20.008	100.229	20.069	16.488	0.496
398.500	257.361	80.001	20.008	100.244	20.068	16.619	0.508
399.000	257.636	80.001	20.008	100.250	20.069	16.462	0.536
399.500	257.887	80.001	20.008	100.254	20.068	16.637	0.535
400.000	258.142	80.000	20.008	100.249	20.068	16.661	0.516
400.500	258.384	80.001	20.008	100.241	20.069	16.478	0.502
401.000	258.619	80.002	20.008	100.233	20.068	16.667	0.488
401.500	258.897	80.001	20.008	100.235	20.067	16.781	0.495
402.000	259.170	80.001	20.008	100.239	20.071	16.123	0.532
402.501	259.354	80.000	20.008	100.245	20.070	16.268	0.504
403.000	259.616	80.002	20.008	100.246	20.070	16.256	0.451
403.500	259.892	80.001	20.008	100.245	20.072	15.990	0.492
404.001	260.140	80.001	20.008	100.242	20.069	16.477	0.532
404.501	260.365	80.002	20.008	100.241	20.068	16.617	0.499
405.000	260.610	79.999	20.008	100.243	20.067	16.780	0.471
405.500	260.875	80.001	20.007	100.251	20.067	16.777	0.490
406.000	261.127	80.001	20.008	100.259	20.070	16.283	0.513
406.500	261.381	80.001	20.008	100.257	20.069	16.494	0.511
407.000	261.585	80.000	20.008	100.251	20.068	16.706	0.482
407.500	261.848	80.000	20.007	100.243	20.068	16.630	0.463
408.000	262.102	80.001	20.008	100.235	20.070	16.372	0.492
408.500	262.363	80.000	20.008	100.233	20.069	16.471	0.516
409.000	262.629	80.001	20.008	100.232	20.064	17.194	0.521
409.500	262.837	80.001	20.007	100.232	20.070	16.383	0.500
410.000	263.052	80.001	20.007	100.231	20.067	16.850	0.448
410.500	263.319	80.001	20.008	100.224	20.068	16.638	0.453
411.000	263.563	80.001	20.008	100.210	20.067	16.836	0.496
411.500	263.791	80.001	20.008	100.201	20.066	17.011	0.491
412.000	264.055	80.000	20.008	100.193	20.065	17.149	0.482
412.500	264.319	80.000	20.007	100.192	20.063	17.392	0.510
413.000	264.593	80.000	20.007	100.199	20.065	17.073	0.533
413.500	264.827	80.000	20.008	100.207	20.062	17.573	0.523
414.000	265.083	80.001	20.008	100.214	20.065	17.030	0.499
414.500	265.356	80.000	20.007	100.221	20.064	17.248	0.510
415.000	265.591	80.002	20.008	100.223	20.061	17.747	0.519
415.500	265.851	80.001	20.008	100.221	20.063	17.391	0.501
416.000	266.091	80.002	20.008	100.227	20.063	17.418	0.497
416.500	266.374	80.001	20.007	100.234	20.065	17.164	0.511
417.000	266.615	80.000	20.007	100.243	20.063	17.379	0.524
417.500	266.851	80.000	20.008	100.251	20.067	16.746	0.501
418.000	267.171	80.001	20.008	100.259	20.066	16.924	0.517
418.500	267.410	80.000	20.008	100.257	20.065	17.095	0.557
419.000	267.668	80.002	20.008	100.250	20.066	16.992	0.528
419.500	267.897	80.001	20.008	100.248	20.064	17.224	0.492
420.000	268.134	80.001	20.008	100.247	20.063	17.422	0.477
420.500	268.404	80.002	20.008	100.248	20.063	17.470	0.487
421.000	268.623	80.001	20.008	100.249	20.061	17.670	0.498
421.500	268.924	80.001	20.008	100.248	20.061	17.716	0.505
422.000	269.144	80.001	20.008	100.241	20.062	17.576	0.521
422.500	269.399	80.001	20.008	100.232	20.060	17.831	0.498
423.000	269.670	80.000	20.008	100.223	20.059	17.976	0.500
423.500	269.915	80.001	20.007	100.217	20.060	17.869	0.521
424.000	270.191	80.001	20.008	100.218	20.060	17.868	0.518
424.500	270.463	80.001	20.008	100.217	20.060	17.835	0.535
425.000	270.687	79.999	20.008	100.212	20.058	18.273	0.522
425.500	270.952	80.002	20.008	100.205	20.057	18.364	0.493
426.000	271.204	80.001	20.008	100.195	20.057	18.399	0.503
426.500	271.451	80.001	20.008	100.180	20.054	18.753	0.508
427.000	271.707	80.001	20.007	100.173	20.054	18.869	0.501
427.500	271.988	80.001	20.008	100.172	20.055	18.676	0.520
428.000	272.202	80.001	20.008	100.174	20.056	18.443	0.516
428.500	272.472	80.001	20.008	100.176	20.055	18.707	0.489
429.000	272.732	80.001	20.009	100.183	20.055	18.655	0.507
429.500	272.964	80.001	20.009	100.183	20.057	18.430	0.511
430.000	273.218	80.002	20.008	100.188	20.057	18.401	0.489
430.500	273.443	80.001	20.008	100.195	20.055	18.738	0.483
431.000	273.718	80.001	20.008	100.208	20.054	18.827	0.490
431.500	273.979	80.000	20.008	100.224	20.053	18.909	0.518
432.000	274.213	80.001	20.008	100.239	20.054	18.796	0.515
432.500	274.501	80.001	20.007	100.244	20.055	18.743	0.508
433.000	274.725	80.002	20.008	100.242	20.054	18.826	0.517
433.500	274.999	80.000	20.007	100.237	20.053	18.954	0.505
434.000	275.260	80.000	20.008	100.227	20.052	19.112	0.517
434.500	275.499	80.001	20.008	100.222	20.052	19.127	0.518
435.000	275.793	80.001	20.008	100.220	20.052	19.100	0.517
435.500	276.084	80.001	20.007	100.220	20.049	19.675	0.559
436.000	276.282	80.002	20.008	100.215	20.047	19.864	0.536
436.500	276.555	80.001	20.008	100.210	20.049	19.634	0.480
437.000	276.784	80.001	20.008	100.205	20.048	19.784	0.487
437.500	277.060	80.001	20.008	100.206	20.050	19.430	0.504
438.000	277.278	80.000	20.008	100.214	20.050	19.439	0.500
438.500	277.579	80.001	20.007	100.228	20.050	19.511	0.506
439.000	277.816	80.001	20.008	100.237	20.048	19.745	0.528
439.500	278.052	80.003	20.008	100.240	20.047	19.996	0.506
440.000	278.329	80.000	20.008	100.239	20.047	19.924	0.493
440.500	278.573	80.002	20.008	100.232	20.044	20.431	0.517
441.000	278.853	80.002	20.008	100.224	20.046	20.105	0.522
441.500	279.053	80.001	20.008	100.221	20.044	20.313	0.502
442.000	279.319	80.000	20.008	100.225	20.044	20.389	0.473
442.500	279.569	80.001	20.008	100.227	20.040	21.020	0.491
443.000	279.789	80.002	20.008	100.227	20.040	20.972	0.493
443.500	280.096	80.002	20.008	100.227	20.041	20.848	0.499
444.000	280.350	80.000	20.008	100.227	20.037	21.520	0.544
444.500	280.582	80.002	20.008	100.223	20.039	21.204	0.523
445.000	280.839	80.001	20.008	100.222	20.040	21.092	0.487
445.500	281.089	80.001	20.007	100.222	20.038	21.289	0.497
446.000	281.359	80.001	20.008	100.222	20.039	21.165	0.513
446.500	281.624	80.001	20.008	100.221	20.037	21.412	0.528
447.000	281.845	80.001	20.008	100.214	20.039	21.234	0.511
447.500	282.094	80.002	20.008	100.206	20.038	21.324	0.478
448.000	282.349	80.000	20.008	100.205	20.037	21.526	0.487
448.500	282.635	80.002	20.008	100.205	20.035	21.849	0.522
449.000	282.874	80.001	20.008	100.207	20.035	21.785	0.533
449.500	283.106	80.001	20.008	100.214	20.033	22.094	0.498
450.000	283.381	80.001	20.008	100.222	20.034	21.961	0.489
450.500	283.621	80.002	20.008	100.220	20.031	22.358	0.511
451.000	283.833	80.001	20.008	100.213	20.032	22.234	0.483
451.500	284.116	79.999	20.008	100.210	20.032	22.198	0.474
452.000	284.377	80.002	20.008	100.209	20.034	22.009	0.520
452.501	284.659	80.001	20.008	100.210	20.035	21.857	0.543
453.001	284.891	80.001	20.008	100.213	20.035	21.777	0.528
453.500	285.180	80.000	20.008	100.221	20.033	22.080	0.517
454.000	285.421	80.001	20.008	100.224	20.031	22.401	0.526
454.500	285.671	80.001	20.008	100.222	20.032	22.289	0.511
455.000	285.936	80.002	20.008	100.223	20.029	22.745	0.503
455.500	286.140	80.001	20.008	100.224	20.032	22.193	0.492
456.000	286.391	80.001	20.008	100.229	20.031	22.444	0.462
456.500	286.635	80.002	20.008	100.237	20.032	22.200	0.475
457.000	286.882	80.001	20.008	100.246	20.031	22.350	0.493
457.500	287.089	80.000	20.008	100.252	20.031	22.464	0.472
458.000	287.418	80.001	20.008	100.251	20.030	22.641	0.495
458.500	287.616	80.001	20.008	100.245	20.027	22.986	0.532
459.000	287.872	80.002	20.008	100.237	20.025	23.361	0.491
459.500	288.110	80.001	20.008	100.236	20.023	23.672	0.473
460.000	288.381	80.002	20.008	100.237	20.025	23.386	0.501
460.500	288.649	80.000	20.008	100.241	20.023	23.741	0.524
461.000	288.888	80.001	20.008	100.241	20.021	23.949	0.523
461.500	289.107	80.002	20.008	100.239	20.022	23.835	0.483
462.000	289.391	80.001	20.008	100.232	20.019	24.299	0.481
462.500	289.607	80.001	20.008	100.225	20.019	24.234	0.501
463.000	289.894	80.001	20.008	100.222	20.018	24.409	0.501
463.500	290.137	80.002	20.007	100.225	20.017	24.630	0.517
464.000	290.384	80.001	20.008	100.230	20.018	24.503	0.511
464.500	290.610	80.002	20.008	100.230	20.014	25.060	0.482
465.000	290.881	80.000	20.008	100.230	20.013	25.177	0.485
465.500	291.156	80.003	20.008	100.228	20.014	25.024	0.522
466.000	291.390	80.001	20.008	100.225	20.014	25.090	0.528
466.500	291.603	80.002	20.008	100.222	20.015	24.894	0.478
467.000	291.869	80.000	20.008	100.224	20.013	25.279	0.463
467.500	292.120	80.001	20.007	100.226	20.015	24.893	0.497
468.000	292.412	80.001	20.008	100.226	20.013	25.229	0.530
468.500	292.657	80.002	20.008	100.224	20.014	25.011	0.540
469.000	292.913	80.000	20.008	100.222	20.014	25.083	0.519
469.500	293.118	80.001	20.008	100.224	20.013	25.184	0.482
470.000	293.402	80.000	20.008	100.230	20.013	25.230	0.475
470.500	293.637	80.000	20.008	100.239	20.012	25.454	0.504
471.000	293.886	80.001	20.007	100.248	20.010	25.661	0.502
471.500	294.109	80.001	20.008	100.251	20.011	25.530	0.478
472.000	294.367	80.001	20.007	100.247	20.012	25.404	0.477
472.500	294.676	80.001	20.007	100.235	20.012	25.472	0.524
473.000	294.876	80.002	20.009	100.224	20.009	25.930	0.537
473.500	295.143	80.002	20.008	100.216	20.006	26.326	0.488
474.000	295.399	80.001	20.008	100.217	20.007	26.148	0.496
474.500	295.608	80.001	20.008	100.223	20.008	26.034	0.494
475.000	295.875	80.002	20.007	100.230	20.006	26.293	0.470
475.500	296.150	80.000	20.007	100.232	20.007	26.178	0.509
476.000	296.350	80.001	20.008	100.233	20.006	26.279	0.508
476.500	296.605	80.001	20.008	100.230	20.005	26.476	0.465
477.000	296.905	80.000	20.008	100.228	20.004	26.633	0.505
477.500	297.130	80.001	20.008	100.233	20.005	26.554	0.540
478.000	297.367	80.001	20.008	100.241	20.003	26.856	0.494
478.500	297.637	80.001	20.007	100.247	20.006	26.332	0.485
479.000	297.868	80.001	20.008	100.249	20.004	26.628	0.504
479.500	298.142	80.001	20.008	100.245	20.006	26.301	0.503
480.000	298.391	80.001	20.008	100.236	20.001	27.106	0.514
480.500	298.605	80.001	20.008	100.229	20.003	26.883	0.493
481.000	298.871	80.002	20.008	100.221	20.002	26.956	0.472
481.500	299.156	80.003	20.008	100.224	20.004	26.667	0.515
482.000	299.398	80.000	20.008	100.232	20.000	27.298	0.539
482.500	299.640	80.000	20.007	100.240	20.004	26.592	0.506
483.000	299.886	80.002	20.008	100.240	20.002	27.027	0.486
483.500	300.187	79.999	20.008	100.238	20.000	27.192	0.517
484.000	300.366	80.002	20.008	100.233	20.001	27.184	0.514
484.500	300.692	80.001	20.008	100.225	19.999	27.457	0.492
485.000	300.939	80.002	20.008	100.223	19.998	27.518	0.539
485.500	301.174	80.001	20.008	100.230	19.999	27.446	0.528
486.000	301.395	80.001	20.008	100.237	20.000	27.333	0.469
486.500	301.653	80.000	20.007	100.237	19.999	27.471	0.467
487.000	301.910	80.000	20.008	100.237	20.001	27.121	0.496
487.500	302.162	80.001	20.008	100.231	19.999	27.496	0.512
488.000	302.417	80.001	20.008	100.225	20.002	26.897	0.508
488.500	302.641	80.001	20.008	100.225	20.002	27.020	0.493
489.000	302.900	80.002	20.007	100.232	20.000	27.246	0.481
489.500	303.149	79.999	20.008	100.241	20.002	26.900	0.496
490.000	303.388	80.001	20.008	100.247	20.000	27.201	0.498
490.500	303.652	80.001	20.008	100.247	20.001	27.128	0.496
491.000	303.900	80.001	20.008	100.242	19.998	27.528	0.508
491.500	304.145	80.001	20.008	100.235	19.998	27.622	0.503
492.000	304.390	80.000	20.008	100.228	19.998	27.534	0.491
492.500	304.644	80.001	20.008	100.229	20.000	27.322	0.495
493.000	304.886	80.000	20.008	100.237	19.998	27.522	0.497
493.500	305.143	80.001	20.008	100.242	19.993	28.293	0.497
494.000	305.452	80.000	20.008	100.242	19.993	28.315	0.532
494.500	305.673	80.001	20.008	100.237	19.994	28.154	0.548
495.000	305.914	80.001	20.008	100.224	19.994	28.198	0.496
495.500	306.183	80.001	20.008	100.216	19.990	28.776	0.486
496.000	306.444	80.000	20.008	100.212	19.991	28.654	0.520
496.500	306.720	80.001	20.007	100.214	19.990	28.759	0.534
497.000	306.969	80.001	20.008	100.220	19.989	28.917	0.531
497.500	307.232	80.000	20.007	100.226	19.990	28.898	0.518
498.000	307.435	80.002	20.008	100.221	19.989	28.964	0.489
498.500	307.711	80.001	20.008	100.212	19.988	29.133	0.472
499.000	307.981	80.001	20.008	100.208	19.984	29.777	0.513
499.500	308.246	80.002	20.008	100.206	19.987	29.376	0.541
500.000	308.520	80.001	20.008	100.208	19.985	29.567	0.537
500.500	308.741	80.000	20.008	100.213	19.983	29.992	0.517
501.000	309.001	80.002	20.008	100.222	19.982	30.069	0.488
501.500	309.277	80.001	20.008	100.224	19.982	30.154	0.509
502.000	309.473	80.001	20.008	100.215	19.981	30.233	0.504
502.500	309.786	80.002	20.008	100.206	19.977	30.835	0.491
503.000	310.043	80.000	20.008	100.198	19.979	30.546	0.539
503.500	310.280	80.002	20.008	100.196	19.978	30.689	0.531
504.000	310.565	80.001	20.008	100.197	19.976	31.007	0.508
504.500	310.798	80.000	20.008	100.203	19.976	31.028	0.521
505.000	311.104	80.002	20.007	100.206	19.976	31.008	0.529
505.500	311.326	80.002	20.008	100.205	19.973	31.426	0.534
506.000	311.610	80.002	20.008	100.199	19.971	31.808	0.516
506.500	311.860	80.000	20.008	100.191	19.971	31.841	0.519
507.000	312.087	80.002	20.008	100.187	19.965	32.676	0.506
507.500	312.333	80.001	20.007	100.190	19.966	32.625	0.475
508.000	312.650	80.000	20.007	100.195	19.964	32.906	0.518
508.500	312.886	80.001	20.008	100.196	19.964	32.809	0.558
509.000	313.085	80.001	20.008	100.196	19.963	33.060	0.493
509.500	313.373	80.001	20.008	100.194	19.957	34.044	0.461
510.000	313.624	80.001	20.008	100.191	19.960	33.591	0.513
510.500	313.837	80.001	20.008	100.194	19.958	33.901	0.502
511.000	314.099	80.000	20.008	100.206	19.960	33.593	0.469
511.500	314.340	80.001	20.008	100.218	19.957	33.938	0.489
512.000	314.621	80.000	20.007	100.229	19.957	34.032	0.513
512.500	314.876	80.001	20.008	100.235	19.954	34.482	0.529
513.000	315.105	80.001	20.007	100.233	19.948	35.351	0.510
513.500	315.388	80.003	20.008	100.229	19.946	35.701	0.498
514.000	315.658	79.999	20.008	100.223	19.946	35.636	0.533
514.500	315.857	80.001	20.008	100.220	19.942	36.343	0.511
515.000	316.105	80.000	20.008	100.219	19.941	36.554	0.458
515.500	316.380	80.000	20.008	100.221	19.939	36.824	0.485
516.000	316.637	80.001	20.008	100.213	19.935	37.359	0.528
516.500	316.894	80.000	20.008	100.207	19.934	37.566	0.523
517.001	317.138	80.002	20.008	100.199	19.931	37.978	0.507
517.500	317.430	80.002	20.008	100.192	19.931	38.112	0.519
518.000	317.692	80.001	20.008	100.191	19.928	38.568	0.545
518.500	317.937	80.002	20.008	100.197	19.924	39.163	0.530
519.000	318.198	80.001	20.007	100.203	19.924	39.084	0.507
519.500	318.422	80.000	20.008	100.203	19.921	39.622	0.496
520.001	318.713	80.001	20.007	100.202	19.919	39.993	0.500
520.500	318.984	80.000	20.008	100.197	19.916	40.470	0.538
521.000	319.234	80.002	20.008	100.189	19.913	40.879	0.541
521.500	319.451	80.000	20.008	100.184	19.910	41.278	0.494
522.000	319.729	80.001	20.008	100.186	19.907	41.780	0.481
522.500	319.980	80.000	20.008	100.194	19.904	42.295	0.512
523.000	320.186	80.001	20.008	100.202	19.901	42.684	0.493
523.500	320.486	80.000	20.008	100.209	19.900	42.973	0.481
524.000	320.764	80.001	20.008	100.217	19.898	43.148	0.542
524.500	321.018	79.999	20.008	100.223	19.895	43.756	0.555
525.000	321.279	80.001	20.008	100.225	19.894	43.827	0.524
525.500	321.532	79.999	20.008	100.229	19.889	44.646	0.515
526.000	321.744	80.000	20.008	100.229	19.887	44.882	0.489
526.500	322.053	80.002	20.008	100.228	19.885	45.189	0.493
527.000	322.308	80.000	20.008	100.223	19.879	46.158	0.543
527.500	322.579	80.000	20.008	100.213	19.878	46.389	0.545
528.000	322.849	80.001	20.008	100.203	19.876	46.746	0.534
528.500	323.077	80.000	20.008	100.199	19.871	47.474	0.519
529.000	323.336	80.000	20.008	100.199	19.868	47.892	0.492
529.500	323.576	80.001	20.008	100.205	19.863	48.611	0.493
530.000	323.863	80.000	20.007	100.213	19.861	48.921	0.513
530.500	324.113	80.001	20.008	100.218	19.856	49.743	0.533
531.000	324.352	80.000	20.008	100.217	19.850	50.757	0.513
531.500	324.609	80.001	20.008	100.217	19.847	51.098	0.492
532.000	324.894	80.000	20.008	100.218	19.842	52.033	0.518
532.500	325.141	80.000	20.007	100.218	19.836	52.942	0.537
533.000	325.396	80.001	20.007	100.219	19.833	53.406	0.517
533.500	325.640	80.000	20.008	100.223	19.831	53.683	0.501
534.000	325.887	80.001	20.007	100.221	19.828	54.048	0.495
534.500	326.161	80.000	20.008	100.212	19.820	55.374	0.506
535.000	326.394	80.000	20.008	100.203	19.815	56.191	0.514
535.500	326.617	80.000	20.008	100.201	19.809	57.102	0.481
536.000	326.909	80.001	20.008	100.201	19.796	59.192	0.485
536.500	327.130	79.999	20.008	100.204	19.786	60.751	0.514
537.000	327.395	80.001	20.007	100.212	19.777	62.105	0.500
537.500	327.642	80.001	20.008	100.219	19.769	63.381	0.499
538.000	327.839	80.001	20.007	100.222	19.763	64.346	0.478
538.500	328.135	80.000	20.008	100.222	19.754	65.736	0.469
539.000	328.364	80.001	20.008	100.225	19.747	66.850	0.509
539.500	328.645	80.000	20.007	100.233	19.743	67.449	0.517
540.000	328.898	80.000	20.008	100.240	19.736	68.587	0.522
540.500	329.171	80.001	20.008	100.247	19.728	69.783	0.530
541.000	329.442	80.000	20.008	100.248	19.726	70.083	0.535
541.500	329.700	80.000	20.008	100.242	19.722	70.742	0.536
542.000	329.954	80.001	20.008	100.226	19.717	71.548	0.520
542.500	330.186	80.001	20.008	100.210	19.709	72.718	0.499
543.000	330.448	80.000	20.008	100.195	19.704	73.508	0.490
543.500	330.740	80.001	20.008	100.187	19.704	73.589	0.524
544.000	330.969	80.000	20.008	100.186	19.699	74.399	0.537
544.500	331.180	80.001	20.008	100.188	19.691	75.525	0.480
545.000	331.479	80.000	20.007	100.188	19.690	75.776	0.475
545.500	331.692	80.001	20.008	100.184	19.681	77.146	0.511
546.000	331.984	80.001	20.008	100.175	19.678	77.604	0.508
546.500	332.214	80.000	20.008	100.162	19.673	78.384	0.514
547.000	332.410	80.001	20.008	100.153	19.667	79.422	0.475
547.500	332.662	79.999	20.008	100.144	19.666	79.569	0.437
548.000	332.903	79.999	20.008	100.141	19.659	80.638	0.470
548.500	333.121	80.000	20.008	100.141	19.653	81.534	0.476
549.000	333.404	80.000	20.008	100.142	19.650	82.016	0.480
549.500	333.684	80.001	20.008	100.142	19.643	83.035	0.532
550.000	333.943	80.001	20.008	100.144	19.638	83.877	0.551
550.500	334.191	80.001	20.008	100.152	19.632	84.822	0.523
551.000	334.414	80.002	20.008	100.163	19.629	85.300	0.489
551.500	334.658	80.001	20.008	100.178	19.622	86.341	0.469
552.000	334.921	80.000	20.008	100.194	19.615	87.424	0.487
552.500	335.173	80.001	20.008	100.207	19.608	88.593	0.511
553.000	335.412	80.000	20.008	100.208	19.602	89.426	0.503
553.500	335.656	80.001	20.008	100.204	19.596	90.406	0.487
554.000	335.916	80.000	20.008	100.203	19.588	91.586	0.493
554.500	336.138	80.000	20.008	100.205	19.580	92.854	0.493
555.000	336.434	80.001	20.008	100.215	19.569	94.693	0.500
555.500	336.667	79.999	20.008	100.228	19.560	96.045	0.523
556.000	336.959	80.000	20.009	100.238	19.552	97.231	0.527
556.500	337.153	80.002	20.008	100.240	19.540	99.145	0.505
557.001	337.446	80.000	20.008	100.237	19.532	100.462	0.486
557.501	337.672	80.000	20.007	100.231	19.524	101.645	0.503
558.000	337.910	79.999	20.008	100.231	19.514	103.272	0.492
558.500	338.172	80.001	20.008	100.238	19.506	104.490	0.483
559.000	338.408	80.000	20.008	100.244	19.497	105.968	0.499
559.500	338.675	80.000	20.008	100.253	19.490	106.944	0.500
560.000	338.887	79.999	20.008	100.254	19.486	107.628	0.491
560.500	339.152	80.001	20.008	100.247	19.478	108.912	0.477
561.000	339.397	80.001	20.009	100.233	19.470	110.173	0.494
561.500	339.642	80.001	20.008	100.225	19.463	111.238	0.501
562.000	339.876	79.999	20.009	100.217	19.455	112.425	0.484
562.500	340.153	80.001	20.009	100.215	19.448	113.500	0.495
563.000	340.384	79.999	20.009	100.214	19.439	114.925	0.509
563.500	340.612	80.001	20.008	100.219	19.432	116.097	0.484
564.000	340.877	80.001	20.009	100.213	19.425	117.065	0.476
564.500	341.119	80.000	20.009	100.205	19.414	118.809	0.500
565.000	341.353	80.001	20.009	100.197	19.408	119.816	0.491
565.500	341.619	80.001	20.008	100.190	19.397	121.464	0.488
566.000	341.825	79.999	20.008	100.183	19.387	123.132	0.486
566.500	342.079	80.001	20.009	100.183	19.380	124.120	0.466
567.000	342.350	80.001	20.009	100.183	19.370	125.739	0.493
567.500	342.653	80.001	20.009	100.183	19.363	126.809	0.550
568.000	342.870	80.000	20.009	100.183	19.354	128.290	0.547
568.500	343.112	80.000	20.009	100.184	19.343	129.998	0.490
569.000	343.353	80.002	20.009	100.184	19.334	131.432	0.471
569.500	343.603	80.000	20.009	100.189	19.320	133.577	0.487
570.000	343.847	80.001	20.009	100.198	19.316	134.168	0.492
570.500	344.089	80.001	20.009	100.206	19.306	135.783	0.491
571.000	344.310	80.001	20.008	100.213	19.298	137.046	0.475
571.500	344.582	80.001	20.010	100.219	19.288	138.650	0.478
572.000	344.864	80.001	20.009	100.216	19.278	140.163	0.523
572.500	345.117	80.000	20.009	100.212	19.269	141.528	0.544
573.000	345.336	80.002	20.009	100.212	19.262	142.730	0.504
573.500	345.551	80.001	20.009	100.211	19.254	143.961	0.453
574.000	345.798	80.000	20.009	100.213	19.245	145.348	0.448
574.500	346.049	80.000	20.009	100.217	19.237	146.519	0.480
575.000	346.308	80.001	20.008	100.215	19.231	147.515	0.504
575.500	346.534	80.000	20.009	100.208	19.223	148.750	0.497
576.000	346.842	80.000	20.010	100.200	19.216	149.930	0.510
576.500	347.059	80.001	20.010	100.194	19.208	151.184	0.530
577.000	347.275	80.000	20.009	100.194	19.201	152.194	0.479
577.500	347.565	79.999	20.008	100.200	19.191	153.845	0.469
578.000	347.794	80.000	20.009	100.208	19.182	155.120	0.512
578.500	348.014	80.000	20.009	100.213	19.176	156.134	0.484
579.000	348.265	80.000	20.009	100.212	19.165	157.915	0.460
579.500	348.510	80.001	20.009	100.205	19.155	159.418	0.483
580.000	348.741	79.999	20.009	100.200	19.143	161.239	0.486
580.500	349.009	80.000	20.009	100.199	19.132	162.995	0.488
581.000	349.238	79.999	20.009	100.203	19.122	164.520	0.499
581.500	349.467	80.001	20.009	100.211	19.113	166.087	0.478
582.000	349.738	79.999	20.008	100.218	19.104	167.487	0.479
582.500	349.991	80.001	20.009	100.224	19.095	168.842	0.512
583.000	350.222	80.000	20.009	100.223	19.087	170.018	0.504
583.500	350.491	79.999	20.009	100.223	19.081	171.020	0.492
584.000	350.690	80.000	20.009	100.228	19.075	172.010	0.484
584.500	350.958	80.000	20.009	100.237	19.068	173.043	0.467
585.000	351.172	80.000	20.009	100.244	19.062	174.057	0.474
585.500	351.435	80.001	20.008	100.253	19.055	175.106	0.480
586.000	351.742	80.000	20.008	100.259	19.047	176.249	0.524
586.500	351.990	79.999	20.009	100.254	19.040	177.434	0.563
587.000	352.221	80.001	20.009	100.246	19.033	178.561	0.517
587.500	352.492	79.999	20.008	100.238	19.026	179.624	0.490
588.000	352.722	80.000	20.009	100.230	19.021	180.363	0.501
588.500	352.985	80.000	20.008	100.224	19.014	181.571	0.497
589.000	353.212	79.999	20.008	100.232	19.006	182.804	0.492
589.500	353.494	80.000	20.008	100.237	18.996	184.344	0.499
590.000	353.701	80.000	20.009	100.241	18.992	184.972	0.499
590.500	353.935	80.001	20.009	100.244	18.981	186.600	0.465
591.000	354.183	80.000	20.009	100.244	18.974	187.763	0.462
591.500	354.476	80.000	20.009	100.237	18.968	188.678	0.511
592.000	354.706	80.000	20.008	100.237	18.958	190.321	0.532
592.500	354.974	80.001	20.008	100.241	18.952	191.129	0.511
593.000	355.230	80.000	20.009	100.243	18.943	192.601	0.511
593.500	355.466	80.000	20.009	100.250	18.938	193.323	0.508
594.000	355.688	79.999	20.008	100.257	18.929	194.717	0.475
594.500	355.958	80.001	20.009	100.259	18.924	195.519	0.475
595.000	356.180	80.000	20.009	100.258	18.920	196.076	0.493
595.500	356.463	79.999	20.009	100.260	18.912	197.434	0.499
596.000	356.699	80.000	20.008	100.260	18.906	198.298	0.512
596.500	356.924	79.999	20.008	100.260	18.900	199.327	0.490
597.001	357.151	80.000	20.008	100.261	18.895	200.023	0.457
597.501	357.404	80.000	20.009	100.260	18.892	200.548	0.466
598.000	357.657	80.000	20.009	100.256	18.889	201.176	0.493
598.500	357.923	80.001	20.009	100.249	18.886	201.643	0.512
599.000	358.168	80.000	20.009	100.245	18.882	202.325	0.515
599.500	358.443	80.000	20.009	100.244	18.878	202.902	0.516
600.000	358.688	80.000	20.008	100.248	18.875	203.345	0.520
600.500	358.903	80.001	20.008	100.253	18.869	204.242	0.490
601.000	359.177	80.000	20.009	100.260	18.866	204.720	0.474
601.500	359.402	79.999	20.009	100.261	18.861	205.516	0.494
602.000	359.629	80.001	20.009	100.255	18.858	205.900	0.476
602.500	359.869	79.999	20.008	100.249	18.853	206.718	0.460
603.000	360.136	80.000	20.009	100.248	18.850	207.181	0.487
603.501	360.378	80.001	20.009	100.249	18.847	207.650	0.508
604.000	360.672	80.000	20.009	100.252	18.842	208.436	0.523
604.500	360.925	79.999	20.009	100.257	18.841	208.624	0.542
605.000	361.146	79.999	20.009	100.258	18.833	209.857	0.510
605.500	361.394	80.001	20.009	100.251	18.831	210.148	0.471
606.000	361.636	80.000	20.009	100.245	18.830	210.360	0.479
606.500	361.869	80.000	20.008	100.237	18.827	210.770	0.482
607.000	362.096	80.001	20.008	100.231	18.823	211.438	0.468
607.500	362.394	80.001	20.009	100.226	18.820	211.937	0.493
608.000	362.586	79.999	20.009	100.226	18.821	211.793	0.508
608.500	362.832	80.001	20.009	100.224	18.819	212.085	0.465
609.000	363.046	79.999	20.009	100.224	18.819	212.095	0.449
609.500	363.297	80.000	20.009	100.233	18.814	212.846	0.462
610.000	363.578	80.000	20.009	100.248	18.813	212.986	0.499
610.500	363.809	79.999	20.008	100.271	18.812	213.184	0.522
611.000	364.059	80.001	20.008	100.294	18.811	213.305	0.496
611.500	364.288	80.000	20.009	100.318	18.811	213.218	0.480
612.000	364.571	79.999	20.009	100.328	18.806	214.120	0.495
612.500	364.802	80.001	20.008	100.327	18.805	214.292	0.513
613.000	365.026	80.000	20.009	100.316	18.802	214.686	0.485
613.500	365.267	79.998	20.009	100.305	18.802	214.818	0.460
614.000	365.574	80.000	20.009	100.297	18.799	215.310	0.507
614.500	365.840	79.999	20.009	100.294	18.800	215.131	0.561
615.000	366.084	80.000	20.008	100.294	18.796	215.654	0.542
615.500	366.330	80.000	20.008	100.298	18.795	215.883	0.500
616.000	366.546	80.001	20.009	100.301	18.794	215.941	0.476
616.500	366.817	80.000	20.009	100.301	18.793	216.042	0.475
617.000	367.053	80.001	20.009	100.300	18.791	216.363	0.497
617.500	367.278	79.999	20.009	100.300	18.792	216.179	0.484
618.000	367.514	80.000	20.008	100.304	18.790	216.522	0.461
618.500	367.743	80.000	20.009	100.306	18.790	216.546	0.464
619.000	368.026	79.999	20.009	100.306	18.790	216.519	0.489
619.500	368.276	79.999	20.009	100.307	18.792	216.267	0.522
620.000	368.492	80.000	20.008	100.303	18.793	216.107	0.499
620.500	368.724	79.999	20.008	100.292	18.797	215.511	0.457
621.000	368.964	80.001	20.009	100.283	18.800	215.091	0.460
621.500	369.163	80.000	20.008	100.279	18.803	214.669	0.456
622.000	369.461	79.999	20.009	100.279	18.802	214.762	0.468
622.501	369.694	79.999	20.009	100.284	18.799	215.205	0.515
623.001	369.916	80.000	20.009	100.289	18.798	215.437	0.493
623.500	370.131	79.999	20.008	100.288	18.796	215.706	0.446
624.000	370.411	79.999	20.009	100.279	18.795	215.942	0.465
624.500	370.639	80.001	20.010	100.273	18.790	216.781	0.502
625.000	370.901	80.000	20.009	100.277	18.791	216.642	0.499
625.500	371.136	80.000	20.008	100.286	18.794	216.171	0.493
626.000	371.372	80.000	20.009	100.298	18.798	215.620	0.484
626.500	371.611	80.000	20.009	100.319	18.803	214.768	0.473
627.000	371.894	80.002	20.007	100.329	18.814	212.975	0.499
627.500	372.133	80.000	20.010	100.317	18.823	211.605	0.522
628.000	372.334	80.001	20.008	100.317	18.831	210.183	0.481
628.500	372.591	80.000	20.008	100.316	18.838	209.032	0.448
629.000	372.839	80.000	20.009	100.297	18.846	207.771	0.481
629.500	373.131	79.999	20.008	100.278	18.851	207.022	0.523
630.000	373.341	80.001	20.009	100.270	18.858	205.835	0.521
630.500	373.596	79.999	20.009	100.256	18.865	204.819	0.483
631.000	373.843	80.001	20.009	100.247	18.867	204.389	0.483
631.500	374.102	79.999	20.009	100.243	18.872	203.715	0.504
632.000	374.360	80.001	20.009	100.254	18.874	203.407	0.512
632.500	374.572	80.000	20.008	100.267	18.878	202.786	0.494
633.000	374.792	80.000	20.009	100.274	18.879	202.627	0.451
633.500	375.073	80.000	20.009	100.281	18.884	201.917	0.467
634.000	375.304	80.001	20.008	100.301	18.886	201.465	0.506
634.500	375.536	80.000	20.009	100.307	18.890	200.941	0.487
635.000	375.780	80.000	20.009	100.307	18.891	200.764	0.469
635.500	376.047	80.001	20.009	100.307	18.894	200.246	0.494
636.000	376.267	80.000	20.010	100.310	18.899	199.604	0.500
636.500	376.532	80.000	20.008	100.318	18.903	199.021	0.486
637.000	376.793	80.002	20.008	100.327	18.911	197.687	0.505
637.500	377.061	80.001	20.010	100.350	18.919	196.507	0.527
638.000	377.322	79.999	20.008	100.389	18.929	194.922	0.529
638.500	377.542	80.000	20.008	100.402	18.937	193.627	0.505
639.000	377.752	80.001	20.009	100.395	18.948	191.925	0.456
639.500	377.996	80.001	20.009	100.391	18.958	190.400	0.442
640.000	378.299	80.000	20.009	100.373	18.966	189.083	0.501
640.500	378.512	80.000	20.007	100.340	18.975	187.716	0.532
641.000	378.743	80.000	20.008	100.312	18.985	186.163	0.480
641.500	378.975	80.000	20.010	100.290	18.995	184.628	0.453
642.000	379.192	79.999	20.009	100.284	19.008	182.530	0.456
642.500	379.477	80.001	20.007	100.272	19.019	180.877	0.475
643.000	379.738	80.001	20.009	100.245	19.027	179.567	0.524
643.500	379.940	80.000	20.008	100.242	19.038	177.959	0.505
644.000	380.220	80.000	20.008	100.249	19.050	176.103	0.472
644.500	380.430	80.000	20.009	100.245	19.060	174.531	0.486
645.000	380.710	79.999	20.008	100.255	19.071	172.816	0.490
645.500	380.909	80.000	20.008	100.268	19.081	171.229	0.484
646.000	381.192	80.001	20.010	100.269	19.092	169.530	0.480
646.500	381.420	79.999	20.008	100.273	19.104	167.679	0.497
647.000	381.672	80.000	20.009	100.262	19.119	165.341	0.495
647.500	381.887	80.001	20.008	100.250	19.128	163.944	0.473
648.000	382.127	79.999	20.009	100.255	19.141	161.813	0.461
648.500	382.342	79.999	20.008	100.277	19.151	160.315	0.455
649.000	382.567	80.000	20.008	100.292	19.165	157.974	0.448
649.500	382.794	79.999	20.009	100.313	19.177	156.194	0.446
650.001	383.062	80.000	20.008	100.319	19.190	154.047	0.473
650.500	383.352	80.001	20.008	100.316	19.201	152.358	0.526
651.000	383.528	80.000	20.009	100.305	19.209	151.137	0.512
651.500	383.763	79.999	20.008	100.302	19.220	149.426	0.439
652.000	383.995	80.000	20.008	100.306	19.229	147.928	0.439
652.500	384.232	79.999	20.009	100.318	19.236	146.796	0.468
653.000	384.465	80.002	20.008	100.332	19.246	145.253	0.469
653.500	384.744	79.999	20.008	100.335	19.254	143.973	0.491
654.000	384.966	80.000	20.009	100.332	19.264	142.475	0.506
654.500	385.231	80.001	20.009	100.334	19.273	141.076	0.494
655.000	385.483	80.000	20.009	100.341	19.281	139.791	0.502
655.500	385.731	80.001	20.008	100.349	19.288	138.753	0.509
656.000	385.967	80.001	20.008	100.361	19.297	137.366	0.492
656.500	386.218	80.000	20.009	100.373	19.308	135.662	0.486
657.000	386.456	80.001	20.009	100.376	19.315	134.527	0.488
657.501	386.696	80.001	20.009	100.376	19.323	133.279	0.484
658.000	386.926	80.000	20.009	100.376	19.330	132.161	0.474
658.500	387.200	80.000	20.009	100.376	19.340	130.638	0.487
659.000	387.438	80.000	20.009	100.378	19.351	128.853	0.508
659.500	387.668	80.000	20.008	100.381	19.358	127.859	0.490
660.000	387.945	80.001	20.009	100.384	19.370	125.878	0.488
660.500	388.153	80.000	20.009	100.384	19.376	124.911	0.496
661.000	388.421	80.000	20.009	100.375	19.389	122.989	0.480
661.500	388.634	80.000	20.009	100.368	19.394	122.089	0.478
662.000	388.861	80.001	20.009	100.356	19.404	120.636	0.461
662.500	389.129	79.999	20.009	100.346	19.415	118.830	0.468
663.000	389.387	80.002	20.008	100.339	19.422	117.754	0.510
663.500	389.609	80.001	20.009	100.338	19.431	116.305	0.503
664.000	389.905	80.000	20.008	100.328	19.439	115.115	0.499
664.500	390.128	79.999	20.009	100.319	19.448	113.674	0.519
665.000	390.387	80.001	20.009	100.308	19.455	112.585	0.500
665.500	390.629	80.000	20.009	100.300	19.462	111.410	0.491
666.000	390.906	80.000	20.009	100.294	19.469	110.305	0.510
666.500	391.200	80.001	20.009	100.296	19.479	108.718	0.545
667.000	391.415	80.000	20.008	100.301	19.485	107.875	0.540
667.500	391.654	80.001	20.009	100.305	19.493	106.620	0.482
668.000	391.889	79.999	20.009	100.308	19.500	105.497	0.464
668.500	392.143	80.000	20.009	100.316	19.506	104.609	0.481
669.000	392.427	80.001	20.009	100.322	19.513	103.407	0.514
669.500	392.643	80.000	20.009	100.329	19.520	102.336	0.519
670.000	392.917	80.000	20.009	100.341	19.526	101.382	0.495
670.500	393.203	80.001	20.009	100.347	19.533	100.325	0.525
671.000	393.444	80.000	20.009	100.348	19.539	99.434	0.543
671.500	393.634	80.001	20.009	100.345	19.548	98.001	0.479
672.000	393.905	79.999	20.009	100.337	19.555	96.928	0.446
672.500	394.150	80.000	20.009	100.331	19.560	96.109	0.489
673.000	394.371	80.000	20.009	100.331	19.569	94.791	0.491
673.500	394.655	80.000	20.009	100.333	19.578	93.255	0.486
674.000	394.871	79.999	20.008	100.336	19.586	92.022	0.503
674.500	395.146	80.001	20.009	100.341	19.595	90.680	0.496
675.000	395.429	80.000	20.009	100.335	19.602	89.556	0.524
675.500	395.659	80.000	20.008	100.326	19.609	88.484	0.535
676.000	395.931	80.001	20.009	100.316	19.618	87.069	0.507
676.500	396.196	80.000	20.009	100.311	19.629	85.297	0.519
677.000	396.481	80.001	20.008	100.305	19.637	84.076	0.544
677.500	396.704	80.000	20.009	100.305	19.644	83.070	0.529
678.000	396.964	79.999	20.008	100.305	19.651	81.848	0.496
678.500	397.242	80.001	20.009	100.298	19.662	80.150	0.511
679.000	397.468	80.000	20.009	100.288	19.671	78.710	0.521
679.500	397.744	80.001	20.009	100.278	19.677	77.907	0.503
680.000	397.982	80.000	20.009	100.276	19.686	76.430	0.508
680.500	398.258	80.001	20.008	100.277	19.693	75.280	0.515
681.000	398.507	80.000	20.009	100.284	19.701	74.020	0.520
681.500	398.753	80.000	20.009	100.291	19.710	72.642	0.510
682.000	399.000	80.000	20.009	100.293	19.718	71.366	0.494
682.500	399.251	80.001	20.009	100.287	19.728	69.833	0.496
683.000	399.493	80.000	20.009	100.278	19.734	68.853	0.496
683.500	399.749	80.001	20.009	100.276	19.742	67.659	0.495
684.000	399.996	80.000	20.009	100.277	19.749	66.509	0.500
684.500	400.242	80.000	20.008	100.283	19.757	65.305	0.498
685.000	400.542	80.000	20.009	100.291	19.763	64.434	0.519
685.500	400.747	80.001	20.009	100.299	19.770	63.212	0.525
686.000	400.994	80.001	20.009	100.297	19.778	62.094	0.479
686.500	401.229	80.001	20.009	100.291	19.786	60.741	0.467
687.000	401.496	80.000	20.009	100.292	19.792	59.818	0.492
687.500	401.743	80.000	20.009	100.292	19.801	58.461	0.508
688.000	401.974	80.001	20.009	100.295	19.807	57.529	0.497
688.500	402.251	80.001	20.008	100.306	19.812	56.639	0.493
689.000	402.531	80.001	20.009	100.318	19.817	55.902	0.532
689.500	402.784	80.001	20.009	100.318	19.825	54.610	0.545
690.000	403.031	80.001	20.009	100.317	19.832	53.565	0.517
690.500	403.254	80.000	20.009	100.317	19.835	53.022	0.485
691.001	403.483	80.000	20.008	100.319	19.838	52.552	0.461
691.500	403.772	80.000	20.009	100.318	19.846	51.289	0.484
692.000	403.967	80.000	20.008	100.320	19.851	50.584	0.501
692.500	404.211	80.001	20.009	100.320	19.855	49.973	0.462
693.000	404.446	80.002	20.009	100.313	19.862	48.900	0.459
693.500	404.657	80.000	20.009	100.301	19.865	48.375	0.463
694.000	404.968	80.001	20.009	100.288	19.872	47.237	0.484
694.500	405.194	80.002	20.009	100.280	19.876	46.605	0.530
695.000	405.467	80.000	20.008	100.279	19.884	45.393	0.518
695.501	405.694	80.001	20.009	100.281	19.887	44.949	0.500
696.000	405.941	80.001	20.009	100.283	19.890	44.427	0.487
696.500	406.199	80.001	20.009	100.287	19.895	43.745	0.489
697.000	406.470	80.000	20.008	100.292	19.903	42.432	0.516
697.500	406.706	80.000	20.008	100.293	19.903	42.492	0.517
698.000	406.970	80.000	20.008	100.295	19.909	41.537	0.503
698.500	407.250	80.000	20.009	100.297	19.914	40.664	0.522
699.000	407.458	80.001	20.009	100.297	19.918	40.086	0.517
699.500	407.741	80.001	20.009	100.290	19.924	39.152	0.489
700.000	407.985	80.000	20.008	100.283	19.926	38.835	0.509
700.500	408.230	80.001	20.009	100.275	19.929	38.306	0.509
701.000	408.446	80.001	20.008	100.269	19.934	37.635	0.475
701.500	408.700	80.000	20.009	100.269	19.937	37.056	0.465
702.000	409.013	80.001	20.007	100.274	19.939	36.801	0.518
702.500	409.223	79.999	20.009	100.276	19.943	36.104	0.545
703.000	409.441	80.002	20.008	100.275	19.947	35.598	0.476
703.500	409.717	80.001	20.009	100.273	19.950	35.135	0.461
704.000	409.974	79.999	20.009	100.266	19.953	34.614	0.514
704.500	410.238	80.001	20.009	100.259	19.958	33.876	0.527
705.000	410.463	80.001	20.008	100.257	19.960	33.536	0.505
705.500	410.738	80.001	20.008	100.257	19.965	32.786	0.494
706.000	410.997	80.001	20.008	100.259	19.967	32.500	0.517
706.500	411.252	80.001	20.008	100.261	19.970	32.037	0.524
707.000	411.467	80.000	20.008	100.258	19.971	31.776	0.492
707.500	411.746	80.003	20.009	100.250	19.976	30.987	0.482
708.000	412.002	80.000	20.009	100.244	19.978	30.686	0.514
708.500	412.249	80.001	20.009	100.242	19.983	29.948	0.519
709.000	412.491	80.001	20.009	100.242	19.985	29.632	0.496
709.500	412.777	80.002	20.009	100.246	19.991	28.702	0.508
710.000	413.027	80.000	20.009	100.252	19.992	28.473	0.532
710.500	413.299	80.001	20.009	100.252	19.995	28.090	0.529
711.000	413.545	80.001	20.009	100.246	19.997	27.669	0.520
711.500	413.777	80.001	20.009	100.237	19.998	27.584	0.498
712.000	414.046	79.999	20.009	100.228	20.001	27.098	0.489
712.500	414.273	80.001	20.008	100.222	20.003	26.826	0.498
713.000	414.555	80.000	20.008	100.222	20.005	26.456	0.503
713.500	414.787	80.001	20.009	100.221	20.008	26.059	0.512
714.000	415.038	80.001	20.008	100.221	20.010	25.738	0.499
714.500	415.312	80.001	20.009	100.218	20.013	25.259	0.504
715.000	415.542	80.000	20.008	100.217	20.017	24.649	0.514
715.500	415.822	80.001	20.009	100.217	20.019	24.297	0.507
716.000	416.080	80.001	20.008	100.226	20.019	24.232	0.524
716.500	416.337	79.999	20.008	100.235	20.020	24.101	0.526
717.000	416.595	80.001	20.008	100.246	20.021	23.908	0.515
717.500	416.899	80.001	20.008	100.255	20.025	23.288	0.538
718.000	417.099	79.999	20.008	100.255	20.027	23.072	0.533
718.500	417.367	80.001	20.009	100.247	20.031	22.456	0.486
719.000	417.581	80.001	20.009	100.241	20.029	22.722	0.475
719.500	417.879	80.000	20.008	100.239	20.032	22.245	0.497
720.000	418.138	80.001	20.008	100.239	20.035	21.741	0.534
720.500	418.378	80.000	20.009	100.241	20.036	21.648	0.528
721.000	418.618	80.002	20.009	100.242	20.039	21.122	0.490
721.500	418.885	80.001	20.009	100.239	20.043	20.551	0.494
722.000	419.118	80.001	20.008	100.232	20.043	20.583	0.503
722.500	419.350	79.999	20.009	100.223	20.043	20.548	0.482
723.000	419.628	80.001	20.008	100.220	20.044	20.434	0.488
723.500	419.864	80.000	20.009	100.222	20.043	20.612	0.512
724.000	420.093	80.000	20.008	100.230	20.047	19.916	0.489
724.500	420.356	80.000	20.009	100.231	20.046	20.093	0.478
725.000	420.642	80.000	20.009	100.230	20.047	19.983	0.521
725.500	420.903	80.000	20.008	100.225	20.049	19.562	0.548
726.000	421.151	80.001	20.009	100.216	20.049	19.662	0.528
726.500	421.394	80.000	20.009	100.201	20.048	19.766	0.500
727.000	421.610	80.001	20.009	100.199	20.048	19.732	0.475
727.500	421.874	80.000	20.008	100.199	20.051	19.307	0.469
728.000	422.126	80.001	20.009	100.203	20.050	19.506	0.498
728.500	422.355	80.000	20.008	100.209	20.054	18.812	0.498
729.000	422.581	80.000	20.009	100.211	20.054	18.828	0.468
729.500	422.896	80.000	20.008	100.204	20.056	18.438	0.499
730.000	423.119	80.001	20.009	100.196	20.056	18.472	0.540
730.500	423.390	80.001	20.008	100.187	20.057	18.336	0.515
731.000	423.594	80.000	20.008	100.182	20.057	18.397	0.484
731.500	423.839	80.002	20.010	100.189	20.060	17.896	0.462
732.000	424.093	79.998	20.008	100.197	20.060	17.968	0.474
732.500	424.321	80.001	20.008	100.206	20.062	17.648	0.490
733.000	424.608	80.001	20.008	100.210	20.063	17.487	0.499
733.500	424.829	80.000	20.009	100.209	20.062	17.534	0.512
734.000	425.099	80.001	20.009	100.207	20.063	17.361	0.499
734.500	425.300	80.000	20.009	100.206	20.065	17.048	0.481
735.000	425.562	80.000	20.009	100.206	20.066	17.013	0.467
735.500	425.804	80.000	20.009	100.210	20.068	16.614	0.484
736.000	426.052	80.001	20.008	100.219	20.070	16.260	0.497
736.500	426.356	80.000	20.008	100.214	20.070	16.292	0.520
737.000	426.599	80.001	20.009	100.207	20.073	15.868	0.550
737.500	426.855	80.000	20.009	100.200	20.070	16.273	0.523
738.000	427.073	80.001	20.008	100.193	20.071	16.221	0.487
738.500	427.306	80.000	20.009	100.185	20.074	15.661	0.462
739.000	427.572	80.001	20.008	100.191	20.073	15.791	0.475
739.500	427.797	80.002	20.009	100.200	20.073	15.920	0.495
740.000	428.064	80.001	20.008	100.208	20.073	15.843	0.491
740.500	428.280	80.001	20.008	100.216	20.076	15.334	0.488
741.000	428.564	80.001	20.008	100.220	20.078	15.032	0.492
741.500	428.781	80.002	20.008	100.218	20.078	15.123	0.501
742.000	429.007	80.001	20.008	100.217	20.076	15.318	0.472
742.500	429.270	80.001	20.009	100.217	20.076	15.415	0.466
743.000	429.484	80.000	20.008	100.222	20.078	15.016	0.483
743.500	429.740	80.000	20.008	100.233	20.078	15.017	0.474
744.000	429.999	80.001	20.008	100.244	20.079	14.958	0.493
744.500	430.256	80.000	20.008	100.250	20.082	14.515	0.515
745.000	430.489	80.002	20.008	100.247	20.081	14.627	0.503
745.500	430.768	80.000	20.009	100.234	20.081	14.626	0.501
746.000	430.973	80.000	20.009	100.219	20.082	14.494	0.498
746.500	431.250	80.001	20.009	100.206	20.082	14.484	0.483
747.000	431.505	80.001	20.008	100.199	20.082	14.414	0.508
747.500	431.737	80.000	20.009	100.201	20.082	14.453	0.509
748.000	431.995	80.001	20.008	100.209	20.084	14.098	0.488
748.500	432.283	80.001	20.009	100.212	20.084	14.106	0.518
749.000	432.491	80.000	20.009	100.211	20.087	13.643	0.521
749.500	432.721	80.001	20.009	100.204	20.087	13.594	0.468
750.000	433.031	80.000	20.008	100.196	20.087	13.654	0.490
750.500	433.242	80.000	20.008	100.191	20.087	13.636	0.530
751.000	433.512	80.000	20.008	100.195	20.088	13.498	0.501
751.500	433.734	80.001	20.007	100.202	20.087	13.740	0.486
752.000	434.001	80.000	20.008	100.209	20.089	13.347	0.491
752.500	434.216	80.000	20.008	100.212	20.088	13.574	0.486
753.000	434.477	80.001	20.008	100.208	20.089	13.287	0.479
753.500	434.732	80.001	20.008	100.201	20.091	12.986	0.496
754.000	434.959	80.000	20.008	100.192	20.092	12.871	0.499
754.500	435.141	80.000	20.008	100.185	20.091	12.963	0.446
755.000	435.434	80.001	20.008	100.184	20.093	12.735	0.442
755.500	435.699	80.000	20.009	100.191	20.095	12.424	0.517
756.000	435.876	80.000	20.008	100.199	20.094	12.579	0.500
756.500	436.141	80.001	20.008	100.204	20.093	12.735	0.442
757.000	436.407	80.001	20.008	100.207	20.097	12.140	0.486
757.500	436.600	80.001	20.008	100.206	20.096	12.296	0.495
758.000	436.821	80.001	20.008	100.199	20.094	12.607	0.436
758.500	437.081	80.001	20.008	100.194	20.095	12.416	0.447
759.000	437.302	80.001	20.007	100.197	20.095	12.396	0.481
759.500	437.558	80.001	20.007	100.195	20.097	12.132	0.479
760.000	437.790	80.000	20.008	100.194	20.098	11.874	0.483
760.500	438.085	80.001	20.008	100.187	20.095	12.379	0.508
761.000	438.318	80.000	20.008	100.178	20.098	11.867	0.528
761.500	438.523	80.000	20.008	100.163	20.094	12.558	0.483
762.000	438.815	80.001	20.008	100.158	20.098	11.997	0.467
762.500	439.074	80.001	20.007	100.158	20.095	12.453	0.524
763.000	439.311	80.001	20.008	100.167	20.098	11.983	0.523
763.500	439.541	79.999	20.007	100.176	20.097	12.124	0.481
764.000	439.810	80.001	20.008	100.184	20.100	11.588	0.483
764.500	440.045	80.000	20.007	100.190	20.099	11.789	0.502
765.000	440.295	80.002	20.008	100.190	20.097	12.103	0.494
765.500	440.540	79.999	20.008	100.187	20.096	12.326	0.490
766.000	440.792	80.001	20.008	100.185	20.097	12.063	0.496
766.500	441.037	80.000	20.007	100.184	20.096	12.205	0.497
767.000	441.246	80.000	20.008	100.184	20.098	11.928	0.476
767.500	441.475	80.000	20.008	100.183	20.098	11.901	0.446
768.000	441.735	80.001	20.008	100.183	20.100	11.645	0.463
768.500	441.977	80.000	20.008	100.182	20.101	11.407	0.496
769.000	442.226	80.001	20.008	100.180	20.100	11.583	0.497
769.500	442.456	80.001	20.008	100.179	20.101	11.423	0.485
770.000	442.767	80.000	20.008	100.178	20.100	11.701	0.510
770.500	442.971	80.000	20.008	100.181	20.099	11.811	0.528
771.000	443.210	80.000	20.008	100.187	20.101	11.453	0.479
771.500	443.477	80.001	20.007	100.193	20.102	11.320	0.474
772.000	443.724	80.000	20.008	100.194	20.104	11.072	0.510
772.500	443.935	80.001	20.008	100.196	20.103	11.138	0.487
773.000	444.220	80.001	20.008	100.192	20.101	11.413	0.477
773.500	444.450	80.000	20.008	100.186	20.102	11.328	0.506
774.000	444.691	80.001	20.008	100.185	20.102	11.365	0.493
774.500	444.978	80.001	20.008	100.192	20.102	11.268	0.499
775.000	445.209	80.001	20.007	100.196	20.105	10.918	0.523
775.500	445.469	80.000	20.008	100.198	20.103	11.175	0.504
776.000	445.713	80.001	20.008	100.195	20.105	10.861	0.497
776.500	445.956	80.000	20.008	100.183	20.104	10.990	0.496
777.000	446.188	80.001	20.008	100.175	20.104	10.965	0.481
777.500	446.446	80.001	20.008	100.172	20.106	10.767	0.482
778.000	446.712	80.000	20.007	100.176	20.107	10.476	0.507
778.500	446.944	80.000	20.008	100.186	20.105	10.895	0.511
779.000	447.174	80.000	20.008	100.198	20.107	10.574	0.480
779.500	447.396	80.001	20.008	100.198	20.107	10.471	0.457
780.000	447.676	80.000	20.008	100.198	20.105	10.781	0.477
780.500	447.939	80.000	20.008	100.192	20.107	10.587	0.523
781.000	448.172	80.002	20.008	100.184	20.107	10.515	0.520
781.500	448.430	80.001	20.007	100.184	20.107	10.565	0.493
782.000	448.628	80.001	20.008	100.191	20.108	10.364	0.473
782.500	448.886	80.000	20.008	100.201	20.110	10.130	0.456
783.000	449.161	80.002	20.007	100.208	20.109	10.262	0.494
783.500	449.391	80.001	20.008	100.213	20.109	10.278	0.519
784.000	449.619	80.001	20.008	100.209	20.110	10.067	0.482
784.500	449.857	80.002	20.008	100.202	20.108	10.387	0.462
785.000	450.126	80.000	20.008	100.197	20.110	10.096	0.487
785.500	450.382	80.001	20.008	100.198	20.109	10.201	0.516
786.000	450.600	80.001	20.007	100.201	20.109	10.213	0.500
786.500	450.849	80.002	20.007	100.209	20.109	10.209	0.471
787.000	451.114	80.001	20.008	100.213	20.110	10.143	0.490
787.500	451.371	80.001	20.008	100.208	20.111	9.859	0.518
788.000	451.584	80.002	20.008	100.205	20.109	10.290	0.496
788.500	451.839	80.001	20.008	100.203	20.109	10.284	0.469
789.000	452.094	80.000	20.008	100.203	20.106	10.711	0.489
789.500	452.315	80.002	20.008	100.206	20.107	10.550	0.493
790.000	452.576	80.001	20.008	100.215	20.109	10.243	0.479
790.500	452.818	80.001	20.007	100.219	20.110	10.117	0.492
791.000	453.061	80.001	20.008	100.217	20.108	10.388	0.494
791.500	453.262	80.001	20.008	100.209	20.110	10.064	0.465
792.000	453.508	80.001	20.008	100.201	20.111	9.839	0.445
792.500	453.800	80.001	20.008	100.194	20.110	10.037	0.492
793.000	454.050	80.001	20.007	100.194	20.113	9.644	0.540
793.500	454.324	80.001	20.008	100.199	20.112	9.795	0.533
794.000	454.541	80.001	20.008	100.206	20.113	9.675	0.507
794.500	454.837	80.002	20.008	100.213	20.110	10.015	0.502
795.000	455.004	80.002	20.008	100.220	20.111	9.926	0.488
795.500	455.291	80.001	20.008	100.219	20.109	10.198	0.459
796.000	455.528	80.000	20.008	100.219	20.110	10.060	0.489
796.500	455.805	80.000	20.008	100.220	20.109	10.223	0.519
797.000	456.054	80.001	20.007	100.221	20.109	10.165	0.520
797.500	456.280	80.001	20.008	100.220	20.111	9.972	0.500
798.000	456.572	80.001	20.008	100.216	20.108	10.361	0.496
798.500	456.806	80.001	20.008	100.209	20.109	10.297	0.521
799.000	457.074	80.002	20.008	100.199	20.110	10.109	0.514
799.500	457.306	80.000	20.008	100.189	20.110	10.020	0.502
800.000	457.577	80.002	20.008	100.186	20.111	9.868	0.502
800.500	457.809	80.000	20.008	100.190	20.112	9.686	0.503
801.000	458.079	80.002	20.007	100.202	20.113	9.619	0.502
801.500	458.325	80.001	20.008	100.212	20.113	9.678	0.508
802.000	458.584	80.001	20.008	100.222	20.112	9.751	0.510
802.500	458.819	80.001	20.008	100.226	20.113	9.576	0.500
803.000	459.087	79.999	20.008	100.227	20.113	9.663	0.499
803.500	459.336	80.001	20.008	100.224	20.112	9.746	0.510
804.000	459.584	80.002	20.008	100.224	20.112	9.717	0.507
804.500	459.825	80.000	20.008	100.223	20.114	9.482	0.493
805.000	460.038	80.002	20.007	100.223	20.112	9.822	0.472
805.500	460.317	80.001	20.008	100.223	20.113	9.600	0.473
806.000	460.531	80.001	20.008	100.218	20.113	9.669	0.492
806.500	460.832	80.002	20.008	100.210	20.110	10.103	0.504
807.000	461.080	80.000	20.008	100.204	20.113	9.601	0.532
807.500	461.345	80.000	20.008	100.196	20.112	9.776	0.531
808.000	461.612	80.001	20.008	100.197	20.111	9.905	0.523
808.500	461.840	80.001	20.008	100.208	20.114	9.465	0.514
809.000	462.114	80.000	20.008	100.222	20.111	9.938	0.498
809.500	462.355	80.001	20.008	100.233	20.113	9.561	0.508
810.000	462.629	80.001	20.007	100.239	20.114	9.522	0.515
810.500	462.850	80.001	20.008	100.232	20.112	9.711	0.505
811.000	463.086	80.000	20.008	100.220	20.113	9.609	0.476
811.500	463.285	80.001	20.007	100.212	20.113	9.559	0.446
812.000	463.558	80.002	20.008	100.209	20.114	9.413	0.454
812.500	463.796	80.000	20.008	100.210	20.112	9.720	0.491
813.000	464.041	80.001	20.007	100.213	20.112	9.739	0.497
813.500	464.298	80.000	20.008	100.212	20.115	9.316	0.493
814.000	464.491	80.001	20.008	100.206	20.112	9.686	0.476
814.500	464.803	80.000	20.008	100.200	20.116	9.092	0.477
815.000	465.023	80.001	20.008	100.199	20.114	9.466	0.518
815.500	465.279	80.001	20.007	100.203	20.114	9.511	0.504
816.000	465.509	80.001	20.008	100.210	20.114	9.389	0.481
816.500	465.771	80.002	20.007	100.217	20.114	9.392	0.489
817.000	466.056	80.000	20.008	100.221	20.115	9.247	0.519
817.500	466.269	80.001	20.008	100.219	20.115	9.327	0.523
818.000	466.502	80.002	20.007	100.212	20.116	9.077	0.472
818.500	466.749	80.000	20.008	100.210	20.116	9.203	0.463
819.000	467.015	79.999	20.008	100.210	20.115	9.255	0.497
819.500	467.240	80.000	20.007	100.213	20.116	9.208	0.502
820.000	467.501	80.000	20.008	100.216	20.113	9.541	0.488
820.500	467.750	80.001	20.007	100.222	20.114	9.425	0.498
821.000	468.012	80.000	20.008	100.222	20.117	9.022	0.510
821.500	468.256	80.000	20.007	100.219	20.115	9.333	0.509
822.000	468.475	80.001	20.008	100.217	20.118	8.818	0.485
822.500	468.742	80.000	20.008	100.216	20.117	8.969	0.474
823.000	468.989	80.000	20.008	100.219	20.117	8.955	0.500
823.500	469.218	80.000	20.007	100.225	20.117	8.919	0.496
824.000	469.445	79.999	20.007	100.229	20.115	9.216	0.466
824.500	469.671	80.000	20.007	100.229	20.113	9.550	0.454
825.000	469.933	80.000	20.007	100.224	20.116	9.062	0.471
825.500	470.195	80.001	20.008	100.216	20.116	9.184	0.506
826.000	470.453	80.000	20.008	100.212	20.118	8.849	0.522
826.500	470.684	80.000	20.007	100.212	20.115	9.238	0.505
827.000	470.892	80.001	20.008	100.212	20.117	8.969	0.464
827.500	471.121	80.001	20.007	100.216	20.118	8.850	0.438
828.000	471.377	80.000	20.008	100.222	20.117	8.972	0.460
828.500	471.646	80.001	20.008	100.215	20.119	8.679	0.505
829.000	471.892	80.000	20.008	100.212	20.116	9.128	0.521
829.500	472.086	80.001	20.008	100.213	20.118	8.771	0.478
830.000	472.331	80.000	20.008	100.219	20.118	8.841	0.440
830.500	472.576	80.001	20.007	100.226	20.118	8.771	0.465
831.000	472.852	80.002	20.008	100.233	20.117	8.966	0.505
831.500	473.052	80.000	20.008	100.234	20.119	8.656	0.498
832.000	473.312	80.000	20.008	100.227	20.119	8.712	0.468
832.500	473.572	80.001	20.008	100.217	20.116	9.161	0.490
833.000	473.784	80.001	20.008	100.209	20.116	9.051	0.496
833.500	474.051	80.001	20.007	100.211	20.116	9.100	0.476
834.000	474.294	80.001	20.007	100.213	20.114	9.453	0.495
834.500	474.500	80.001	20.008	100.219	20.115	9.265	0.479
835.000	474.764	80.001	20.008	100.218	20.114	9.497	0.459
835.500	474.964	79.999	20.008	100.210	20.117	8.962	0.466
836.000	475.227	80.001	20.008	100.205	20.114	9.517	0.463
836.500	475.474	80.001	20.008	100.205	20.113	9.534	0.487
837.000	475.669	80.000	20.008	100.205	20.114	9.510	0.476
837.500	475.940	80.001	20.007	100.210	20.115	9.345	0.454
838.000	476.200	80.000	20.008	100.214	20.111	9.930	0.498
838.500	476.434	80.000	20.008	100.209	20.115	9.230	0.513
839.000	476.637	80.002	20.008	100.198	20.111	9.887	0.466
839.500	476.908	80.001	20.008	100.185	20.112	9.735	0.456
840.000	477.144	80.000	20.008	100.176	20.112	9.817	0.490
840.500	477.379	80.001	20.008	100.172	20.109	10.160	0.489
841.000	477.655	80.001	20.008	100.171	20.110	10.038	0.491
841.500	477.846	80.001	20.008	100.175	20.112	9.831	0.489
842.000	478.130	80.000	20.008	100.178	20.110	10.079	0.471
842.500	478.407	80.000	20.008	100.177	20.109	10.248	0.518
843.000	478.633	80.000	20.008	100.176	20.108	10.321	0.532
843.500	478.870	80.001	20.007	100.176	20.108	10.307	0.483
844.000	479.137	80.001	20.008	100.176	20.106	10.730	0.484
844.500	479.370	80.000	20.007	100.177	20.108	10.440	0.502
845.000	479.617	80.000	20.008	100.179	20.111	9.975	0.490
845.500	479.830	80.001	20.008	100.175	20.107	10.472	0.470
846.000	480.090	80.000	20.007	100.167	20.105	10.779	0.467
846.500	480.357	80.002	20.008	100.161	20.107	10.564	0.500
847.000	480.541	80.001	20.008	100.160	20.107	10.507	0.489
847.500	480.826	80.001	20.008	100.161	20.107	10.513	0.460
848.000	481.063	80.001	20.008	100.166	20.105	10.777	0.496
848.501	481.301	80.003	20.008	100.170	20.104	10.959	0.499
849.000	481.536	79.999	20.008	100.172	20.105	10.798	0.474
849.500	481.768	80.002	20.009	100.170	20.104	10.950	0.469
850.000	481.997	80.000	20.008	100.169	20.105	10.822	0.464
850.500	482.259	80.001	20.008	100.170	20.106	10.646	0.477
851.000	482.535	80.001	20.008	100.172	20.105	10.811	0.515
851.500	482.794	80.001	20.008	100.176	20.106	10.655	0.536
852.000	483.026	80.001	20.008	100.174	20.105	10.890	0.513
852.500	483.293	80.001	20.008	100.167	20.103	11.119	0.495
853.000	483.542	80.000	20.008	100.160	20.106	10.683	0.508
853.500	483.793	80.001	20.008	100.161	20.106	10.640	0.508
854.000	484.042	80.001	20.008	100.164	20.105	10.831	0.500
854.500	484.273	80.001	20.007	100.170	20.105	10.868	0.490
855.000	484.533	80.001	20.008	100.179	20.106	10.773	0.486
855.500	484.798	80.000	20.008	100.185	20.108	10.423	0.508
856.000	485.089	80.000	20.008	100.182	20.107	10.578	0.541
856.500	485.311	80.001	20.008	100.180	20.106	10.717	0.535
857.000	485.552	80.000	20.008	100.180	20.108	10.442	0.488
857.500	485.829	80.000	20.008	100.187	20.107	10.593	0.490
858.000	486.058	80.000	20.008	100.196	20.107	10.573	0.512
858.500	486.299	80.002	20.008	100.204	20.106	10.761	0.488
859.000	486.543	80.001	20.008	100.203	20.108	10.306	0.478
859.500	486.800	80.000	20.008	100.200	20.107	10.521	0.493
860.000	487.029	80.002	20.008	100.193	20.107	10.471	0.493
860.500	487.301	80.002	20.008	100.185	20.110	10.051	0.494
861.000	487.540	80.000	20.008	100.184	20.112	9.800	0.507
861.500	487.802	80.001	20.008	100.192	20.107	10.539	0.506
862.000	488.000	80.002	20.008	100.202	20.110	10.021	0.480
862.500	488.294	80.000	20.008	100.203	20.110	10.031	0.476
863.000	488.577	80.001	20.008	100.203	20.113	9.664	0.535
863.500	488.827	80.001	20.008	100.200	20.114	9.377	0.555
864.000	489.044	80.002	20.008	100.197	20.112	9.753	0.501
864.500	489.274	80.000	20.008	100.193	20.114	9.432	0.457
865.000	489.536	80.001	20.008	100.196	20.107	10.541	0.469
865.500	489.789	80.001	20.008	100.200	20.111	9.890	0.503
866.000	490.037	80.002	20.008	100.202	20.110	10.124	0.508
866.500	490.284	80.001	20.008	100.200	20.113	9.671	0.498
867.000	490.561	80.002	20.008	100.199	20.109	10.195	0.509
867.500	490.808	80.001	20.007	100.203	20.110	10.117	0.524
868.000	491.046	80.001	20.008	100.207	20.112	9.768	0.504
868.500	491.268	80.001	20.007	100.213	20.110	10.014	0.472
869.000	491.483	80.001	20.008	100.215	20.111	9.844	0.449
869.500	491.779	80.001	20.008	100.213	20.114	9.439	0.474
870.000	492.074	80.001	20.008	100.204	20.110	10.004	0.551
870.501	492.296	80.001	20.008	100.196	20.109	10.181	0.554
871.000	492.522	80.002	20.008	100.192	20.113	9.678	0.483
871.500	492.799	80.001	20.007	100.196	20.110	10.014	0.476
872.000	493.012	80.002	20.008	100.201	20.108	10.456	0.496
872.500	493.265	79.999	20.008	100.201	20.110	10.034	0.478
873.000	493.510	80.002	20.008	100.202	20.108	10.334	0.482
873.500	493.784	80.002	20.008	100.197	20.111	9.964	0.508
874.000	494.037	80.000	20.008	100.189	20.113	9.541	0.523
874.500	494.282	80.001	20.008	100.186	20.111	9.911	0.513
875.000	494.498	80.001	20.007	100.191	20.107	10.502	0.480
875.500	494.787	80.000	20.008	100.192	20.111	9.934	0.483
876.000	495.031	80.001	20.008	100.191	20.111	9.875	0.519
876.500	495.298	80.001	20.008	100.191	20.109	10.182	0.522
877.001	495.512	80.000	20.008	100.190	20.109	10.245	0.496
877.500	495.766	80.001	20.008	100.184	20.108	10.330	0.474
878.000	496.007	80.000	20.008	100.177	20.111	9.848	0.481
878.500	496.294	80.001	20.008	100.169	20.112	9.716	0.512
879.001	496.511	80.001	20.008	100.161	20.109	10.221	0.516
879.500	496.731	80.001	20.008	100.153	20.109	10.270	0.471
880.000	496.986	80.000	20.008	100.147	20.108	10.389	0.456
880.500	497.309	80.002	20.008	100.156	20.107	10.513	0.526
881.000	497.531	80.000	20.008	100.171	20.115	9.333	0.561
881.500	497.751	80.001	20.007	100.189	20.113	9.540	0.493
882.000	497.978	80.000	20.008	100.205	20.112	9.718	0.445
882.500	498.242	80.001	20.008	100.217	20.112	9.702	0.469
883.000	498.464	80.001	20.008	100.215	20.112	9.752	0.488
883.500	498.734	80.001	20.007	100.208	20.114	9.507	0.489
884.000	498.954	80.000	20.008	100.198	20.116	9.167	0.491
884.500	499.221	80.001	20.008	100.190	20.114	9.382	0.488
885.000	499.486	80.001	20.007	100.185	20.115	9.310	0.510
885.500	499.746	80.001	20.008	100.184	20.116	9.162	0.529
886.000	499.957	80.001	20.008	100.184	20.112	9.718	0.498
886.500	500.218	80.000	20.008	100.183	20.112	9.795	0.471
887.000	500.480	80.000	20.008	100.180	20.114	9.472	0.497
887.500	500.720	80.002	20.008	100.180	20.113	9.607	0.512
888.000	500.914	80.001	20.008	100.181	20.114	9.490	0.468
888.500	501.177	80.000	20.007	100.183	20.111	9.958	0.446
889.000	501.440	80.001	20.007	100.183	20.115	9.338	0.491
889.500	501.679	80.002	20.008	100.183	20.112	9.800	0.514
890.000	501.974	80.000	20.008	100.182	20.112	9.734	0.518
890.500	502.195	80.002	20.008	100.178	20.111	9.860	0.525
891.000	502.423	80.000	20.008	100.176	20.114	9.400	0.483
891.500	502.686	80.002	20.008	100.177	20.112	9.680	0.470
892.000	502.897	80.001	20.008	100.179	20.112	9.806	0.482
892.500	503.179	80.000	20.007	100.176	20.114	9.463	0.484
893.000	503.361	80.001	20.008	100.170	20.113	9.632	0.479
893.500	503.619	80.000	20.008	100.161	20.111	9.923	0.452
894.000	503.896	80.001	20.008	100.148	20.112	9.738	0.487
894.500	504.101	80.002	20.008	100.139	20.112	9.688	0.509
895.000	504.308	80.000	20.008	100.135	20.112	9.731	0.447
895.500	504.514	80.002	20.008	100.135	20.113	9.609	0.413
896.000	504.763	80.001	20.008	100.137	20.110	10.097	0.434
896.500	505.010	80.001	20.008	100.139	20.112	9.699	0.476
897.000	505.246	80.000	20.008	100.139	20.109	10.172	0.489
897.501	505.504	80.001	20.008	100.139	20.110	9.990	0.489
898.000	505.697	80.000	20.008	100.144	20.110	10.045	0.472
898.500	505.971	80.000	20.008	100.153	20.108	10.388	0.459
899.000	506.202	80.000	20.008	100.169	20.104	10.933	0.486
899.500	506.463	80.001	20.008	100.179	20.109	10.299	0.498
900.000	506.675	80.001	20.008	100.181	20.109	10.221	0.483
900.500	506.915	80.000	20.008	100.176	20.105	10.892	0.463
901.000	507.158	80.000	20.008	100.167	20.105	10.855	0.468
901.500	507.403	80.001	20.008	100.158	20.107	10.488	0.485
902.000	507.596	80.000	20.008	100.157	20.104	10.943	0.463
902.500	507.849	80.001	20.008	100.160	20.107	10.531	0.442
903.000	508.105	79.999	20.008	100.164	20.105	10.857	0.477
903.500	508.307	80.000	20.008	100.164	20.105	10.795	0.484
904.000	508.537	80.002	20.008	100.159	20.104	10.968	0.445
904.500	508.777	80.001	20.008	100.152	20.103	11.226	0.451
905.000	509.032	80.001	20.008	100.154	20.103	11.183	0.482
905.500	509.234	80.000	20.007	100.158	20.102	11.256	0.476
906.000	509.493	80.000	20.007	100.165	20.106	10.628	0.460
906.500	509.745	80.001	20.008	100.171	20.102	11.277	0.486
907.000	510.014	80.000	20.008	100.169	20.102	11.311	0.516
907.500	510.252	80.000	20.008	100.163	20.101	11.526	0.514
908.000	510.504	80.000	20.008	100.160	20.103	11.156	0.498
908.500	510.688	80.000	20.008	100.160	20.102	11.258	0.463
909.000	510.977	80.000	20.008	100.163	20.104	10.944	0.455
909.500	511.174	80.000	20.008	100.172	20.104	10.997	0.480
910.001	511.427	80.001	20.008	100.178	20.103	11.108	0.468
910.501	511.687	80.000	20.008	100.174	20.104	11.003	0.482
911.001	511.909	80.000	20.008	100.168	20.101	11.483	0.498
911.501	512.166	80.000	20.008	100.164	20.102	11.278	0.480
912.000	512.389	80.000	20.008	100.163	20.104	11.069	0.479
912.500	512.630	80.000	20.008	100.164	20.104	11.038	0.472
913.000	512.848	80.000	20.007	100.172	20.103	11.143	0.462
913.500	513.139	80.002	20.008	100.179	20.104	10.984	0.484
914.000	513.351	80.000	20.008	100.180	20.105	10.796	0.506
914.500	513.555	80.000	20.008	100.172	20.105	10.882	0.460
915.000	513.787	79.999	20.008	100.169	20.104	11.070	0.427
915.500	514.013	80.000	20.007	100.168	20.104	10.940	0.447
916.000	514.318	80.001	20.008	100.168	20.104	10.933	0.495
916.500	514.562	80.000	20.008	100.172	20.104	11.082	0.540
917.000	514.769	80.000	20.008	100.179	20.106	10.640	0.500
917.500	515.042	80.001	20.008	100.183	20.106	10.667	0.465
918.000	515.306	80.001	20.008	100.185	20.107	10.589	0.508
918.500	515.526	80.000	20.008	100.185	20.107	10.506	0.510
919.000	515.820	80.000	20.008	100.188	20.110	10.003	0.499
919.500	516.060	80.000	20.008	100.197	20.109	10.198	0.524
920.000	516.279	80.000	20.007	100.205	20.109	10.165	0.497
920.500	516.526	80.001	20.008	100.206	20.109	10.155	0.463
921.000	516.753	79.999	20.008	100.207	20.107	10.569	0.470
921.500	517.035	80.001	20.008	100.204	20.110	10.140	0.491
922.000	517.302	80.000	20.007	100.202	20.108	10.418	0.529
922.500	517.490	79.999	20.008	100.207	20.110	10.107	0.502
923.000	517.747	80.001	20.008	100.220	20.109	10.302	0.450
923.500	518.012	80.000	20.007	100.235	20.109	10.192	0.484
924.000	518.247	80.000	20.008	100.242	20.110	10.123	0.511
924.500	518.540	80.001	20.008	100.238	20.109	10.275	0.514
925.000	518.756	80.000	20.008	100.226	20.108	10.437	0.518
925.500	518.984	79.998	20.008	100.217	20.106	10.626	0.477
926.000	519.270	80.000	20.008	100.209	20.107	10.619	0.479
926.500	519.512	79.999	20.007	100.209	20.105	10.778	0.520
927.000	519.743	80.001	20.008	100.213	20.105	10.920	0.500
927.500	519.988	80.001	20.008	100.214	20.106	10.755	0.475
928.000	520.251	79.999	20.008	100.207	20.104	10.948	0.493
928.500	520.509	80.001	20.008	100.198	20.106	10.674	0.515
929.000	520.748	80.000	20.008	100.196	20.107	10.555	0.509
929.500	521.003	80.000	20.008	100.197	20.106	10.706	0.495
930.000	521.268	80.000	20.008	100.204	20.108	10.432	0.507
930.500	521.532	79.999	20.008	100.211	20.105	10.857	0.524
931.000	521.763	80.001	20.008	100.219	20.109	10.276	0.512
931.500	521.991	79.999	20.008	100.216	20.103	11.145	0.477
932.000	522.277	80.000	20.008	100.210	20.109	10.194	0.487
932.500	522.514	80.000	20.008	100.209	20.109	10.190	0.518
933.000	522.762	80.002	20.009	100.210	20.110	10.051	0.504
933.500	523.022	80.002	20.010	100.211	20.109	10.203	0.496
934.000	523.293	80.000	20.010	100.221	20.110	10.031	0.520
934.500	523.492	80.001	20.008	100.227	20.108	10.398	0.501
935.000	523.784	80.001	20.008	100.228	20.109	10.299	0.480
935.500	524.044	80.000	20.008	100.226	20.110	10.071	0.521
936.000	524.246	80.000	20.008	100.222	20.110	10.108	0.507
936.500	524.518	79.999	20.008	100.219	20.110	10.045	0.468
937.000	524.759	80.001	20.007	100.223	20.108	10.372	0.493
937.500	525.034	80.000	20.008	100.222	20.108	10.351	0.515
938.000	525.246	80.000	20.008	100.226	20.111	9.932	0.502
938.501	525.528	80.001	20.008	100.227	20.111	9.983	0.490
939.001	525.799	80.000	20.007	100.227	20.108	10.363	0.523
939.500	526.043	80.000	20.008	100.223	20.108	10.310	0.534
940.000	526.270	80.000	20.008	100.226	20.109	10.193	0.494
940.500	526.522	79.999	20.007	100.230	20.110	10.129	0.475
941.000	526.804	80.000	20.007	100.237	20.109	10.234	0.506
941.500	527.095	80.000	20.008	100.239	20.109	10.283	0.553
942.000	527.285	80.001	20.008	100.239	20.112	9.782	0.527
942.500	527.555	79.999	20.008	100.236	20.112	9.684	0.471
943.000	527.805	80.001	20.008	100.232	20.109	10.213	0.490
943.500	528.078	80.000	20.008	100.226	20.112	9.714	0.521
944.000	528.327	79.999	20.008	100.229	20.111	9.840	0.523
944.500	528.643	80.001	20.007	100.233	20.113	9.655	0.544
945.000	528.856	80.001	20.008	100.234	20.112	9.728	0.547
945.500	529.103	80.000	20.007	100.233	20.113	9.563	0.494
946.000	529.333	80.001	20.008	100.230	20.111	9.848	0.468
946.500	529.626	79.999	20.008	100.223	20.111	9.844	0.500
947.000	529.934	80.001	20.008	100.220	20.113	9.606	0.563
947.500	530.134	80.000	20.007	100.223	20.111	9.863	0.555
948.000	530.378	79.999	20.007	100.229	20.112	9.752	0.476
948.500	530.673	80.000	20.008	100.231	20.114	9.506	0.491
949.000	530.895	80.000	20.008	100.232	20.116	9.139	0.528
949.500	531.154	80.001	20.008	100.230	20.115	9.288	0.499
950.000	531.430	80.001	20.008	100.227	20.113	9.603	0.508
950.500	531.646	80.000	20.008	100.224	20.112	9.788	0.513
951.000	531.878	80.000	20.008	100.231	20.114	9.408	0.469
951.500	532.153	80.001	20.008	100.239	20.114	9.458	0.477
952.000	532.419	80.000	20.007	100.241	20.115	9.262	0.524
952.500	532.661	80.000	20.008	100.241	20.111	9.976	0.525
953.000	532.914	80.001	20.008	100.230	20.110	10.085	0.501
953.500	533.147	80.000	20.008	100.215	20.112	9.746	0.490
954.000	533.403	80.001	20.008	100.205	20.110	10.139	0.487
954.500	533.662	80.001	20.008	100.203	20.113	9.561	0.502
955.000	533.920	80.000	20.008	100.208	20.112	9.692	0.516
955.500	534.157	80.000	20.008	100.220	20.113	9.659	0.506
956.000	534.393	80.000	20.008	100.229	20.112	9.699	0.484
956.500	534.669	80.001	20.008	100.231	20.112	9.768	0.493
957.000	534.893	80.000	20.008	100.231	20.112	9.818	0.506
957.500	535.158	80.000	20.008	100.227	20.112	9.696	0.494
958.000	535.410	80.000	20.008	100.230	20.114	9.438	0.503
958.500	535.688	80.000	20.008	100.237	20.114	9.447	0.524
959.000	535.927	80.001	20.008	100.241	20.113	9.658	0.524
959.500	536.162	79.999	20.008	100.242	20.114	9.516	0.495
960.000	536.436	80.002	20.008	100.239	20.112	9.767	0.491
960.500	536.701	79.999	20.008	100.226	20.107	10.465	0.524
961.000	536.905	80.002	20.008	100.210	20.110	10.076	0.504
961.500	537.189	79.999	20.008	100.198	20.108	10.321	0.478
962.000	537.440	80.001	20.008	100.195	20.109	10.261	0.512
962.500	537.716	80.000	20.008	100.195	20.110	10.148	0.531
963.000	537.918	80.001	20.008	100.202	20.108	10.446	0.503
963.500	538.146	79.999	20.008	100.207	20.109	10.172	0.454
964.000	538.432	80.000	20.008	100.208	20.110	10.043	0.472
964.500	538.680	80.002	20.008	100.205	20.109	10.166	0.524
965.000	538.962	80.000	20.008	100.202	20.109	10.256	0.532
965.500	539.173	80.000	20.008	100.202	20.108	10.314	0.511
966.000	539.443	80.000	20.007	100.205	20.108	10.346	0.487
966.500	539.746	80.000	20.007	100.211	20.109	10.204	0.527
967.000	539.983	80.000	20.008	100.216	20.109	10.270	0.557
967.500	540.169	79.999	20.007	100.214	20.110	10.121	0.482
968.000	540.460	80.001	20.008	100.209	20.106	10.621	0.450
968.500	540.683	80.000	20.008	100.203	20.107	10.483	0.496
969.000	540.930	80.000	20.008	100.204	20.106	10.662	0.492
969.500	541.194	80.000	20.008	100.206	20.106	10.645	0.490
970.000	541.461	80.001	20.007	100.212	20.108	10.460	0.522
970.500	541.654	79.999	20.008	100.212	20.106	10.718	0.496
971.000	541.896	80.001	20.008	100.209	20.105	10.929	0.447
971.500	542.204	80.000	20.008	100.201	20.107	10.553	0.492
972.000	542.409	79.999	20.008	100.193	20.108	10.338	0.531
972.500	542.691	79.999	20.008	100.191	20.104	11.031	0.500
973.000	542.912	80.000	20.007	100.196	20.106	10.753	0.495
973.500	543.173	80.001	20.007	100.203	20.106	10.646	0.492
974.000	543.468	80.001	20.008	100.211	20.108	10.358	0.519
974.500	543.759	80.000	20.008	100.217	20.106	10.768	0.571
975.000	543.973	80.000	20.007	100.213	20.108	10.438	0.546
975.500	544.192	80.001	20.008	100.208	20.106	10.690	0.469
976.000	544.457	80.001	20.008	100.209	20.106	10.720	0.458
976.500	544.699	80.001	20.008	100.209	20.106	10.627	0.495
977.000	544.957	80.000	20.007	100.212	20.107	10.609	0.504
977.500	545.214	80.001	20.007	100.220	20.107	10.605	0.508
978.000	545.474	80.001	20.008	100.223	20.108	10.394	0.516
978.500	545.737	80.000	20.008	100.216	20.108	10.420	0.520
979.000	545.979	79.998	20.008	100.207	20.110	10.090	0.514
979.500	546.246	80.002	20.008	100.203	20.106	10.638	0.507
980.000	546.474	80.000	20.007	100.202	20.109	10.252	0.502
980.500	546.759	80.000	20.007	100.203	20.109	10.189	0.504
981.000	547.024	80.002	20.007	100.211	20.108	10.457	0.532
981.500	547.250	80.000	20.008	100.219	20.105	10.861	0.521
982.000	547.491	80.001	20.008	100.223	20.108	10.380	0.479
982.500	547.738	79.999	20.008	100.221	20.107	10.572	0.478
983.000	547.995	80.001	20.008	100.218	20.109	10.216	0.496
983.500	548.238	80.001	20.008	100.220	20.105	10.889	0.502
984.000	548.525	80.000	20.008	100.219	20.107	10.462	0.515
984.500	548.748	80.001	20.007	100.220	20.104	11.083	0.520
985.000	549.045	80.000	20.007	100.222	20.104	10.973	0.514
985.500	549.286	80.000	20.008	100.217	20.103	11.209	0.529
986.000	549.513	80.001	20.008	100.207	20.101	11.405	0.503
986.500	549.776	80.002	20.008	100.200	20.103	11.191	0.479
987.000	550.033	80.001	20.008	100.194	20.103	11.119	0.505
987.500	550.302	79.999	20.008	100.194	20.100	11.601	0.523
988.000	550.513	80.002	20.008	100.202	20.099	11.797	0.503
988.500	550.793	80.000	20.008	100.208	20.104	11.036	0.486
989.000	551.054	80.000	20.009	100.207	20.102	11.359	0.516
989.500	551.293	80.001	20.008	100.205	20.102	11.283	0.521
990.000	551.546	79.999	20.008	100.196	20.104	11.065	0.496
990.500	551.784	80.001	20.008	100.188	20.104	11.045	0.491
991.000	552.036	79.999	20.008	100.184	20.103	11.167	0.490
991.500	552.300	80.001	20.008	100.183	20.103	11.223	0.503
992.000	552.570	80.000	20.007	100.183	20.104	10.978	0.525
992.500	552.792	80.000	20.008	100.184	20.106	10.710	0.513
993.000	553.040	79.999	20.007	100.184	20.107	10.588	0.481
993.500	553.292	80.000	20.008	100.186	20.105	10.860	0.485
994.000	553.542	80.000	20.007	100.193	20.104	11.054	0.501
994.500	553.789	80.000	20.008	100.202	20.104	10.988	0.500
995.000	554.021	80.001	20.008	100.212	20.107	10.604	0.488
995.500	554.320	80.000	20.007	100.219	20.106	10.745	0.505
996.000	554.553	80.000	20.007	100.224	20.110	10.032	0.532
996.500	554.807	80.000	20.008	100.218	20.108	10.431	0.510
997.000	555.065	80.001	20.007	100.210	20.109	10.174	0.500
997.500	555.325	79.999	20.008	100.203	20.107	10.581	0.515
998.000	555.549	80.000	20.007	100.202	20.109	10.178	0.501
998.500	555.824	80.000	20.007	100.209	20.111	9.906	0.491
999.000	556.072	80.001	20.007	100.222	20.107	10.593	0.511
999.500	556.281	79.999	20.007	100.229	20.107	10.527	0.490
1000.000	556.544	80.000	20.007	100.233	20.105	10.867	0.465
1000.500	556.777	80.000	20.008	100.226	20.110	10.082	0.484
1001.000	557.016	80.000	20.007	100.212	20.106	10.730	0.484
1001.500	557.261	79.999	20.007	100.198	20.107	10.604	0.478
1002.000	557.507	80.001	20.007	100.191	20.106	10.694	0.487
1002.500	557.769	79.999	20.007	100.190	20.105	10.832	0.499
1003.000	558.031	80.000	20.007	100.192	20.105	10.865	0.516
1003.500	558.236	80.001	20.008	100.192	20.105	10.878	0.495
1004.000	558.482	79.999	20.007	100.190	20.105	10.849	0.459
1004.500	558.746	79.999	20.008	100.187	20.105	10.810	0.480
1005.000	558.947	80.000	20.007	100.181	20.104	11.071	0.488
1005.500	559.227	80.000	20.008	100.180	20.102	11.276	0.473
1006.000	559.512	80.000	20.007	100.184	20.102	11.252	0.523
1006.500	559.738	80.000	20.007	100.187	20.104	10.945	0.538
1007.000	559.990	80.000	20.008	100.186	20.104	11.078	0.495
1007.500	560.218	80.000	20.007	100.182	20.107	10.543	0.479
1008.000	560.495	80.000	20.008	100.176	20.102	11.255	0.492
1008.500	560.727	80.001	20.008	100.167	20.105	10.845	0.507
1009.000	560.927	80.000	20.007	100.165	20.103	11.146	0.471
1009.500	561.199	80.001	20.007	100.167	20.103	11.181	0.451
1010.000	561.407	79.999	20.007	100.171	20.103	11.210	0.476
1010.500	561.685	80.001	20.007	100.175	20.102	11.256	0.483
1011.000	561.958	80.001	20.008	100.172	20.103	11.187	0.519
1011.500	562.215	80.000	20.008	100.166	20.102	11.294	0.540
1012.000	562.487	80.001	20.007	100.163	20.103	11.229	0.529
1012.500	562.731	80.000	20.008	100.163	20.104	10.948	0.523
1013.000	562.963	80.001	20.007	100.165	20.104	10.935	0.496
1013.500	563.215	80.000	20.007	100.174	20.103	11.093	0.480
1014.000	563.449	80.001	20.007	100.181	20.103	11.205	0.485
1014.500	563.690	80.001	20.007	100.180	20.104	11.069	0.480
1015.000	563.906	80.001	20.008	100.180	20.104	11.030	0.466
1015.500	564.174	80.000	20.008	100.178	20.106	10.723	0.471
1016.000	564.451	80.000	20.008	100.176	20.105	10.785	0.515
1016.500	564.687	80.000	20.007	100.178	20.105	10.923	0.529
1017.000	564.911	80.001	20.007	100.185	20.106	10.648	0.486
1017.500	565.204	80.001	20.008	100.187	20.104	10.971	0.488
1018.000	565.415	80.000	20.007	100.186	20.105	10.780	0.511
1018.500	565.683	80.000	20.007	100.186	20.104	11.009	0.492
1019.000	565.928	79.999	20.007	100.183	20.106	10.730	0.496
1019.500	566.143	79.999	20.008	100.183	20.106	10.763	0.486
1020.000	566.424	80.000	20.007	100.189	20.106	10.648	0.478
1020.500	566.691	80.000	20.007	100.197	20.105	10.914	0.522
1021.000	566.919	80.001	20.007	100.205	20.104	10.933	0.521
1021.500	567.189	80.000	20.007	100.208	20.107	10.573	0.497
1022.000	567.424	80.000	20.007	100.206	20.104	11.035	0.502
1022.500	567.656	80.000	20.008	100.196	20.106	10.739	0.486
1023.000	567.936	80.000	20.007	100.188	20.105	10.865	0.490
1023.500	568.199	80.001	20.007	100.185	20.107	10.601	0.527
1024.001	568.377	80.001	20.008	100.191	20.108	10.432	0.492
1024.501	568.667	79.999	20.007	100.199	20.108	10.451	0.454
1025.000	568.914	80.000	20.007	100.210	20.108	10.371	0.502
1025.501	569.188	80.001	20.008	100.215	20.108	10.438	0.529
1026.001	569.450	80.001	20.007	100.210	20.109	10.158	0.529
1026.501	569.694	80.001	20.008	100.204	20.109	10.278	0.521
1027.000	569.931	80.000	20.008	100.203	20.109	10.276	0.493
1027.500	570.210	80.001	20.007	100.204	20.106	10.646	0.499
1028.000	570.431	80.000	20.007	100.207	20.109	10.200	0.508
1028.500	570.643	80.001	20.007	100.207	20.109	10.260	0.466
1029.000	570.898	80.000	20.008	100.203	20.109	10.177	0.450
1029.500	571.164	80.000	20.007	100.195	20.109	10.289	0.494
1030.000	571.411	80.000	20.008	100.187	20.110	10.114	0.517
1030.501	571.649	80.001	20.008	100.180	20.107	10.520	0.499
1031.001	571.911	80.001	20.008	100.188	20.107	10.494	0.493
1031.500	572.162	80.002	20.007	100.199	20.108	10.394	0.507
1032.000	572.419	80.000	20.007	100.207	20.108	10.404	0.510
1032.500	572.625	80.001	20.007	100.214	20.109	10.216	0.485
1033.000	572.880	80.000	20.007	100.214	20.108	10.382	0.462
1033.500	573.093	80.001	20.008	100.206	20.109	10.208	0.465
1034.000	573.386	80.000	20.008	100.198	20.111	9.974	0.487
1034.500	573.572	80.000	20.007	100.195	20.109	10.249	0.492
1035.000	573.864	80.001	20.008	100.193	20.109	10.246	0.478
1035.500	574.089	79.999	20.007	100.200	20.109	10.195	0.498
1036.000	574.352	80.000	20.007	100.208	20.109	10.203	0.503
1036.501	574.558	80.001	20.007	100.209	20.109	10.275	0.478
1037.001	574.836	80.001	20.008	100.204	20.109	10.267	0.476
1037.500	575.061	79.999	20.008	100.199	20.110	10.135	0.494
1038.000	575.289	80.001	20.007	100.194	20.111	9.907	0.479
1038.500	575.527	80.000	20.007	100.194	20.111	9.885	0.459
1039.000	575.771	80.000	20.008	100.202	20.110	10.063	0.474
1039.500	576.053	80.002	20.008	100.213	20.111	9.930	0.504
1040.001	576.272	80.000	20.007	100.227	20.111	9.939	0.513
1040.501	576.551	80.000	20.008	100.232	20.112	9.777	0.500
1041.000	576.771	80.001	20.008	100.232	20.113	9.648	0.499
1041.500	577.047	80.000	20.008	100.232	20.113	9.523	0.497
1042.000	577.309	80.000	20.008	100.232	20.112	9.696	0.517
1042.500	577.589	80.002	20.007	100.227	20.111	9.871	0.540
1043.000	577.810	80.001	20.007	100.228	20.112	9.772	0.522
1043.500	578.056	80.001	20.008	100.229	20.112	9.718	0.484
1044.001	578.306	80.000	20.007	100.227	20.113	9.635	0.482
1044.501	578.540	80.001	20.008	100.225	20.112	9.803	0.490
1045.000	578.771	80.001	20.008	100.224	20.112	9.784	0.474
1045.500	579.043	80.000	20.008	100.228	20.110	10.042	0.484
1046.001	579.254	80.000	20.008	100.236	20.109	10.155	0.493
1046.501	579.512	80.001	20.007	100.245	20.112	9.696	0.476
1047.000	579.734	80.001	20.007	100.251	20.111	9.973	0.474
1047.500	580.001	80.000	20.008	100.259	20.111	9.900	0.484
1048.000	580.212	80.002	20.008	100.255	20.112	9.774	0.484
1048.500	580.486	80.001	20.008	100.245	20.109	10.221	0.482
1049.000	580.732	80.000	20.008	100.230	20.110	10.057	0.502
1049.500	580.958	80.001	20.008	100.217	20.111	9.899	0.496
1050.000	581.252	80.001	20.007	100.208	20.110	10.098	0.496
1050.500	581.496	80.001	20.008	100.207	20.110	10.101	0.529
1051.000	581.739	80.000	20.008	100.209	20.107	10.593	0.512
1051.500	581.974	80.001	20.007	100.217	20.109	10.183	0.482
1052.000	582.180	80.002	20.008	100.216	20.108	10.410	0.460
1052.501	582.477	80.000	20.007	100.208	20.108	10.447	0.472
1053.001	582.740	80.001	20.008	100.200	20.109	10.212	0.531
1053.500	582.941	80.002	20.008	100.195	20.110	10.143	0.512
1054.000	583.202	79.999	20.008	100.195	20.108	10.448	0.463
1054.500	583.467	80.001	20.007	100.201	20.108	10.438	0.494
1055.001	583.726	80.001	20.009	100.210	20.109	10.210	0.525
1055.501	583.943	80.002	20.010	100.212	20.109	10.251	0.500
1056.001	584.183	79.999	20.008	100.210	20.108	10.413	0.466
1056.500	584.434	80.001	20.008	100.202	20.109	10.279	0.474
1057.000	584.678	80.000	20.007	100.194	20.110	10.101	0.493
1057.500	584.963	80.001	20.008	100.194	20.109	10.284	0.512
1058.000	585.198	80.000	20.007	100.200	20.107	10.592	0.525
1058.500	585.432	80.001	20.008	100.207	20.106	10.730	0.495
1059.001	585.711	80.001	20.007	100.211	20.108	10.449	0.491
1059.501	585.930	80.001	20.008	100.211	20.108	10.375	0.506
1060.000	586.211	80.000	20.008	100.205	20.109	10.177	0.499
1060.500	586.460	80.001	20.007	100.201	20.109	10.263	0.515
1061.000	586.686	80.000	20.008	100.202	20.107	10.492	0.503
1061.500	586.935	80.001	20.008	100.206	20.108	10.400	0.475
1062.001	587.187	80.002	20.008	100.220	20.110	10.113	0.488
1062.501	587.434	80.001	20.007	100.230	20.108	10.333	0.500
1063.000	587.690	80.000	20.007	100.235	20.110	10.080	0.500
1063.500	587.917	80.000	20.008	100.235	20.110	10.138	0.493
1064.000	588.180	80.000	20.008	100.232	20.109	10.295	0.487
1064.500	588.416	80.000	20.008	100.224	20.110	10.050	0.494
1065.000	588.707	80.001	20.007	100.219	20.111	9.850	0.513
1065.500	588.903	80.001	20.007	100.219	20.110	10.082	0.507
1066.000	589.130	80.000	20.007	100.221	20.109	10.212	0.455
1066.500	589.385	80.000	20.007	100.225	20.111	9.938	0.453
1067.000	589.641	80.001	20.008	100.227	20.112	9.705	0.497
1067.501	589.885	80.000	20.008	100.231	20.117	8.974	0.505
1068.001	590.154	80.002	20.007	100.234	20.116	9.141	0.507
1068.501	590.350	80.000	20.007	100.239	20.116	9.057	0.489
1069.001	590.644	80.000	20.008	100.245	20.115	9.278	0.477
1069.500	590.897	80.000	20.008	100.255	20.118	8.853	0.518
1070.000	591.112	79.999	20.007	100.268	20.117	8.953	0.508
1070.500	591.358	80.000	20.007	100.275	20.120	8.452	0.465
1071.000	591.606	80.000	20.007	100.276	20.120	8.555	0.477
1071.500	591.864	80.001	20.008	100.276	20.121	8.386	0.500
1072.000	592.079	80.001	20.008	100.271	20.118	8.878	0.490
1072.500	592.355	80.001	20.008	100.264	20.117	8.959	0.482
1073.000	592.587	80.000	20.008	100.260	20.120	8.443	0.499
1073.500	592.869	80.001	20.008	100.265	20.118	8.846	0.511
1074.000	593.077	80.000	20.007	100.272	20.119	8.601	0.502
1074.500	593.308	80.001	20.007	100.282	20.119	8.717	0.464
1075.000	593.577	80.000	20.007	100.281	20.116	9.061	0.469
1075.500	593.825	80.000	20.008	100.270	20.117	8.923	0.508
1076.000	594.056	80.002	20.007	100.251	20.117	9.029	0.498
1076.500	594.303	80.000	20.008	100.235	20.116	9.204	0.478
1077.000	594.551	80.000	20.008	100.219	20.113	9.613	0.486
1077.500	594.835	80.001	20.008	100.220	20.112	9.797	0.514
1078.001	595.074	80.001	20.007	100.230	20.112	9.823	0.528
1078.501	595.306	79.999	20.008	100.243	20.110	10.074	0.497
1079.000	595.578	80.001	20.007	100.250	20.112	9.696	0.488
1079.500	595.842	80.000	20.007	100.249	20.112	9.687	0.520
1080.000	596.063	80.000	20.008	100.240	20.110	10.125	0.510
1080.500	596.325	80.000	20.008	100.224	20.109	10.179	0.484
1081.000	596.566	80.002	20.008	100.209	20.111	9.886	0.493
1081.500	596.783	80.000	20.008	100.197	20.111	9.921	0.480
1082.000	597.046	80.000	20.008	100.197	20.117	8.982	0.469
1082.500	597.288	80.000	20.007	100.204	20.112	9.728	0.493
1083.000	597.532	80.001	20.007	100.218	20.110	10.104	0.496
1083.501	597.816	80.000	20.007	100.227	20.111	9.893	0.507
1084.001	598.073	80.000	20.008	100.234	20.109	10.257	0.534
1084.500	598.313	80.001	20.007	100.234	20.110	10.007	0.518
1085.000	598.580	80.000	20.007	100.226	20.109	10.179	0.502
1085.500	598.811	80.000	20.008	100.213	20.109	10.280	0.503
1086.000	599.071	80.001	20.008	100.204	20.107	10.480	0.495
1086.500	599.328	80.000	20.008	100.197	20.108	10.426	0.504
1087.000	599.554	80.001	20.007	100.192	20.106	10.641	0.500
1087.500	599.818	80.001	20.007	100.193	20.109	10.295	0.486
1088.001	600.044	79.999	20.008	100.200	20.106	10.710	0.490
1088.501	600.331	80.002	20.008	100.208	20.106	10.676	0.501
1089.000	600.560	80.001	20.007	100.214	20.107	10.615	0.514
1089.500	600.802	80.000	20.008	100.212	20.106	10.689	0.494
1090.000	600.995	80.000	20.008	100.204	20.108	10.384	0.453
1090.500	601.296	80.001	20.008	100.196	20.108	10.430	0.464
1091.001	601.533	80.001	20.008	100.192	20.107	10.479	0.516
1091.501	601.807	79.999	20.008	100.195	20.105	10.786	0.525
1092.000	602.059	80.001	20.008	100.210	20.109	10.193	0.519
1092.500	602.287	80.000	20.007	100.226	20.109	10.278	0.503
1093.000	602.507	80.001	20.007	100.242	20.109	10.175	0.464
1093.501	602.757	80.001	20.008	100.254	20.111	9.906	0.459
1094.001	602.996	79.999	20.007	100.260	20.111	9.965	0.479
1094.500	603.239	80.000	20.008	100.253	20.110	10.061	0.486
1095.000	603.538	80.000	20.008	100.245	20.108	10.431	0.512
1095.500	603.768	80.001	20.008	100.237	20.110	10.103	0.536
1096.001	604.006	80.001	20.008	100.232	20.107	10.519	0.499
1096.501	604.201	80.000	20.008	100.231	20.110	10.142	0.450
1097.000	604.514	80.000	20.008	100.238	20.108	10.334	0.470
1097.501	604.772	80.000	20.007	100.246	20.108	10.327	0.539
1098.001	605.116	80.001	20.008	100.247	20.109	10.305	0.586
1098.501	605.272	80.001	20.007	100.238	20.111	9.853	0.551
1099.001	605.568	80.002	20.008	100.223	20.109	10.224	0.476
1099.500	605.790	80.000	20.008	100.211	20.111	9.914	0.485
1100.000	606.033	80.001	20.007	100.209	20.109	10.212	0.491
1100.500	606.344	80.001	20.008	100.217	20.111	9.983	0.510
1101.000	606.544	80.000	20.007	100.239	20.112	9.691	0.533
1101.500	606.837	79.999	20.007	100.264	20.114	9.433	0.502
1102.000	607.114	79.998	20.008	100.283	20.119	8.719	0.531
1102.500	607.350	80.001	20.008	100.289	20.119	8.613	0.542
1103.001	607.584	80.000	20.008	100.287	20.113	9.571	0.492
1103.501	607.886	80.000	20.009	100.281	20.115	9.293	0.503
1104.000	608.058	80.000	20.007	100.279	20.114	9.435	0.505
1104.500	608.323	80.000	20.008	100.272	20.113	9.553	0.456
1105.000	608.593	80.002	20.009	100.261	20.111	9.969	0.486
1105.500	608.856	80.000	20.008	100.252	20.111	9.856	0.533
1106.000	609.069	79.999	20.008	100.244	20.110	10.007	0.504
1106.500	609.340	80.001	20.008	100.230	20.110	10.109	0.480
1107.000	609.598	80.000	20.008	100.223	20.110	10.056	0.506
1107.500	609.809	80.000	20.008	100.223	20.110	10.109	0.499
1108.000	610.084	80.001	20.008	100.222	20.112	9.819	0.478
1108.500	610.324	80.000	20.008	100.220	20.114	9.480	0.501
1109.000	610.588	80.001	20.008	100.219	20.111	9.963	0.509
1109.500	610.831	80.000	20.008	100.215	20.111	9.941	0.505
1110.000	611.076	80.001	20.008	100.212	20.112	9.766	0.498
1110.500	611.292	80.000	20.008	100.213	20.110	10.103	0.474
1111.000	611.580	80.000	20.008	100.223	20.109	10.188	0.482
1111.500	611.805	80.000	20.008	100.231	20.110	10.052	0.509
1112.000	612.089	80.001	20.008	100.242	20.110	10.038	0.511
1112.500	612.308	80.000	20.008	100.248	20.115	9.253	0.506
1113.000	612.562	80.001	20.008	100.248	20.111	9.937	0.488
1113.501	612.830	80.001	20.008	100.241	20.112	9.812	0.498
1114.001	613.071	80.001	20.008	100.233	20.111	9.875	0.515
1114.501	613.343	80.001	20.008	100.226	20.110	10.130	0.511
1115.000	613.571	80.000	20.008	100.222	20.111	9.961	0.507
1115.500	613.820	80.000	20.007	100.220	20.109	10.169	0.488
1116.000	614.046	80.000	20.007	100.217	20.105	10.906	0.476
1116.500	614.318	80.000	20.007	100.216	20.106	10.684	0.487
1117.000	614.600	80.000	20.008	100.211	20.105	10.839	0.526
1117.500	614.888	80.000	20.008	100.204	20.105	10.779	0.562
1118.000	615.053	80.000	20.008	100.196	20.106	10.726	0.511
1118.500	615.375	80.001	20.008	100.191	20.106	10.684	0.470
1119.000	615.610	80.000	20.008	100.182	20.104	11.015	0.522
1119.500	615.853	80.000	20.008	100.177	20.106	10.665	0.517
1120.000	616.092	80.000	20.008	100.176	20.104	10.959	0.480
1120.500	616.372	79.999	20.008	100.180	20.104	11.078	0.501
1121.000	616.569	80.000	20.008	100.190	20.103	11.240	0.498
1121.500	616.859	80.000	20.008	100.200	20.105	10.824	0.482
1122.001	617.057	80.000	20.008	100.210	20.107	10.485	0.487
1122.501	617.343	80.001	20.008	100.217	20.106	10.644	0.486
1123.000	617.600	80.001	20.008	100.219	20.107	10.599	0.514
1123.501	617.844	80.001	20.008	100.215	20.104	11.046	0.523
1124.001	618.075	80.000	20.008	100.209	20.103	11.122	0.488
1124.501	618.340	80.001	20.008	100.203	20.105	10.916	0.485
1125.001	618.535	80.001	20.008	100.200	20.103	11.143	0.478
1125.500	618.810	80.001	20.008	100.202	20.103	11.180	0.465
1126.001	619.058	80.001	20.008	100.206	20.102	11.311	0.497
1126.501	619.345	80.000	20.008	100.212	20.108	10.392	0.529
1127.000	619.565	80.001	20.008	100.218	20.102	11.255	0.521
1127.500	619.794	80.000	20.008	100.222	20.103	11.203	0.478
1128.000	620.070	80.000	20.008	100.222	20.103	11.104	0.477
1128.500	620.325	80.002	20.008	100.221	20.105	10.890	0.518
1129.000	620.588	80.001	20.008	100.219	20.104	10.975	0.524
1129.500	620.803	80.001	20.008	100.214	20.105	10.888	0.498
1130.000	621.063	80.000	20.008	100.209	20.104	10.953	0.477
1130.500	621.318	80.000	20.008	100.208	20.105	10.801	0.495
1131.000	621.553	80.000	20.007	100.209	20.106	10.715	0.503
1131.500	621.773	80.002	20.008	100.210	20.105	10.842	0.473
1132.001	621.991	80.000	20.008	100.216	20.105	10.810	0.447
1132.501	622.242	80.001	20.008	100.221	20.109	10.167	0.454
1133.000	622.456	80.000	20.008	100.221	20.106	10.669	0.467
1133.500	622.715	80.000	20.008	100.222	20.108	10.355	0.469
1134.000	622.966	80.000	20.008	100.224	20.108	10.448	0.491
1134.500	623.184	80.001	20.008	100.227	20.108	10.444	0.489
1135.000	623.427	80.000	20.007	100.234	20.111	9.908	0.465
1135.501	623.711	80.001	20.008	100.242	20.109	10.291	0.494
1136.001	623.903	79.999	20.008	100.254	20.107	10.512	0.502
1136.501	624.123	80.000	20.009	100.263	20.108	10.439	0.444
1137.000	624.369	80.000	20.008	100.260	20.107	10.509	0.439
1137.500	624.627	80.000	20.009	100.251	20.107	10.479	0.485
1138.001	624.858	80.000	20.008	100.240	20.106	10.733	0.496
1138.501	625.129	80.001	20.009	100.221	20.102	11.350	0.496
1139.000	625.397	80.000	20.008	100.207	20.102	11.346	0.521
1139.500	625.626	79.999	20.009	100.206	20.103	11.096	0.518
1140.000	625.850	80.000	20.008	100.208	20.103	11.151	0.475
1140.501	626.132	80.000	20.008	100.212	20.103	11.138	0.479
1141.001	626.402	80.001	20.009	100.218	20.103	11.118	0.529
1141.500	626.612	79.999	20.008	100.221	20.100	11.581	0.516
1142.000	626.869	80.001	20.008	100.215	20.102	11.386	0.473
1142.500	627.166	79.999	20.010	100.207	20.101	11.525	0.510
1143.000	627.404	79.999	20.009	100.199	20.102	11.363	0.545
1143.500	627.634	80.000	20.008	100.198	20.101	11.489	0.502
1144.001	627.908	80.002	20.008	100.198	20.104	11.001	0.486
1144.501	628.159	79.999	20.008	100.204	20.103	11.140	0.514
1145.000	628.390	80.001	20.009	100.216	20.104	11.078	0.503
1145.500	628.673	80.000	20.008	100.228	20.102	11.287	0.498
1146.001	628.864	79.999	20.008	100.230	20.103	11.119	0.494
1146.501	629.137	80.001	20.009	100.231	20.104	11.028	0.469
1147.000	629.427	80.000	20.008	100.230	20.103	11.138	0.514
1147.500	629.633	80.001	20.008	100.223	20.105	10.821	0.530
1148.000	629.935	80.000	20.009	100.212	20.104	11.086	0.503
1148.500	630.129	80.001	20.009	100.210	20.105	10.871	0.502
1149.000	630.424	80.000	20.007	100.210	20.104	11.072	0.492
1149.501	630.647	79.999	20.007	100.209	20.103	11.230	0.503
1150.001	630.915	80.000	20.008	100.212	20.103	11.146	0.504
1150.500	631.182	79.999	20.008	100.216	20.100	11.594	0.513
1151.000	631.425	79.999	20.008	100.211	20.098	11.972	0.523
1151.500	631.677	80.001	20.008	100.205	20.101	11.450	0.502
1152.000	631.896	79.999	20.008	100.191	20.098	11.893	0.483
1152.500	632.158	80.000	20.008	100.177	20.097	12.049	0.476
1153.000	632.437	80.000	20.007	100.168	20.096	12.240	0.511
1153.500	632.672	79.999	20.008	100.166	20.100	11.602	0.528
1154.000	632.926	80.000	20.007	100.165	20.100	11.688	0.502
1154.500	633.137	79.999	20.008	100.168	20.099	11.847	0.477
1155.000	633.370	80.000	20.008	100.171	20.098	11.907	0.454
1155.500	633.642	80.001	20.007	100.174	20.097	12.064	0.474
1156.000	633.893	80.000	20.007	100.175	20.099	11.768	0.514
1156.500	634.142	79.999	20.007	100.176	20.098	11.874	0.512
1157.000	634.403	80.001	20.008	100.181	20.102	11.395	0.505
1157.500	634.627	79.999	20.008	100.187	20.101	11.473	0.498
1158.000	634.863	80.000	20.008	100.191	20.103	11.161	0.473
1158.500	635.147	80.000	20.009	100.202	20.102	11.352	0.490
1159.000	635.359	80.000	20.006	100.231	20.104	10.995	0.508
1159.501	635.560	80.001	20.008	100.248	20.105	10.857	0.454
1160.001	635.837	79.999	20.008	100.254	20.102	11.337	0.445
1160.500	636.137	79.999	20.010	100.256	20.101	11.420	0.528
1161.000	636.381	80.000	20.007	100.266	20.101	11.436	0.561
1161.500	636.607	80.000	20.007	100.261	20.102	11.399	0.507
1162.000	636.860	80.000	20.008	100.255	20.100	11.679	0.474
1162.500	637.144	80.001	20.008	100.248	20.100	11.562	0.508
1163.000	637.379	80.001	20.008	100.243	20.101	11.416	0.528
1163.500	637.621	79.998	20.008	100.230	20.100	11.577	0.498
1164.000	637.937	80.000	20.008	100.213	20.100	11.608	0.517
1164.500	638.150	79.999	20.007	100.211	20.101	11.408	0.544
1165.000	638.431	80.002	20.008	100.215	20.099	11.723	0.512
1165.501	638.647	79.999	20.008	100.218	20.100	11.559	0.495
1166.001	638.904	80.000	20.007	100.213	20.102	11.376	0.485
1166.501	639.138	79.999	20.008	100.208	20.101	11.438	0.482
1167.001	639.388	80.001	20.008	100.207	20.100	11.704	0.488
1167.500	639.664	80.000	20.008	100.211	20.100	11.640	0.505
1168.000	639.929	80.000	20.008	100.218	20.100	11.554	0.533
1168.500	640.180	80.000	20.008	100.230	20.099	11.856	0.528
1169.000	640.450	79.999	20.007	100.243	20.101	11.549	0.519
1169.500	640.700	80.000	20.008	100.244	20.099	11.834	0.521
1170.000	640.953	80.000	20.008	100.244	20.099	11.848	0.512
1170.501	641.217	79.999	20.008	100.238	20.097	12.053	0.510
1171.001	641.473	80.000	20.007	100.228	20.101	11.484	0.518
1171.500	641.699	80.000	20.008	100.221	20.099	11.755	0.501
1172.000	641.986	80.000	20.008	100.220	20.100	11.663	0.497
1172.500	642.242	80.000	20.008	100.223	20.099	11.799	0.528
1173.000	642.533	79.999	20.008	100.229	20.100	11.645	0.545
1173.500	642.780	80.001	20.007	100.233	20.101	11.534	0.543
1174.000	643.083	80.000	20.008	100.233	20.098	11.955	0.544
1174.500	643.314	80.000	20.007	100.229	20.099	11.720	0.542
1175.000	643.535	80.000	20.008	100.218	20.102	11.283	0.493
1175.500	643.847	80.001	20.008	100.205	20.101	11.533	0.492
1176.000	644.030	80.001	20.008	100.197	20.100	11.565	0.514
1176.500	644.343	79.999	20.008	100.196	20.099	11.719	0.495
1177.000	644.599	80.001	20.007	100.204	20.103	11.207	0.533
1177.500	644.844	80.000	20.008	100.219	20.101	11.475	0.535
1178.000	645.109	79.999	20.008	100.228	20.102	11.337	0.506
1178.501	645.337	80.000	20.008	100.235	20.100	11.584	0.501
1179.001	645.600	80.000	20.008	100.230	20.101	11.472	0.492
1179.501	645.895	80.000	20.008	100.219	20.099	11.769	0.525
1180.000	646.140	80.000	20.008	100.204	20.101	11.474	0.549
1180.500	646.385	80.001	20.007	100.198	20.099	11.715	0.515
1181.001	646.627	80.000	20.008	100.198	20.101	11.530	0.489
1181.501	646.893	80.000	20.007	100.204	20.100	11.626	0.498
1182.001	647.168	80.002	20.008	100.210	20.101	11.409	0.524
1182.501	647.449	79.999	20.007	100.218	20.101	11.544	0.548
1183.000	647.684	79.999	20.007	100.223	20.100	11.635	0.536
1183.500	647.977	80.001	20.008	100.221	20.103	11.241	0.522
1184.000	648.213	80.000	20.008	100.219	20.103	11.188	0.529
1184.500	648.498	79.999	20.008	100.220	20.105	10.877	0.525
1185.000	648.744	80.001	20.008	100.223	20.103	11.151	0.526
1185.501	648.943	80.001	20.007	100.230	20.109	10.220	0.488
1186.001	649.239	80.001	20.008	100.239	20.108	10.400	0.470
1186.500	649.522	80.000	20.007	100.252	20.107	10.556	0.537
1187.000	649.754	80.000	20.008	100.259	20.107	10.519	0.547
1187.500	650.012	80.001	20.008	100.258	20.108	10.416	0.502
1188.000	650.256	80.001	20.008	100.250	20.107	10.617	0.495
1188.500	650.512	80.000	20.008	100.240	20.109	10.263	0.501
1189.000	650.777	80.001	20.008	100.230	20.110	10.052	0.511
1189.500	651.084	80.001	20.008	100.222	20.108	10.317	0.547
1190.000	651.291	80.000	20.007	100.221	20.109	10.255	0.543
1190.500	651.570	80.001	20.008	100.227	20.107	10.493	0.500
1191.001	651.874	80.000	20.007	100.230	20.109	10.255	0.535
1191.501	652.119	80.001	20.008	100.229	20.109	10.254	0.566
1192.000	652.333	80.000	20.008	100.228	20.109	10.246	0.504
1192.500	652.598	80.000	20.008	100.225	20.107	10.517	0.469
1193.000	652.850	80.000	20.008	100.220	20.107	10.528	0.498
1193.500	653.127	80.001	20.008	100.218	20.107	10.509	0.523
1194.000	653.383	80.001	20.008	100.219	20.109	10.298	0.531
1194.500	653.638	80.000	20.008	100.221	20.106	10.705	0.522
1195.001	653.913	80.000	20.007	100.224	20.108	10.321	0.521
1195.501	654.155	80.001	20.008	100.221	20.108	10.390	0.523
1196.000	654.419	80.000	20.008	100.213	20.107	10.525	0.511
1196.500	654.697	80.000	20.008	100.205	20.107	10.578	0.524
1197.000	654.895	80.002	20.008	100.196	20.107	10.535	0.509
1197.500	655.156	80.000	20.008	100.192	20.103	11.223	0.467
1198.000	655.420	80.000	20.008	100.195	20.105	10.916	0.492
1198.501	655.697	80.000	20.008	100.203	20.106	10.761	0.534
1199.001	655.940	80.000	20.007	100.210	20.106	10.645	0.531
1199.500	656.201	79.999	20.007	100.218	20.105	10.916	0.511
1200.000	656.467	80.000	20.008	100.216	20.107	10.476	0.515
1200.500	656.737	80.000	20.008	100.207	20.104	10.952	0.532
1201.000	656.976	80.002	20.008	100.203	20.105	10.846	0.523
1201.500	657.250	80.000	20.008	100.204	20.106	10.682	0.511
1202.000	657.549	80.000	20.008	100.205	20.103	11.194	0.543
1202.500	657.796	80.001	20.008	100.210	20.104	10.976	0.560
1203.001	658.003	79.999	20.007	100.218	20.103	11.243	0.500
1203.501	658.284	80.001	20.008	100.222	20.103	11.160	0.471
1204.000	658.560	80.001	20.008	100.215	20.105	10.913	0.523
1204.500	658.780	80.000	20.008	100.207	20.105	10.877	0.527
1205.000	659.061	79.999	20.008	100.199	20.105	10.785	0.498
1205.500	659.291	80.001	20.008	100.198	20.103	11.166	0.506
1206.000	659.540	80.000	20.008	100.203	20.104	11.033	0.495
1206.501	659.759	80.001	20.008	100.214	20.104	11.024	0.473
1207.001	660.040	80.000	20.008	100.223	20.104	11.030	0.484
1207.500	660.315	80.001	20.008	100.227	20.106	10.745	0.529
1208.000	660.583	80.001	20.008	100.222	20.104	11.029	0.550
1208.500	660.778	80.001	20.008	100.213	20.105	10.831	0.502
1209.000	661.083	79.999	20.008	100.208	20.105	10.822	0.481
1209.500	661.373	80.001	20.008	100.207	20.105	10.882	0.548
1210.000	661.591	80.000	20.008	100.209	20.103	11.113	0.552
1210.500	661.910	80.001	20.007	100.218	20.104	11.057	0.522
1211.001	662.143	80.000	20.008	100.223	20.103	11.179	0.545
1211.501	662.382	80.001	20.007	100.221	20.104	11.029	0.513
1212.000	662.620	80.001	20.008	100.218	20.104	10.963	0.475
1212.500	662.896	80.002	20.008	100.217	20.103	11.179	0.495
1213.000	663.156	80.000	20.008	100.215	20.104	11.018	0.525
1213.500	663.421	80.000	20.008	100.216	20.103	11.200	0.531
1214.000	663.682	80.001	20.008	100.218	20.103	11.154	0.526
1214.500	663.942	80.000	20.008	100.222	20.104	11.080	0.523
1215.000	664.227	80.000	20.008	100.223	20.105	10.880	0.533
1215.500	664.464	80.000	20.008	100.222	20.104	11.025	0.534
1216.001	664.711	80.001	20.008	100.221	20.104	11.044	0.503
1216.501	664.968	80.000	20.008	100.220	20.105	10.882	0.494
1217.001	665.214	80.000	20.008	100.220	20.104	11.038	0.503
1217.501	665.451	80.001	20.008	100.224	20.105	10.784	0.493
1218.001	665.752	80.001	20.008	100.233	20.108	10.460	0.510
1218.501	666.000	80.001	20.008	100.237	20.107	10.552	0.543
1219.000	666.204	79.999	20.008	100.237	20.108	10.384	0.501
1219.500	666.476	80.001	20.008	100.237	20.107	10.476	0.464
1220.000	666.709	80.001	20.008	100.233	20.105	10.797	0.491
1220.500	666.996	80.001	20.008	100.226	20.106	10.649	0.513
1221.000	667.212	79.999	20.008	100.223	20.104	11.027	0.512
1221.500	667.496	80.002	20.008	100.230	20.108	10.442	0.502
1222.000	667.757	80.001	20.008	100.237	20.106	10.647	0.522
1222.500	667.962	80.001	20.008	100.240	20.109	10.200	0.505
1223.000	668.224	80.000	20.008	100.243	20.107	10.464	0.467
1223.500	668.509	80.001	20.008	100.242	20.112	9.819	0.507
1224.001	668.749	79.999	20.008	100.235	20.110	10.116	0.536
1224.501	668.986	80.001	20.008	100.228	20.109	10.262	0.501
1225.000	669.257	80.000	20.008	100.229	20.107	10.593	0.493
1225.500	669.484	80.002	20.008	100.235	20.106	10.649	0.503
1226.000	669.748	80.000	20.008	100.243	20.107	10.477	0.494
1226.501	670.011	80.001	20.008	100.247	20.109	10.289	0.509
1227.001	670.197	80.000	20.008	100.248	20.107	10.507	0.488
1227.501	670.432	80.001	20.008	100.243	20.106	10.666	0.435
1228.001	670.709	80.001	20.009	100.228	20.105	10.855	0.467
1228.501	670.967	80.000	20.008	100.219	20.106	10.697	0.524
1229.001	671.205	80.000	20.008	100.216	20.107	10.522	0.516
1229.501	671.498	80.001	20.008	100.215	20.105	10.925	0.513
1230.001	671.701	79.999	20.007	100.217	20.108	10.438	0.514
1230.500	671.906	80.001	20.008	100.224	20.106	10.719	0.452
1231.000	672.178	80.002	20.008	100.223	20.107	10.503	0.442
1231.501	672.409	80.001	20.008	100.219	20.107	10.606	0.490
1232.001	672.697	80.002	20.008	100.215	20.107	10.594	0.511
1232.500	672.916	80.000	20.008	100.215	20.107	10.584	0.513
1233.000	673.133	80.000	20.007	100.220	20.108	10.370	0.471
1233.500	673.367	80.000	20.008	100.229	20.106	10.737	0.444
1234.000	673.676	80.000	20.008	100.235	20.105	10.809	0.497
1234.500	673.941	80.001	20.008	100.240	20.105	10.835	0.558
1235.000	674.168	80.002	20.008	100.239	20.104	10.964	0.533
1235.500	674.399	80.000	20.008	100.231	20.106	10.740	0.475
1236.001	674.670	80.000	20.008	100.222	20.105	10.870	0.480
1236.501	674.892	80.001	20.008	100.220	20.104	11.068	0.498
1237.000	675.144	80.001	20.008	100.220	20.106	10.684	0.484
1237.500	675.382	80.000	20.008	100.221	20.103	11.100	0.482
1238.000	675.640	80.001	20.008	100.224	20.105	10.904	0.492
1238.501	675.914	80.000	20.008	100.225	20.106	10.665	0.514
1239.001	676.133	80.001	20.009	100.225	20.104	11.062	0.513
1239.501	676.429	80.001	20.008	100.224	20.107	10.517	0.504
1240.001	676.680	80.001	20.008	100.229	20.104	11.075	0.531
1240.501	676.904	80.000	20.008	100.233	20.105	10.854	0.511
1241.000	677.162	80.000	20.008	100.239	20.105	10.841	0.478
1241.500	677.379	80.001	20.007	100.245	20.102	11.290	0.479
1242.000	677.628	80.000	20.008	100.246	20.104	11.075	0.471
1242.500	677.913	80.001	20.008	100.240	20.103	11.141	0.500
1243.000	678.139	80.000	20.008	100.235	20.104	11.077	0.522
1243.501	678.426	80.001	20.008	100.228	20.103	11.110	0.512
1244.001	678.675	79.999	20.008	100.221	20.106	10.694	0.524
1244.500	678.936	80.000	20.008	100.225	20.104	10.975	0.523
1245.000	679.197	80.000	20.008	100.233	20.105	10.816	0.516
1245.500	679.400	80.001	20.007	100.239	20.107	10.484	0.494
1246.001	679.710	80.001	20.008	100.242	20.106	10.720	0.489
1246.501	679.957	80.001	20.008	100.241	20.105	10.866	0.534
1247.000	680.206	79.999	20.008	100.238	20.105	10.801	0.526
1247.500	680.458	80.001	20.008	100.237	20.105	10.858	0.499
1248.000	680.709	80.000	20.008	100.239	20.105	10.872	0.503
1248.501	680.939	80.000	20.008	100.245	20.104	11.024	0.492
1249.001	681.195	80.000	20.007	100.253	20.102	11.385	0.483
1249.501	681.491	80.002	20.008	100.255	20.103	11.208	0.519
1250.001	681.724	80.001	20.008	100.247	20.103	11.197	0.541
1250.500	681.963	80.002	20.007	100.240	20.102	11.327	0.501
1251.000	682.200	80.000	20.008	100.232	20.102	11.375	0.474
1251.501	682.476	80.000	20.008	100.225	20.101	11.439	0.495
1252.001	682.734	80.000	20.008	100.223	20.103	11.219	0.524
1252.501	682.988	80.001	20.007	100.224	20.102	11.306	0.523
1253.001	683.240	80.000	20.008	100.226	20.105	10.888	0.508
1253.500	683.514	80.000	20.008	100.229	20.102	11.289	0.516
1254.001	683.765	80.001	20.008	100.230	20.103	11.163	0.526
1254.501	684.038	80.000	20.008	100.228	20.100	11.648	0.524
1255.000	684.261	80.001	20.008	100.227	20.100	11.588	0.510
1255.500	684.569	79.999	20.008	100.227	20.099	11.720	0.513
1256.001	684.808	80.001	20.007	100.240	20.101	11.488	0.539
1256.501	685.048	80.001	20.008	100.246	20.104	11.002	0.513
1257.000	685.321	80.001	20.008	100.246	20.103	11.167	0.496
1257.500	685.567	80.001	20.008	100.244	20.103	11.157	0.516
1258.000	685.827	80.000	20.008	100.240	20.105	10.870	0.513
1258.500	686.089	80.001	20.008	100.224	20.105	10.867	0.514
1259.000	686.354	80.001	20.008	100.214	20.106	10.772	0.524
1259.501	686.602	80.000	20.008	100.216	20.104	10.994	0.520
1260.001	686.853	80.001	20.008	100.225	20.108	10.386	0.506
1260.500	687.076	80.000	20.008	100.235	20.109	10.161	0.486
1261.000	687.392	80.000	20.007	100.244	20.108	10.339	0.506
1261.500	687.643	80.001	20.010	100.244	20.111	9.958	0.553
1262.000	687.865	79.999	20.008	100.249	20.112	9.826	0.520
1262.500	688.124	80.001	20.007	100.265	20.113	9.648	0.477
1263.000	688.401	80.000	20.008	100.280	20.113	9.547	0.508
1263.500	688.616	80.001	20.008	100.290	20.113	9.623	0.514
1264.001	688.883	80.000	20.008	100.308	20.112	9.687	0.487
1264.501	689.114	80.001	20.008	100.313	20.114	9.499	0.490
1265.000	689.348	80.000	20.009	100.299	20.108	10.463	0.481
1265.500	689.592	79.999	20.008	100.283	20.107	10.476	0.471
1266.000	689.847	79.999	20.009	100.266	20.108	10.403	0.489
1266.501	690.079	80.000	20.009	100.250	20.106	10.641	0.494
1267.001	690.336	80.000	20.008	100.241	20.107	10.543	0.488
1267.500	690.553	80.000	20.008	100.234	20.108	10.418	0.481
1268.000	690.822	79.999	20.008	100.228	20.106	10.758	0.480
1268.500	691.113	80.000	20.008	100.227	20.105	10.810	0.523
1269.001	691.332	80.000	20.008	100.226	20.106	10.667	0.535
1269.501	691.503	80.000	20.008	100.223	20.105	10.779	0.450
1270.000	691.753	80.000	20.008	100.220	20.105	10.868	0.405
1270.500	691.999	79.999	20.008	100.219	20.107	10.615	0.458
1271.001	692.231	80.000	20.008	100.219	20.106	10.751	0.487
1271.501	692.524	79.999	20.008	100.224	20.104	11.026	0.501
1272.001	692.741	80.001	20.008	100.232	20.107	10.500	0.517
1272.501	693.015	80.000	20.008	100.234	20.103	11.229	0.500
1273.000	693.303	80.000	20.007	100.236	20.107	10.534	0.527
1273.500	693.512	79.999	20.009	100.236	20.104	10.949	0.529
1274.000	693.747	80.002	20.008	100.231	20.107	10.559	0.471
1274.500	694.006	80.001	20.008	100.223	20.107	10.504	0.470
1275.000	694.278	80.000	20.009	100.224	20.106	10.763	0.512
1275.500	694.514	80.000	20.008	100.231	20.106	10.688	0.519
1276.000	694.737	80.001	20.008	100.238	20.106	10.671	0.484
1276.501	695.032	80.000	20.008	100.247	20.107	10.578	0.488
1277.001	695.263	80.001	20.008	100.255	20.109	10.217	0.522
1277.500	695.531	80.000	20.008	100.257	20.106	10.713	0.512
1278.000	695.754	80.000	20.008	100.249	20.107	10.488	0.495
1278.500	696.036	79.999	20.008	100.245	20.105	10.810	0.498
1279.000	696.278	80.000	20.009	100.245	20.108	10.384	0.515
1279.500	696.545	80.000	20.008	100.246	20.105	10.784	0.517
1280.000	696.762	80.000	20.007	100.250	20.108	10.454	0.497
1280.500	697.008	80.000	20.008	100.258	20.108	10.403	0.474
1281.001	697.257	80.001	20.008	100.256	20.108	10.323	0.479
1281.501	697.494	80.000	20.008	100.247	20.108	10.323	0.490
1282.000	697.777	79.999	20.008	100.240	20.108	10.376	0.503
1282.500	698.009	80.001	20.008	100.236	20.106	10.723	0.517
1283.000	698.283	80.000	20.008	100.237	20.107	10.473	0.510
1283.500	698.541	80.000	20.008	100.246	20.108	10.421	0.519
1284.000	698.784	79.999	20.007	100.254	20.103	11.095	0.517
1284.500	699.065	80.000	20.008	100.259	20.107	10.546	0.512
1285.000	699.276	80.000	20.008	100.253	20.103	11.190	0.508
1285.500	699.548	80.001	20.008	100.244	20.104	10.942	0.488
1286.000	699.806	80.001	20.008	100.232	20.106	10.635	0.507
1286.500	700.064	79.999	20.009	100.223	20.104	10.970	0.523
1287.000	700.321	80.000	20.008	100.222	20.105	10.865	0.516
1287.501	700.557	80.001	20.009	100.230	20.106	10.674	0.504
1288.001	700.838	80.000	20.008	100.239	20.105	10.803	0.505
1288.501	701.035	80.000	20.008	100.246	20.106	10.654	0.497
1289.001	701.307	80.000	20.008	100.246	20.106	10.686	0.473
1289.501	701.568	80.000	20.008	100.243	20.107	10.580	0.501
1290.000	701.779	80.000	20.008	100.238	20.106	10.689	0.503
1290.500	702.063	80.000	20.008	100.234	20.106	10.726	0.484
1291.001	702.318	80.001	20.008	100.236	20.107	10.561	0.517
1291.501	702.576	80.000	20.008	100.244	20.107	10.541	0.526
1292.000	702.859	80.000	20.008	100.252	20.106	10.722	0.527
1292.500	703.102	80.001	20.007	100.256	20.107	10.502	0.534
1293.000	703.366	80.001	20.008	100.254	20.108	10.376	0.517
1293.501	703.603	80.001	20.008	100.247	20.106	10.649	0.504
1294.001	703.867	80.000	20.008	100.239	20.104	10.956	0.500
1294.501	704.155	80.000	20.008	100.234	20.106	10.743	0.526
1295.001	704.375	80.000	20.008	100.235	20.108	10.453	0.531
1295.501	704.617	80.000	20.009	100.242	20.106	10.661	0.486
1296.000	704.849	79.999	20.008	100.250	20.105	10.843	0.468
1296.500	705.124	80.001	20.008	100.258	20.108	10.419	0.490
1297.000	705.374	80.000	20.008	100.256	20.106	10.630	0.516
1297.500	705.673	80.000	20.009	100.248	20.107	10.490	0.538
1298.000	705.942	80.001	20.008	100.246	20.110	10.021	0.559
1298.500	706.163	79.999	20.009	100.245	20.108	10.372	0.528
1299.000	706.385	80.000	20.008	100.249	20.108	10.386	0.466
1299.501	706.652	79.999	20.009	100.260	20.109	10.161	0.467
1300.001	706.916	80.001	20.008	100.272	20.110	10.081	0.510
1300.500	707.141	80.001	20.009	100.275	20.110	10.003	0.510
1301.000	707.401	79.999	20.009	100.274	20.110	10.076	0.486
1301.500	707.672	80.001	20.008	100.269	20.109	10.210	0.508
1302.000	707.910	79.999	20.008	100.262	20.109	10.240	0.521
1302.500	708.170	80.001	20.009	100.258	20.111	9.947	0.503
1303.000	708.443	80.000	20.009	100.260	20.109	10.233	0.515
1303.500	708.718	80.000	20.008	100.263	20.111	9.885	0.540
1304.000	708.990	80.000	20.008	100.265	20.108	10.408	0.548
1304.501	709.210	80.001	20.008	100.263	20.111	9.860	0.519
1305.001	709.489	80.000	20.008	100.255	20.112	9.747	0.495
1305.500	709.767	80.000	20.009	100.244	20.111	9.896	0.528
1306.000	709.974	79.999	20.009	100.233	20.108	10.455	0.521
1306.500	710.261	80.000	20.008	100.226	20.107	10.615	0.490
1307.000	710.483	80.000	20.008	100.228	20.105	10.781	0.502
1307.500	710.786	80.000	20.008	100.236	20.108	10.386	0.517
1308.001	711.014	80.000	20.008	100.243	20.105	10.872	0.527
1308.501	711.309	80.000	20.009	100.246	20.106	10.769	0.527
1309.000	711.543	80.000	20.008	100.245	20.106	10.627	0.527
1309.500	711.794	80.000	20.008	100.240	20.108	10.438	0.507
1310.000	712.027	80.000	20.008	100.232	20.105	10.884	0.484
1310.500	712.297	80.001	20.009	100.225	20.105	10.835	0.494
1311.000	712.512	80.001	20.009	100.228	20.103	11.128	0.494
1311.500	712.774	79.999	20.009	100.235	20.105	10.916	0.481
1312.000	713.038	80.001	20.008	100.238	20.103	11.100	0.501
1312.500	713.320	80.000	20.010	100.232	20.103	11.112	0.536
1313.000	713.542	80.000	20.009	100.225	20.103	11.241	0.525
1313.500	713.790	80.002	20.009	100.205	20.100	11.572	0.487
1314.000	714.036	79.999	20.009	100.183	20.103	11.189	0.481
1314.500	714.292	80.001	20.008	100.170	20.100	11.630	0.497
1315.000	714.557	80.000	20.008	100.170	20.103	11.108	0.511
1315.500	714.794	80.001	20.008	100.177	20.104	11.028	0.512
1316.000	715.044	80.001	20.008	100.197	20.104	11.034	0.495
1316.500	715.347	80.001	20.008	100.214	20.104	11.076	0.520
1317.000	715.608	80.001	20.008	100.224	20.105	10.908	0.558
1317.500	715.830	79.999	20.008	100.230	20.106	10.713	0.524
1318.000	716.097	80.002	20.008	100.231	20.105	10.892	0.486
1318.500	716.309	80.000	20.008	100.234	20.104	10.936	0.484
1319.001	716.593	79.999	20.008	100.239	20.102	11.366	0.487
1319.501	716.835	80.001	20.008	100.248	20.104	10.995	0.511
1320.000	717.073	80.000	20.008	100.260	20.105	10.875	0.503
1320.500	717.295	80.000	20.008	100.267	20.107	10.485	0.470
1321.000	717.608	80.002	20.008	100.268	20.110	10.137	0.497
1321.500	717.818	80.000	20.008	100.268	20.108	10.346	0.529
1322.000	718.023	80.000	20.008	100.267	20.108	10.462	0.469
1322.501	718.282	80.001	20.008	100.263	20.107	10.469	0.439
1323.001	718.515	80.001	20.008	100.263	20.106	10.738	0.478
1323.500	718.767	79.999	20.007	100.263	20.105	10.853	0.488
1324.001	719.022	80.001	20.008	100.259	20.107	10.525	0.496
1324.501	719.272	80.000	20.008	100.249	20.108	10.336	0.506
1325.000	719.463	80.000	20.008	100.241	20.106	10.765	0.473
1325.500	719.748	79.999	20.008	100.233	20.105	10.825	0.458
1326.001	719.997	80.000	20.008	100.227	20.103	11.120	0.505
1326.501	720.204	80.000	20.008	100.232	20.105	10.854	0.495
1327.000	720.455	80.000	20.008	100.241	20.106	10.753	0.457
1327.501	720.677	80.001	20.007	100.249	20.104	10.949	0.465
1328.001	720.923	80.000	20.008	100.253	20.104	11.074	0.471
1328.501	721.129	80.000	20.008	100.251	20.105	10.909	0.460
1329.000	721.336	79.999	20.008	100.243	20.105	10.829	0.432
1329.500	721.592	80.000	20.008	100.236	20.103	11.188	0.438
1330.000	721.823	80.000	20.008	100.235	20.106	10.656	0.475
1330.500	722.049	80.000	20.008	100.239	20.105	10.874	0.471
1331.000	722.358	79.999	20.008	100.246	20.105	10.889	0.496
1331.501	722.549	80.001	20.007	100.254	20.105	10.918	0.518
1332.001	722.827	80.000	20.008	100.257	20.104	11.020	0.484
1332.500	723.021	80.001	20.007	100.250	20.105	10.853	0.471
1333.001	723.263	80.001	20.008	100.242	20.102	11.320	0.455
1333.501	723.511	79.999	20.008	100.234	20.104	11.083	0.463
1334.000	723.735	80.000	20.008	100.227	20.102	11.279	0.481
1334.500	723.977	80.001	20.007	100.231	20.103	11.217	0.469
1335.001	724.226	80.000	20.008	100.239	20.103	11.237	0.478
1335.501	724.484	80.000	20.007	100.247	20.099	11.748	0.499
1336.000	724.742	79.999	20.008	100.250	20.105	10.925	0.512
1336.500	725.016	80.000	20.008	100.250	20.103	11.178	0.524
1337.000	725.275	80.000	20.008	100.240	20.103	11.142	0.532
1337.500	725.534	80.001	20.008	100.232	20.103	11.241	0.525
1338.000	725.777	80.001	20.007	100.228	20.103	11.096	0.510
1338.500	726.010	80.000	20.008	100.233	20.104	11.030	0.489
1339.000	726.299	80.001	20.008	100.241	20.106	10.738	0.499
1339.500	726.559	80.000	20.008	100.257	20.104	11.011	0.536
1340.000	726.782	80.001	20.007	100.272	20.104	11.056	0.516
1340.501	727.038	80.000	20.008	100.276	20.105	10.785	0.480
1341.001	727.340	80.000	20.008	100.276	20.104	11.066	0.518
1341.501	727.539	80.000	20.008	100.276	20.105	10.866	0.530
1342.000	727.778	80.000	20.008	100.268	20.102	11.343	0.470
1342.500	728.065	80.001	20.008	100.262	20.104	10.970	0.482
1343.000	728.304	80.001	20.008	100.261	20.100	11.641	0.525
1343.500	728.569	80.001	20.008	100.256	20.103	11.096	0.514
1344.001	728.829	80.000	20.008	100.248	20.103	11.201	0.515
1344.501	729.054	80.000	20.008	100.241	20.104	10.934	0.505
1345.001	729.338	80.000	20.008	100.232	20.104	11.027	0.497
1345.501	729.590	80.001	20.008	100.223	20.102	11.335	0.522
1346.001	729.821	79.999	20.008	100.225	20.102	11.332	0.510
1346.501	730.078	80.000	20.008	100.233	20.104	11.084	0.486
1347.001	730.320	80.000	20.008	100.241	20.103	11.159	0.493
1347.500	730.582	80.000	20.007	100.249	20.102	11.290	0.501
1348.000	730.822	80.000	20.008	100.252	20.103	11.173	0.503
1348.500	731.072	80.001	20.008	100.246	20.103	11.151	0.496
1349.000	731.361	80.001	20.008	100.239	20.101	11.508	0.515
1349.500	731.603	79.999	20.008	100.233	20.101	11.433	0.536
1350.000	731.855	80.001	20.008	100.232	20.102	11.371	0.513
1350.501	732.126	80.000	20.008	100.235	20.103	11.180	0.508
1351.001	732.364	80.000	20.008	100.238	20.101	11.496	0.516
1351.500	732.628	80.002	20.008	100.235	20.101	11.413	0.505
1352.000	732.878	80.001	20.008	100.226	20.102	11.326	0.508
1352.500	733.157	80.000	20.008	100.212	20.104	11.059	0.522
1353.000	733.409	80.000	20.008	100.204	20.103	11.113	0.530
1353.500	733.684	80.000	20.008	100.201	20.102	11.295	0.529
1354.001	733.903	79.999	20.007	100.206	20.103	11.196	0.510
1354.501	734.189	80.000	20.008	100.218	20.103	11.100	0.499
1355.001	734.474	80.000	20.008	100.229	20.103	11.185	0.538
1355.501	734.700	80.001	20.008	100.234	20.104	10.986	0.541
1356.001	734.954	80.000	20.008	100.234	20.102	11.248	0.496
1356.501	735.243	80.001	20.008	100.230	20.101	11.497	0.512
1357.000	735.490	79.999	20.008	100.226	20.101	11.547	0.539
1357.501	735.724	80.001	20.008	100.230	20.103	11.241	0.509
1358.001	736.013	80.001	20.007	100.238	20.100	11.680	0.502
1358.500	736.296	80.000	20.008	100.246	20.100	11.587	0.547
1359.000	736.566	80.001	20.007	100.246	20.103	11.149	0.562
1359.500	736.810	79.999	20.008	100.245	20.102	11.376	0.533
1360.000	737.092	80.001	20.008	100.238	20.102	11.277	0.520
1360.500	737.352	79.999	20.008	100.225	20.102	11.333	0.534
1361.000	737.627	80.000	20.008	100.217	20.100	11.598	0.539
1361.501	737.866	80.000	20.008	100.221	20.103	11.227	0.525
1362.001	738.148	80.000	20.007	100.229	20.103	11.243	0.517
1362.500	738.383	80.000	20.008	100.236	20.103	11.163	0.519
1363.000	738.639	80.001	20.007	100.244	20.103	11.152	0.504
1363.501	738.900	80.000	20.008	100.243	20.104	11.026	0.504
1364.001	739.131	80.001	20.008	100.239	20.103	11.192	0.504
1364.500	739.394	80.001	20.008	100.231	20.106	10.688	0.493
1365.001	739.665	79.999	20.008	100.224	20.105	10.821	0.515
1365.501	739.987	80.000	20.008	100.228	20.105	10.778	0.564
1366.000	740.207	80.000	20.007	100.235	20.106	10.742	0.567
1366.501	740.476	80.001	20.008	100.239	20.105	10.924	0.515
1367.001	740.731	80.001	20.008	100.239	20.108	10.368	0.507
1367.500	740.975	80.000	20.008	100.239	20.105	10.784	0.512
1368.001	741.242	80.001	20.008	100.232	20.108	10.448	0.505
1368.501	741.507	80.000	20.008	100.230	20.105	10.862	0.521
1369.000	741.790	79.998	20.008	100.235	20.103	11.120	0.539
1369.501	742.088	80.000	20.007	100.244	20.106	10.730	0.564
