Sample Weight (mg):	1.02
Heating Rate (C/s):	0.5
Combustor Temp (C):	900
N2 Flow Rate (cc/min):	80
O2 Flow Rate (cc/min):	20
Time (s)	Temperature (C)	N2 flow rate (cc/min)	O2 flow rate (cc/min)	Flow Rate (cc/min)	Oxygen (%)	HRR (W/g)	Heating rate (C/s)
0.000	87.541	80.000	20.008	100.275	20.084	10.098	-0.055
0.500	87.491	80.002	20.008	100.270	20.083	10.598	-0.071
1.000	87.485	80.001	20.008	100.271	20.082	10.702	-0.062
1.500	87.421	80.001	20.007	100.279	20.083	10.468	-0.063
2.000	87.404	80.001	20.008	100.286	20.083	10.397	-0.076
2.500	87.335	80.001	20.008	100.290	20.086	9.573	-0.084
3.000	87.366	80.001	20.007	100.288	20.085	9.864	-0.062
3.500	87.365	80.000	20.008	100.282	20.086	9.611	-0.004
4.000	87.311	80.002	20.008	100.277	20.084	10.259	-0.012
4.500	87.272	80.001	20.008	100.275	20.087	9.346	-0.074
5.000	87.250	80.000	20.007	100.281	20.087	9.308	-0.077
5.500	87.211	80.001	20.008	100.289	20.087	9.321	-0.061
6.000	87.216	80.000	20.007	100.297	20.086	9.606	-0.048
6.500	87.208	80.002	20.008	100.303	20.086	9.677	-0.019
7.000	87.187	80.000	20.008	100.304	20.086	9.657	-0.016
7.500	87.157	79.999	20.008	100.304	20.085	9.909	-0.039
8.000	87.128	80.001	20.008	100.302	20.086	9.748	-0.055
8.500	87.116	80.000	20.008	100.302	20.083	10.377	-0.050
9.000	87.092	80.000	20.008	100.303	20.084	10.105	-0.039
9.500	87.114	80.001	20.007	100.304	20.084	10.300	-0.019
10.000	87.059	80.002	20.008	100.303	20.081	11.103	-0.018
10.500	87.041	80.001	20.008	100.301	20.084	10.066	-0.053
11.001	87.042	80.001	20.008	100.292	20.080	11.381	-0.044
11.501	86.990	80.001	20.008	100.282	20.081	10.987	-0.034
12.000	86.979	79.999	20.008	100.274	20.079	11.753	-0.058
12.501	86.988	80.002	20.008	100.267	20.079	11.703	-0.033
13.001	86.990	80.001	20.008	100.270	20.079	11.744	0.005
13.500	86.969	80.002	20.008	100.277	20.079	11.847	-0.004
14.001	86.965	80.000	20.008	100.278	20.077	12.456	-0.022
14.501	86.958	80.001	20.008	100.278	20.080	11.495	-0.018
15.000	86.973	80.001	20.008	100.277	20.080	11.312	-0.002
15.500	86.952	80.001	20.009	100.268	20.080	11.570	0.001
16.000	86.932	80.000	20.007	100.261	20.076	12.750	-0.023
16.500	86.961	80.002	20.008	100.260	20.075	13.062	-0.016
17.001	87.002	80.001	20.008	100.263	20.076	12.804	0.039
17.500	86.949	80.002	20.008	100.268	20.076	12.681	0.029
18.000	86.963	80.002	20.008	100.275	20.076	12.764	-0.026
18.500	86.951	80.000	20.008	100.277	20.075	12.984	-0.019
19.000	86.934	80.001	20.008	100.277	20.074	13.190	-0.013
19.500	86.972	80.002	20.008	100.274	20.073	13.488	-0.004
20.000	86.922	80.000	20.008	100.269	20.072	13.780	0.004
20.500	86.978	80.001	20.008	100.264	20.073	13.528	-0.003
21.000	86.989	80.001	20.007	100.267	20.074	13.296	0.037
21.500	87.018	80.001	20.008	100.275	20.072	13.854	0.054
22.000	86.994	80.002	20.008	100.277	20.071	14.249	0.023
22.500	86.998	80.000	20.008	100.278	20.072	13.995	-0.008
23.000	87.013	80.001	20.008	100.276	20.072	13.981	-0.001
23.500	87.025	80.002	20.008	100.270	20.071	14.337	0.023
24.000	87.074	80.001	20.008	100.269	20.073	13.721	0.044
24.500	87.054	80.002	20.008	100.275	20.071	14.170	0.045
25.000	87.073	80.001	20.007	100.291	20.069	14.789	0.014
25.500	87.112	80.000	20.007	100.307	20.069	14.752	0.028
26.000	87.140	80.002	20.008	100.319	20.071	14.202	0.062
26.500	87.135	80.000	20.008	100.319	20.071	14.092	0.045
27.000	87.140	80.002	20.008	100.313	20.072	13.870	0.012
27.500	87.154	80.000	20.008	100.297	20.071	14.213	0.009
28.000	87.166	80.000	20.008	100.284	20.069	14.939	0.022
28.500	87.209	80.003	20.008	100.280	20.070	14.441	0.040
29.000	87.228	79.999	20.008	100.281	20.066	15.642	0.058
29.500	87.276	80.000	20.008	100.286	20.069	14.722	0.064
30.000	87.288	80.001	20.008	100.294	20.068	15.022	0.064
30.500	87.328	80.001	20.008	100.298	20.069	14.839	0.056
31.000	87.362	80.000	20.008	100.290	20.070	14.643	0.063
31.500	87.355	80.001	20.008	100.282	20.071	14.358	0.051
32.000	87.407	80.001	20.008	100.275	20.071	14.202	0.036
32.501	87.410	80.001	20.008	100.271	20.070	14.508	0.050
33.001	87.465	80.000	20.008	100.273	20.070	14.424	0.056
33.500	87.497	80.000	20.008	100.281	20.068	15.112	0.073
34.000	87.544	80.001	20.008	100.289	20.070	14.652	0.083
34.500	87.582	79.999	20.008	100.295	20.070	14.502	0.082
35.000	87.574	80.001	20.007	100.291	20.070	14.372	0.057
35.500	87.621	80.002	20.008	100.283	20.070	14.495	0.034
36.000	87.633	80.000	20.008	100.275	20.070	14.527	0.049
36.500	87.698	80.001	20.008	100.268	20.071	14.282	0.068
37.001	87.775	80.001	20.008	100.268	20.070	14.517	0.109
37.501	87.764	80.001	20.008	100.284	20.068	15.278	0.104
38.000	87.794	80.000	20.007	100.300	20.067	15.578	0.043
38.500	87.824	80.000	20.008	100.314	20.068	15.261	0.040
39.000	87.872	80.001	20.007	100.323	20.067	15.377	0.069
39.501	87.922	80.001	20.008	100.324	20.066	15.602	0.088
40.001	88.001	80.001	20.007	100.317	20.065	16.036	0.114
40.500	88.039	80.001	20.008	100.308	20.065	16.022	0.123
41.001	88.041	80.001	20.008	100.310	20.064	16.450	0.078
41.501	88.116	80.000	20.008	100.319	20.065	16.100	0.059
42.000	88.191	80.002	20.008	100.329	20.062	16.899	0.114
42.500	88.191	80.002	20.007	100.336	20.063	16.770	0.112
43.001	88.243	80.000	20.008	100.342	20.062	16.990	0.063
43.501	88.317	80.000	20.008	100.335	20.062	16.885	0.089
44.000	88.382	80.001	20.008	100.328	20.062	17.126	0.133
44.500	88.436	80.001	20.008	100.327	20.061	17.347	0.129
45.000	88.451	80.003	20.008	100.328	20.061	17.337	0.094
45.500	88.485	80.000	20.008	100.330	20.060	17.749	0.059
46.000	88.555	80.001	20.008	100.337	20.057	18.479	0.077
46.500	88.598	80.000	20.008	100.341	20.058	18.150	0.108
47.001	88.685	79.999	20.008	100.341	20.059	17.929	0.121
47.501	88.762	80.001	20.008	100.337	20.057	18.650	0.147
48.000	88.799	80.002	20.008	100.334	20.057	18.676	0.139
48.500	88.837	80.000	20.008	100.332	20.055	18.988	0.094
49.001	88.876	80.000	20.008	100.333	20.056	18.976	0.076
49.501	88.976	80.000	20.008	100.340	20.054	19.315	0.108
50.000	89.048	80.001	20.008	100.351	20.056	18.901	0.156
50.500	89.104	80.003	20.007	100.362	20.054	19.526	0.150
51.000	89.194	80.001	20.008	100.371	20.053	19.910	0.137
51.500	89.230	80.000	20.007	100.379	20.052	20.059	0.136
52.000	89.358	80.001	20.008	100.372	20.051	20.384	0.145
52.500	89.442	80.001	20.008	100.365	20.052	20.015	0.188
53.000	89.476	80.000	20.008	100.358	20.051	20.269	0.166
53.500	89.544	80.001	20.008	100.352	20.052	20.154	0.110
54.000	89.610	80.001	20.008	100.349	20.051	20.526	0.118
54.500	89.670	80.000	20.008	100.355	20.049	21.041	0.130
55.000	89.769	80.002	20.007	100.361	20.049	20.943	0.142
55.500	89.852	80.000	20.008	100.361	20.047	21.462	0.171
56.000	89.948	80.001	20.008	100.357	20.046	21.953	0.181
56.500	89.996	80.002	20.008	100.354	20.047	21.647	0.162
57.000	90.058	79.999	20.008	100.356	20.046	21.829	0.127
57.501	90.132	80.000	20.007	100.363	20.044	22.546	0.123
58.001	90.249	80.003	20.008	100.378	20.043	22.775	0.163
58.500	90.315	80.002	20.008	100.397	20.044	22.523	0.187
59.001	90.364	80.000	20.007	100.415	20.042	23.023	0.149
59.501	90.481	80.000	20.008	100.423	20.042	23.230	0.140
60.000	90.555	79.999	20.008	100.425	20.042	23.190	0.178
60.500	90.619	80.002	20.008	100.426	20.039	23.917	0.165
61.001	90.726	80.002	20.008	100.424	20.039	24.034	0.155
61.501	90.793	80.001	20.007	100.426	20.037	24.704	0.173
62.000	90.910	80.001	20.007	100.434	20.036	25.055	0.179
62.500	91.033	80.001	20.008	100.441	20.037	24.534	0.212
63.000	91.151	80.000	20.008	100.449	20.039	24.168	0.241
63.501	91.238	80.002	20.008	100.457	20.035	25.264	0.223
64.001	91.323	79.999	20.008	100.460	20.036	24.879	0.188
64.500	91.459	80.001	20.008	100.460	20.035	25.326	0.196
65.000	91.587	80.002	20.008	100.460	20.034	25.730	0.243
65.500	91.693	80.000	20.007	100.466	20.034	25.582	0.249
66.000	91.740	80.000	20.008	100.473	20.036	25.110	0.193
66.500	91.867	80.000	20.007	100.482	20.030	26.800	0.164
67.000	91.954	80.001	20.007	100.490	20.030	26.788	0.195
67.500	92.095	80.001	20.007	100.498	20.032	26.228	0.221
68.000	92.210	79.999	20.007	100.497	20.028	27.531	0.242
68.500	92.344	80.001	20.008	100.490	20.031	26.413	0.253
69.000	92.506	80.000	20.008	100.481	20.031	26.465	0.273
69.500	92.615	80.000	20.008	100.477	20.030	26.785	0.284
70.001	92.717	80.000	20.007	100.479	20.031	26.567	0.241
70.501	92.863	80.001	20.007	100.486	20.030	26.790	0.229
71.000	93.028	80.001	20.007	100.494	20.030	26.713	0.279
71.500	93.148	80.002	20.007	100.501	20.029	27.206	0.298
72.000	93.274	80.001	20.008	100.501	20.029	27.120	0.265
72.501	93.443	80.001	20.008	100.496	20.031	26.568	0.270
73.001	93.539	80.000	20.008	100.491	20.033	25.868	0.280
73.501	93.719	80.001	20.008	100.490	20.029	27.039	0.271
74.001	93.822	80.001	20.007	100.489	20.034	25.749	0.280
74.501	93.974	80.000	20.007	100.493	20.031	26.452	0.269
75.001	94.097	79.999	20.007	100.496	20.027	27.868	0.265
75.500	94.267	80.001	20.007	100.490	20.029	27.100	0.284
76.000	94.411	80.001	20.008	100.482	20.028	27.526	0.303
76.500	94.508	80.000	20.008	100.475	20.033	25.785	0.277
77.000	94.715	80.001	20.008	100.467	20.029	27.286	0.272
77.501	94.805	79.999	20.008	100.461	20.031	26.652	0.301
78.001	94.987	80.001	20.008	100.467	20.032	26.310	0.285
78.501	95.175	80.001	20.008	100.474	20.034	25.728	0.321
79.001	95.326	80.000	20.007	100.482	20.028	27.509	0.354
79.501	95.397	80.001	20.007	100.488	20.026	28.152	0.281
80.001	95.587	80.002	20.007	100.491	20.028	27.496	0.241
80.500	95.952	80.000	20.008	100.483	20.026	28.125	0.408
81.000	95.819	80.000	20.007	100.476	20.028	27.367	0.394
81.500	95.878	80.002	20.008	100.473	20.028	27.376	0.079
82.000	96.153	80.003	20.008	100.474	20.025	28.260	0.130
82.500	96.479	80.000	20.007	100.480	20.025	28.468	0.467
83.000	96.608	80.000	20.008	100.489	20.026	28.018	0.528
83.501	96.336	80.001	20.008	100.497	20.026	28.163	0.156
84.001	96.981	79.999	20.008	100.500	20.025	28.490	0.114
84.501	96.963	80.000	20.008	100.497	20.022	29.256	0.500
85.001	97.272	80.000	20.008	100.493	20.023	29.075	0.459
85.501	97.331	80.001	20.008	100.492	20.022	29.226	0.330
86.001	97.589	79.999	20.008	100.499	20.023	28.982	0.343
86.501	97.755	80.000	20.008	100.506	20.022	29.362	0.371
87.001	97.915	80.000	20.007	100.515	20.026	28.218	0.375
87.501	98.123	80.000	20.008	100.522	20.028	27.559	0.347
88.000	98.150	80.000	20.008	100.521	20.024	28.552	0.302
88.501	98.315	80.000	20.008	100.514	20.021	29.490	0.213
89.001	98.682	79.999	20.007	100.506	20.021	29.589	0.362
89.500	98.888	79.999	20.007	100.503	20.022	29.392	0.553
90.000	98.913	80.002	20.008	100.506	20.022	29.279	0.402
90.500	99.113	80.001	20.008	100.515	20.021	29.509	0.228
91.000	99.381	80.000	20.007	100.526	20.021	29.711	0.346
91.500	99.541	80.001	20.008	100.535	20.020	29.791	0.448
92.000	99.858	79.999	20.007	100.538	20.020	29.922	0.452
92.500	99.950	80.001	20.008	100.537	20.021	29.575	0.443
93.000	100.080	80.001	20.007	100.537	20.019	30.431	0.316
93.500	100.525	79.998	20.008	100.534	20.016	31.117	0.398
94.000	100.864	80.001	20.007	100.543	20.017	30.936	0.680
94.500	101.090	80.001	20.007	100.550	20.018	30.668	0.674
95.000	100.830	80.001	20.008	100.552	20.016	31.306	0.265
95.500	101.211	80.000	20.007	100.550	20.015	31.340	0.044
96.001	101.342	79.999	20.008	100.544	20.017	30.918	0.317
96.501	101.514	79.999	20.007	100.528	20.018	30.491	0.407
97.000	101.684	80.001	20.008	100.514	20.016	31.103	0.322
97.500	102.008	80.000	20.008	100.510	20.019	30.340	0.418
98.000	102.258	80.000	20.008	100.513	20.016	31.235	0.534
98.500	102.356	80.000	20.007	100.520	20.016	31.035	0.461
99.000	102.517	80.001	20.008	100.531	20.014	31.799	0.303
99.500	102.813	79.999	20.008	100.539	20.013	32.013	0.358
100.000	103.034	79.999	20.011	100.541	20.012	32.437	0.487
100.500	103.326	80.001	20.003	100.578	20.011	32.603	0.515
101.001	103.423	80.001	20.012	100.550	20.013	32.044	0.450
101.501	103.673	80.000	20.008	100.512	20.014	31.803	0.368
102.001	103.890	79.999	20.008	100.493	20.015	31.594	0.407
102.500	104.159	79.997	20.006	100.486	20.016	31.012	0.476
103.000	104.423	80.003	20.012	100.434	20.016	31.052	0.510
103.500	104.586	80.000	20.010	100.400	20.020	29.933	0.480
104.000	104.822	79.999	20.007	100.470	20.020	29.968	0.413
104.500	105.079	80.001	20.006	100.541	20.021	29.550	0.446
105.000	105.233	80.000	20.007	100.588	20.021	29.690	0.452
105.500	105.535	79.999	20.008	100.625	20.019	30.143	0.433
106.000	105.741	80.000	20.008	100.702	20.019	30.227	0.482
106.500	105.998	80.001	20.007	100.688	20.019	30.212	0.485
107.000	106.205	79.999	20.007	100.651	20.019	30.262	0.464
107.501	106.477	80.001	20.008	100.624	20.019	30.110	0.472
108.001	106.698	80.001	20.008	100.605	20.021	29.768	0.486
108.500	106.936	80.000	20.008	100.590	20.019	30.393	0.476
109.000	107.141	80.001	20.008	100.570	20.020	29.871	0.451
109.501	107.412	79.999	20.008	100.556	20.019	30.324	0.460
110.001	107.626	80.002	20.007	100.558	20.019	30.296	0.481
110.500	107.886	80.001	20.007	100.571	20.019	30.127	0.480
111.000	108.121	80.001	20.007	100.587	20.019	30.102	0.484
111.500	108.439	80.000	20.007	100.593	20.021	29.615	0.524
112.000	108.611	80.001	20.008	100.582	20.021	29.582	0.521
112.500	108.919	79.999	20.008	100.560	20.020	30.083	0.485
113.000	109.147	79.999	20.008	100.544	20.019	30.315	0.508
113.500	109.396	80.000	20.008	100.534	20.021	29.732	0.507
114.000	109.641	80.000	20.008	100.535	20.020	29.957	0.486
114.500	109.861	80.000	20.007	100.553	20.019	30.150	0.479
115.000	110.153	80.001	20.007	100.570	20.019	30.272	0.488
115.500	110.402	80.001	20.007	100.580	20.020	29.948	0.527
116.000	110.689	80.000	20.008	100.582	20.018	30.398	0.538
116.500	110.899	80.001	20.008	100.580	20.019	30.184	0.516
117.000	111.157	80.000	20.007	100.568	20.019	30.307	0.483
117.500	111.433	80.000	20.008	100.560	20.018	30.611	0.501
118.000	111.682	80.001	20.007	100.551	20.020	29.782	0.530
118.500	111.950	80.001	20.008	100.543	20.017	30.754	0.521
119.000	112.248	80.000	20.007	100.543	20.017	30.949	0.541
119.500	112.462	80.001	20.008	100.558	20.019	30.195	0.539
120.000	112.793	80.001	20.007	100.573	20.020	29.865	0.529
120.500	113.061	80.001	20.007	100.586	20.020	29.996	0.572
121.000	113.328	80.001	20.008	100.596	20.019	30.335	0.567
121.500	113.581	80.002	20.008	100.599	20.018	30.685	0.528
122.000	113.846	79.999	20.008	100.593	20.021	29.619	0.519
122.500	114.104	80.001	20.007	100.584	20.021	29.572	0.520
123.000	114.391	80.000	20.008	100.578	20.022	29.188	0.534
123.500	114.655	80.001	20.008	100.577	20.021	29.494	0.548
124.000	114.950	80.000	20.007	100.581	20.022	29.256	0.555
124.500	115.253	80.002	20.007	100.582	20.022	29.248	0.578
125.000	115.513	80.001	20.008	100.582	20.023	29.150	0.581
125.500	115.810	80.000	20.007	100.583	20.022	29.296	0.560
126.000	116.063	80.002	20.008	100.574	20.024	28.839	0.554
126.500	116.362	80.000	20.008	100.563	20.021	29.495	0.552
127.000	116.659	80.001	20.008	100.554	20.018	30.552	0.574
127.500	116.938	80.001	20.008	100.546	20.017	30.692	0.586
128.000	117.207	80.001	20.008	100.540	20.018	30.412	0.562
128.500	117.500	80.002	20.008	100.545	20.020	29.826	0.555
129.000	117.788	80.000	20.007	100.550	20.021	29.744	0.571
129.500	118.070	80.001	20.008	100.550	20.019	30.071	0.576
130.000	118.305	80.002	20.007	100.550	20.020	29.996	0.544
130.500	118.630	80.000	20.008	100.544	20.022	29.173	0.539
131.000	118.913	80.001	20.008	100.532	20.024	28.601	0.584
131.500	119.241	80.001	20.008	100.524	20.025	28.488	0.610
132.000	119.515	80.002	20.008	100.524	20.026	28.148	0.607
132.500	119.758	80.001	20.007	100.524	20.024	28.737	0.560
133.000	120.091	80.001	20.008	100.528	20.027	27.709	0.546
133.500	120.379	80.000	20.008	100.532	20.027	27.665	0.598
134.000	120.678	80.001	20.008	100.533	20.027	27.783	0.604
134.500	120.920	79.999	20.008	100.531	20.029	27.058	0.564
135.000	121.224	80.001	20.008	100.530	20.027	27.736	0.543
135.500	121.508	80.000	20.007	100.524	20.028	27.328	0.567
136.001	121.854	80.000	20.008	100.524	20.026	28.120	0.609
136.500	122.101	80.001	20.008	100.526	20.028	27.430	0.611
137.000	122.430	80.001	20.009	100.535	20.028	27.408	0.584
137.500	122.699	79.999	20.007	100.550	20.025	28.226	0.587
138.000	123.037	80.002	20.007	100.571	20.027	27.902	0.603
138.500	123.331	80.000	20.007	100.581	20.027	27.838	0.619
139.000	123.608	80.002	20.007	100.575	20.025	28.288	0.601
139.500	123.941	79.999	20.008	100.551	20.027	27.899	0.591
140.000	124.204	80.002	20.008	100.521	20.026	28.020	0.603
140.500	124.502	80.000	20.008	100.489	20.026	28.199	0.578
141.000	124.800	80.000	20.008	100.467	20.024	28.519	0.579
141.500	125.124	80.001	20.008	100.462	20.023	28.912	0.609
142.000	125.427	80.001	20.008	100.471	20.025	28.398	0.624
142.500	125.697	80.001	20.008	100.479	20.028	27.510	0.600
143.000	125.967	80.002	20.008	100.487	20.026	28.097	0.557
143.500	126.241	80.000	20.007	100.494	20.025	28.425	0.542
144.000	126.559	80.001	20.008	100.491	20.025	28.471	0.568
144.500	126.880	80.001	20.007	100.485	20.024	28.529	0.616
145.000	127.167	79.999	20.008	100.476	20.023	28.871	0.624
145.500	127.504	80.001	20.008	100.469	20.022	29.368	0.616
146.000	127.758	80.001	20.008	100.462	20.025	28.263	0.607
146.500	128.065	80.001	20.008	100.465	20.025	28.335	0.576
147.000	128.398	80.000	20.008	100.473	20.025	28.409	0.601
147.500	128.699	80.002	20.008	100.481	20.025	28.516	0.637
148.000	129.030	79.999	20.007	100.489	20.026	28.102	0.633
148.500	129.279	80.001	20.008	100.494	20.025	28.504	0.606
149.001	129.588	80.001	20.007	100.492	20.025	28.514	0.569
149.500	129.933	80.001	20.008	100.486	20.024	28.530	0.606
150.000	130.243	80.000	20.009	100.478	20.025	28.435	0.655
150.500	130.516	80.001	20.008	100.477	20.025	28.465	0.619
151.000	130.874	80.001	20.008	100.477	20.025	28.296	0.607
151.500	131.145	80.001	20.008	100.480	20.025	28.337	0.630
152.000	131.426	80.002	20.007	100.487	20.025	28.210	0.591
152.500	131.747	80.001	20.007	100.490	20.026	28.134	0.577
153.000	132.038	80.001	20.008	100.484	20.025	28.492	0.606
153.500	132.335	80.001	20.007	100.471	20.024	28.568	0.600
154.000	132.630	80.001	20.008	100.456	20.026	28.118	0.590
154.500	132.906	80.000	20.008	100.446	20.026	27.895	0.582
155.000	133.237	80.001	20.008	100.442	20.028	27.516	0.589
155.500	133.550	80.001	20.008	100.446	20.026	28.036	0.625
156.000	133.873	80.000	20.008	100.456	20.026	28.135	0.640
156.500	134.138	80.002	20.008	100.468	20.025	28.466	0.612
157.000	134.485	80.000	20.007	100.470	20.026	27.939	0.600
157.500	134.800	80.000	20.008	100.468	20.029	27.243	0.637
158.000	135.064	80.000	20.008	100.459	20.027	27.856	0.620
158.500	135.384	80.000	20.008	100.450	20.025	28.216	0.582
159.000	135.667	80.001	20.008	100.445	20.028	27.462	0.594
159.500	135.954	80.000	20.008	100.447	20.027	27.709	0.587
160.000	136.284	80.001	20.008	100.456	20.027	27.615	0.593
160.500	136.560	80.002	20.007	100.468	20.028	27.418	0.611
161.000	136.838	80.000	20.007	100.474	20.027	27.766	0.580
161.501	137.159	80.000	20.008	100.471	20.028	27.410	0.577
162.001	137.463	80.001	20.007	100.461	20.029	27.130	0.612
162.500	137.768	79.999	20.008	100.447	20.029	27.233	0.617
163.000	138.040	80.001	20.008	100.433	20.030	26.744	0.594
163.500	138.350	79.999	20.008	100.424	20.030	26.730	0.580
164.000	138.632	80.001	20.008	100.425	20.032	26.139	0.587
164.500	138.945	80.000	20.008	100.433	20.027	27.680	0.593
165.000	139.245	79.999	20.007	100.441	20.028	27.505	0.604
165.500	139.495	80.001	20.007	100.449	20.029	27.142	0.581
166.000	139.864	80.001	20.008	100.450	20.029	27.187	0.584
166.500	140.122	79.999	20.007	100.444	20.029	27.029	0.623
167.000	140.444	80.001	20.008	100.436	20.031	26.461	0.603
167.501	140.762	80.001	20.008	100.428	20.030	26.712	0.610
168.001	141.056	80.001	20.008	100.421	20.030	26.867	0.626
168.500	141.383	80.000	20.008	100.422	20.028	27.479	0.617
169.000	141.630	80.001	20.008	100.428	20.031	26.617	0.598
169.500	141.941	80.001	20.007	100.427	20.026	28.003	0.566
170.000	142.220	80.000	20.007	100.426	20.030	26.901	0.574
170.500	142.575	80.000	20.008	100.418	20.029	27.167	0.612
171.000	142.917	80.001	20.007	100.407	20.027	27.749	0.665
171.500	143.188	79.999	20.008	100.393	20.031	26.592	0.654
172.000	143.454	80.001	20.008	100.390	20.029	27.097	0.575
172.500	143.775	80.001	20.008	100.391	20.029	27.272	0.562
173.000	144.130	80.000	20.007	100.403	20.029	27.117	0.632
173.500	144.380	80.000	20.008	100.418	20.028	27.372	0.641
174.000	144.692	80.000	20.008	100.432	20.028	27.308	0.583
174.500	144.969	80.001	20.008	100.436	20.034	25.607	0.576
175.000	145.322	80.001	20.008	100.436	20.028	27.370	0.610
175.500	145.614	80.001	20.008	100.430	20.030	26.770	0.638
176.000	145.912	80.000	20.008	100.423	20.032	26.257	0.618
176.500	146.218	79.999	20.008	100.417	20.031	26.510	0.597
177.000	146.539	80.000	20.008	100.417	20.031	26.641	0.615
177.500	146.797	80.001	20.007	100.426	20.032	26.065	0.602
178.000	147.178	80.000	20.008	100.429	20.033	25.937	0.609
178.500	147.407	80.001	20.007	100.431	20.033	25.964	0.625
179.000	147.720	80.001	20.008	100.427	20.034	25.710	0.576
179.500	148.010	80.001	20.008	100.422	20.034	25.624	0.573
180.000	148.306	79.999	20.008	100.407	20.033	25.999	0.595
180.500	148.605	80.002	20.008	100.400	20.033	25.849	0.590
181.000	148.832	80.000	20.008	100.399	20.034	25.466	0.560
181.500	149.195	80.000	20.008	100.403	20.037	24.656	0.558
182.000	149.471	80.001	20.008	100.408	20.040	23.873	0.615
182.500	149.745	80.001	20.007	100.423	20.036	25.010	0.594
183.000	150.087	80.000	20.008	100.429	20.037	24.723	0.583
183.500	150.362	79.998	20.008	100.426	20.037	24.591	0.616
184.000	150.669	80.002	20.008	100.418	20.036	24.985	0.600
184.500	150.985	80.000	20.008	100.414	20.039	23.977	0.603
185.000	151.265	80.001	20.008	100.407	20.035	25.119	0.609
185.500	151.566	80.001	20.008	100.406	20.040	23.816	0.588
186.000	151.832	80.000	20.007	100.411	20.039	24.195	0.574
186.500	152.195	80.000	20.007	100.418	20.037	24.534	0.598
187.000	152.412	80.001	20.008	100.422	20.039	24.028	0.604
187.500	152.718	80.000	20.008	100.417	20.036	24.954	0.551
188.000	153.084	80.001	20.008	100.410	20.038	24.368	0.598
188.500	153.258	80.002	20.008	100.400	20.037	24.736	0.606
189.000	153.403	80.000	20.008	100.397	20.036	25.070	0.430
189.500	153.920	80.000	20.007	100.395	20.037	24.583	0.490
190.000	154.194	80.001	20.008	100.400	20.036	25.084	0.727
190.500	154.517	80.001	20.008	100.407	20.037	24.807	0.694
191.000	154.758	79.999	20.007	100.415	20.037	24.699	0.580
191.500	154.870	80.001	20.008	100.419	20.037	24.546	0.458
192.000	155.138	80.003	20.008	100.416	20.036	25.118	0.366
192.500	155.842	80.000	20.007	100.408	20.035	25.246	0.676
193.000	155.824	80.002	20.009	100.401	20.034	25.730	0.829
193.500	156.308	80.000	20.008	100.399	20.036	24.925	0.576
194.000	156.563	80.001	20.007	100.399	20.035	25.229	0.602
194.500	156.865	80.000	20.008	100.405	20.038	24.258	0.648
195.000	157.192	80.002	20.007	100.414	20.035	25.135	0.593
195.500	157.451	80.001	20.007	100.419	20.035	25.186	0.607
196.000	157.666	80.000	20.008	100.415	20.034	25.573	0.530
196.500	158.001	80.000	20.007	100.405	20.035	25.264	0.512
197.000	158.394	80.001	20.008	100.395	20.035	25.318	0.639
197.500	158.649	80.000	20.008	100.387	20.033	25.906	0.688
198.000	158.927	80.001	20.008	100.388	20.035	25.271	0.590
198.500	159.190	80.000	20.008	100.395	20.035	25.162	0.537
199.000	159.518	80.001	20.007	100.404	20.032	26.241	0.566
199.500	159.789	80.001	20.007	100.412	20.033	25.919	0.595
200.000	160.079	80.001	20.008	100.412	20.034	25.629	0.580
200.500	160.367	79.999	20.007	100.404	20.034	25.623	0.569
201.000	160.626	80.001	20.007	100.396	20.035	25.231	0.563
201.500	160.958	80.000	20.007	100.388	20.034	25.502	0.569
202.000	161.237	80.001	20.009	100.375	20.035	25.395	0.601
202.500	161.519	80.000	20.008	100.371	20.035	25.277	0.586
203.000	161.803	80.000	20.008	100.378	20.035	25.225	0.563
203.500	162.072	80.000	20.007	100.386	20.038	24.377	0.559
204.000	162.379	80.000	20.007	100.394	20.035	25.157	0.565
204.500	162.672	80.001	20.007	100.407	20.036	24.819	0.588
205.000	162.880	80.000	20.008	100.408	20.035	25.383	0.550
205.500	163.182	80.002	20.008	100.401	20.037	24.740	0.506
206.000	163.447	79.999	20.008	100.394	20.037	24.533	0.539
206.500	163.715	80.002	20.008	100.389	20.036	24.898	0.550
207.000	164.040	80.000	20.008	100.388	20.037	24.720	0.563
207.500	164.296	80.000	20.007	100.395	20.035	25.256	0.587
208.000	164.611	80.001	20.007	100.399	20.036	24.913	0.576
208.500	164.870	80.000	20.008	100.395	20.036	24.956	0.573
209.000	165.148	80.001	20.008	100.385	20.040	23.603	0.556
209.500	165.439	80.000	20.008	100.370	20.041	23.269	0.553
210.000	165.764	80.000	20.008	100.355	20.043	22.884	0.592
210.500	166.037	80.000	20.007	100.344	20.040	23.663	0.607
211.000	166.310	80.000	20.008	100.346	20.039	23.957	0.572
211.500	166.603	80.000	20.008	100.353	20.039	24.180	0.556
212.000	166.879	80.001	20.008	100.362	20.037	24.662	0.567
212.500	167.135	80.000	20.008	100.370	20.039	24.169	0.550
213.001	167.428	80.001	20.007	100.378	20.038	24.465	0.540
213.500	167.691	79.999	20.007	100.378	20.039	24.178	0.553
214.000	167.993	80.001	20.007	100.370	20.038	24.359	0.561
214.500	168.276	80.002	20.008	100.361	20.038	24.475	0.575
215.000	168.508	80.000	20.008	100.352	20.036	24.924	0.550
215.500	168.763	80.000	20.008	100.346	20.039	24.036	0.501
216.000	169.050	80.000	20.008	100.347	20.038	24.243	0.514
216.500	169.352	80.000	20.007	100.353	20.039	23.943	0.565
217.000	169.621	80.000	20.007	100.356	20.041	23.539	0.580
217.500	169.865	80.000	20.008	100.357	20.038	24.433	0.542
218.000	170.186	80.001	20.008	100.355	20.040	23.845	0.539
218.500	170.426	80.000	20.008	100.350	20.039	23.893	0.563
219.000	170.732	80.001	20.008	100.352	20.039	23.900	0.553
219.500	171.035	80.001	20.008	100.362	20.037	24.640	0.578
220.000	171.281	80.000	20.007	100.376	20.036	24.970	0.579
220.500	171.476	79.999	20.007	100.391	20.038	24.461	0.495
221.000	171.797	80.002	20.008	100.395	20.036	24.893	0.479
221.500	172.074	80.000	20.007	100.386	20.039	24.141	0.557
222.000	172.352	80.000	20.007	100.373	20.038	24.454	0.576
222.500	172.636	80.000	20.008	100.358	20.038	24.378	0.558
223.000	172.942	80.000	20.008	100.347	20.037	24.685	0.576
223.500	173.177	80.001	20.008	100.349	20.040	23.763	0.565
224.000	173.490	79.999	20.008	100.360	20.037	24.567	0.545
224.500	173.751	80.000	20.007	100.369	20.039	23.981	0.561
225.000	174.023	80.001	20.008	100.378	20.037	24.647	0.554
225.500	174.357	80.001	20.007	100.376	20.038	24.397	0.570
226.000	174.566	80.000	20.008	100.368	20.037	24.668	0.574
226.500	174.885	80.000	20.007	100.360	20.038	24.331	0.535
227.000	175.152	80.001	20.008	100.357	20.037	24.631	0.557
227.500	175.436	80.000	20.007	100.357	20.040	23.739	0.569
228.000	175.625	80.001	20.007	100.362	20.039	24.150	0.512
228.500	175.938	80.000	20.008	100.363	20.039	24.125	0.487
229.000	176.156	80.002	20.007	100.363	20.040	23.820	0.516
229.500	176.454	80.000	20.007	100.356	20.037	24.552	0.523
230.000	176.759	80.002	20.009	100.348	20.039	24.000	0.559
230.501	177.000	80.000	20.008	100.341	20.040	23.651	0.575
231.000	177.326	80.001	20.007	100.352	20.040	23.853	0.557
231.500	177.546	80.002	20.007	100.362	20.040	23.601	0.556
232.000	177.843	79.999	20.008	100.365	20.042	23.049	0.532
232.500	178.144	80.002	20.007	100.364	20.040	23.709	0.557
233.000	178.336	79.999	20.008	100.364	20.042	23.169	0.546
233.500	178.573	80.000	20.008	100.352	20.039	24.046	0.461
234.000	178.851	80.001	20.008	100.340	20.042	22.997	0.472
234.500	179.151	79.999	20.008	100.340	20.044	22.570	0.547
235.000	179.415	80.001	20.007	100.348	20.040	23.597	0.571
235.500	179.669	80.000	20.007	100.355	20.043	22.942	0.541
236.000	179.930	80.001	20.007	100.363	20.042	23.188	0.516
236.500	180.125	80.000	20.008	100.363	20.041	23.291	0.486
237.000	180.401	80.000	20.007	100.362	20.044	22.446	0.463
237.500	180.651	80.000	20.007	100.352	20.042	23.139	0.498
238.000	180.932	80.000	20.007	100.340	20.042	23.227	0.529
238.500	181.211	80.001	20.008	100.329	20.043	22.841	0.546
239.000	181.516	80.000	20.008	100.321	20.043	22.723	0.572
239.500	181.765	80.002	20.008	100.322	20.044	22.419	0.569
240.000	181.976	79.999	20.007	100.331	20.044	22.591	0.507
240.500	182.250	79.999	20.007	100.344	20.046	21.891	0.473
241.000	182.515	80.000	20.007	100.350	20.042	23.174	0.512
241.500	182.783	80.000	20.008	100.357	20.042	23.168	0.536
242.000	183.027	79.999	20.008	100.356	20.045	22.164	0.523
242.500	183.323	80.000	20.007	100.351	20.041	23.385	0.526
243.000	183.536	80.000	20.007	100.350	20.046	22.004	0.525
243.500	183.797	80.001	20.007	100.355	20.044	22.645	0.491
244.000	184.093	80.000	20.008	100.358	20.044	22.363	0.515
244.500	184.341	80.001	20.007	100.360	20.043	22.939	0.551
245.000	184.594	80.000	20.008	100.358	20.042	22.969	0.523
245.500	184.855	80.001	20.008	100.352	20.042	23.122	0.508
246.000	185.104	80.000	20.007	100.347	20.042	23.016	0.512
246.500	185.454	80.001	20.008	100.352	20.045	22.262	0.555
247.000	185.669	80.001	20.008	100.357	20.043	22.913	0.582
247.500	185.955	80.000	20.007	100.366	20.043	22.895	0.533
248.000	186.173	80.001	20.008	100.373	20.039	24.073	0.502
248.500	186.474	79.999	20.008	100.373	20.038	24.355	0.511
249.000	186.712	80.001	20.006	100.373	20.038	24.189	0.529
249.500	186.977	80.002	20.009	100.342	20.036	24.922	0.521
250.000	187.218	79.998	20.009	100.301	20.037	24.720	0.504
250.500	187.471	80.000	20.008	100.271	20.036	25.052	0.500
251.000	187.700	80.000	20.008	100.258	20.037	24.495	0.488
251.500	187.974	80.001	20.007	100.245	20.039	24.106	0.493
252.000	188.283	79.999	20.007	100.269	20.040	23.872	0.543
252.500	188.534	80.000	20.007	100.297	20.040	23.728	0.571
253.000	188.808	80.000	20.007	100.311	20.040	23.865	0.542
253.500	189.011	80.000	20.008	100.313	20.042	23.126	0.501
254.000	189.248	79.999	20.007	100.313	20.042	23.109	0.458
254.500	189.528	80.001	20.008	100.313	20.042	23.149	0.479
255.000	189.809	80.000	20.007	100.318	20.043	22.702	0.539
255.500	190.055	79.999	20.007	100.326	20.044	22.609	0.544
256.000	190.352	80.002	20.009	100.330	20.043	22.867	0.535
256.500	190.591	79.999	20.009	100.323	20.043	22.702	0.539
257.000	190.793	80.000	20.007	100.339	20.046	22.028	0.488
257.500	191.055	80.001	20.007	100.362	20.046	21.905	0.452
258.000	191.345	79.999	20.008	100.380	20.045	22.141	0.508
258.500	191.547	80.000	20.008	100.395	20.045	22.137	0.522
259.000	191.815	80.001	20.007	100.416	20.044	22.553	0.482
259.500	192.092	80.001	20.007	100.409	20.044	22.597	0.508
260.000	192.354	80.000	20.008	100.387	20.044	22.440	0.542
260.500	192.591	79.999	20.008	100.369	20.047	21.492	0.519
261.000	192.837	80.001	20.008	100.355	20.042	23.002	0.491
261.500	193.054	80.000	20.008	100.340	20.044	22.407	0.473
262.000	193.330	80.001	20.008	100.326	20.041	23.446	0.478
262.500	193.636	80.000	20.007	100.325	20.043	22.850	0.537
263.001	193.893	80.000	20.008	100.324	20.041	23.504	0.572
263.501	194.089	80.000	20.007	100.327	20.041	23.301	0.508
264.000	194.331	80.001	20.007	100.332	20.041	23.440	0.445
264.500	194.559	79.999	20.007	100.333	20.041	23.453	0.454
265.000	194.866	80.002	20.008	100.328	20.040	23.778	0.503
265.500	195.076	79.999	20.007	100.325	20.043	22.924	0.526
266.000	195.341	80.001	20.007	100.325	20.043	22.907	0.496
266.500	195.582	80.001	20.008	100.328	20.043	22.705	0.491
267.000	195.840	80.000	20.007	100.338	20.043	22.918	0.502
267.500	196.102	80.000	20.008	100.343	20.041	23.306	0.509
268.000	196.385	80.000	20.007	100.345	20.040	23.584	0.532
268.500	196.603	80.000	20.008	100.338	20.044	22.645	0.523
269.000	196.904	80.001	20.008	100.328	20.043	22.739	0.511
269.500	197.146	80.000	20.008	100.318	20.045	22.300	0.531
270.000	197.339	80.001	20.008	100.318	20.043	22.839	0.489
270.500	197.639	80.000	20.008	100.320	20.043	22.664	0.464
271.001	197.906	80.000	20.007	100.331	20.045	22.247	0.530
271.500	198.118	80.000	20.008	100.341	20.044	22.451	0.523
272.000	198.377	80.001	20.007	100.347	20.045	22.218	0.475
272.500	198.639	80.000	20.008	100.340	20.043	22.731	0.496
273.000	198.871	80.000	20.008	100.333	20.044	22.557	0.507
273.500	199.135	80.002	20.008	100.327	20.042	23.117	0.495
274.000	199.388	80.001	20.008	100.327	20.043	22.943	0.507
274.500	199.628	80.001	20.007	100.332	20.043	22.753	0.505
275.001	199.871	80.000	20.007	100.339	20.042	22.997	0.488
275.500	200.150	80.000	20.007	100.342	20.041	23.443	0.503
276.000	200.404	80.001	20.008	100.335	20.040	23.598	0.527
276.501	200.638	80.000	20.008	100.326	20.043	22.885	0.510
277.000	200.868	80.000	20.008	100.313	20.043	22.783	0.476
277.500	201.135	80.001	20.008	100.311	20.040	23.634	0.481
278.000	201.380	80.000	20.008	100.315	20.041	23.374	0.505
278.500	201.605	80.000	20.007	100.325	20.042	23.158	0.491
279.000	201.882	80.001	20.008	100.332	20.040	23.669	0.486
279.500	202.122	79.999	20.007	100.332	20.037	24.562	0.509
280.000	202.320	80.002	20.008	100.326	20.039	24.109	0.477
280.500	202.587	79.999	20.007	100.320	20.036	24.804	0.451
281.000	202.876	80.000	20.008	100.319	20.040	23.781	0.511
281.500	203.115	80.000	20.007	100.322	20.039	23.886	0.542
282.000	203.424	80.001	20.008	100.336	20.040	23.834	0.538
282.501	203.610	80.000	20.007	100.344	20.040	23.644	0.522
283.001	203.908	80.000	20.007	100.351	20.040	23.741	0.490
283.500	204.094	80.000	20.008	100.348	20.042	23.008	0.484
284.000	204.356	80.002	20.008	100.339	20.038	24.221	0.466
284.500	204.661	80.000	20.008	100.327	20.037	24.788	0.508
285.000	204.876	80.000	20.007	100.326	20.039	24.122	0.544
285.500	205.103	80.001	20.008	100.331	20.040	23.628	0.481
286.000	205.375	80.002	20.007	100.337	20.040	23.626	0.470
286.500	205.671	79.999	20.008	100.344	20.043	22.886	0.533
287.000	205.876	80.001	20.007	100.348	20.039	23.981	0.534
287.500	206.162	80.001	20.008	100.341	20.035	25.155	0.496
288.000	206.415	80.001	20.008	100.330	20.037	24.691	0.515
288.500	206.607	79.998	20.008	100.323	20.039	24.104	0.492
289.000	206.851	80.002	20.008	100.324	20.036	25.060	0.440
289.500	207.131	80.001	20.007	100.325	20.035	25.287	0.480
290.000	207.335	80.001	20.007	100.332	20.037	24.755	0.504
290.500	207.580	79.999	20.007	100.338	20.038	24.358	0.467
291.000	207.856	80.003	20.008	100.336	20.039	24.078	0.485
291.500	208.097	79.999	20.008	100.326	20.040	23.681	0.519
292.000	208.326	80.002	20.008	100.319	20.035	25.257	0.493
292.500	208.583	80.000	20.008	100.315	20.036	25.024	0.478
293.000	208.860	80.001	20.007	100.315	20.040	23.706	0.510
293.500	209.066	80.001	20.007	100.320	20.039	23.965	0.509
294.000	209.327	79.999	20.007	100.330	20.038	24.360	0.475
294.500	209.551	80.000	20.007	100.335	20.038	24.451	0.476
295.000	209.785	80.002	20.008	100.332	20.041	23.368	0.471
295.500	209.989	79.999	20.007	100.324	20.039	23.952	0.448
296.001	210.269	80.000	20.008	100.322	20.040	23.824	0.461
296.500	210.539	80.002	20.008	100.322	20.040	23.818	0.517
297.000	210.795	80.000	20.007	100.325	20.039	24.175	0.538
297.500	211.051	80.001	20.007	100.335	20.042	23.247	0.519
298.000	211.252	80.000	20.007	100.342	20.040	23.837	0.484
298.500	211.557	79.999	20.008	100.340	20.041	23.298	0.481
299.000	211.811	80.000	20.008	100.332	20.039	24.046	0.533
299.500	212.043	80.001	20.008	100.326	20.039	24.028	0.522
300.000	212.285	80.000	20.008	100.323	20.040	23.685	0.480
300.500	212.487	80.001	20.008	100.323	20.039	23.892	0.459
301.000	212.729	79.999	20.007	100.334	20.039	23.956	0.444
301.501	213.030	80.001	20.007	100.350	20.039	24.069	0.494
302.000	213.275	80.000	20.008	100.359	20.038	24.352	0.545
302.500	213.513	79.999	20.008	100.360	20.040	23.872	0.515
303.000	213.765	80.001	20.008	100.361	20.039	24.099	0.486
303.500	214.016	80.000	20.008	100.355	20.039	24.146	0.496
304.000	214.260	80.001	20.007	100.348	20.039	24.031	0.498
304.500	214.467	80.002	20.008	100.344	20.038	24.265	0.473
305.000	214.756	80.001	20.008	100.344	20.039	24.140	0.474
305.500	214.957	80.002	20.007	100.344	20.040	23.717	0.493
306.000	215.295	80.002	20.008	100.341	20.040	23.697	0.515
306.500	215.514	80.000	20.008	100.337	20.039	24.040	0.548
307.000	215.758	80.001	20.008	100.335	20.036	24.858	0.509
307.500	216.004	80.001	20.008	100.335	20.038	24.354	0.476
308.000	216.215	80.002	20.007	100.335	20.037	24.765	0.474
308.500	216.486	80.001	20.008	100.338	20.040	23.812	0.469
309.000	216.795	80.000	20.008	100.345	20.038	24.259	0.531
309.500	217.023	80.001	20.007	100.347	20.038	24.387	0.559
310.000	217.280	80.000	20.008	100.346	20.040	23.711	0.512
310.500	217.541	80.002	20.008	100.346	20.041	23.283	0.502
311.000	217.792	80.001	20.008	100.344	20.039	23.978	0.514
311.500	218.002	79.999	20.008	100.342	20.038	24.195	0.486
312.000	218.233	80.001	20.007	100.349	20.039	24.021	0.451
312.500	218.536	80.000	20.008	100.357	20.039	24.097	0.488
313.000	218.772	80.000	20.007	100.360	20.038	24.465	0.537
313.500	219.088	80.002	20.008	100.360	20.039	24.001	0.545
314.000	219.270	80.000	20.008	100.355	20.039	24.103	0.525
314.500	219.509	80.000	20.008	100.341	20.038	24.460	0.460
315.000	219.760	80.001	20.008	100.330	20.039	23.923	0.456
315.500	220.005	80.001	20.008	100.327	20.039	24.171	0.493
316.000	220.278	80.000	20.008	100.328	20.039	23.899	0.507
316.500	220.550	80.000	20.007	100.335	20.040	23.729	0.531
317.000	220.749	80.001	20.008	100.342	20.037	24.634	0.508
317.500	221.037	80.000	20.007	100.344	20.038	24.341	0.479
318.000	221.285	79.999	20.008	100.339	20.036	24.852	0.511
318.501	221.508	80.000	20.008	100.332	20.038	24.250	0.503
319.000	221.787	80.002	20.008	100.327	20.037	24.615	0.486
319.500	222.032	80.001	20.008	100.326	20.036	24.935	0.513
320.000	222.297	80.000	20.008	100.328	20.037	24.599	0.517
320.501	222.540	80.001	20.008	100.339	20.038	24.332	0.509
321.000	222.765	80.000	20.007	100.347	20.039	24.059	0.488
321.500	223.042	80.001	20.008	100.348	20.039	24.091	0.485
322.000	223.263	80.001	20.008	100.346	20.040	23.787	0.500
322.500	223.537	80.001	20.008	100.338	20.037	24.638	0.497
323.001	223.782	80.000	20.008	100.332	20.041	23.427	0.507
323.500	224.008	80.001	20.007	100.333	20.036	24.823	0.495
324.000	224.277	80.001	20.007	100.340	20.039	23.902	0.483
324.500	224.547	80.000	20.008	100.349	20.036	24.859	0.517
325.000	224.811	80.000	20.008	100.355	20.037	24.701	0.537
325.500	225.034	80.001	20.008	100.350	20.037	24.674	0.510
326.000	225.270	80.001	20.008	100.339	20.038	24.259	0.473
326.500	225.533	80.001	20.008	100.324	20.039	23.980	0.479
327.000	225.812	80.000	20.008	100.318	20.038	24.333	0.520
327.500	226.035	80.001	20.008	100.318	20.037	24.607	0.522
328.000	226.351	80.000	20.007	100.325	20.038	24.445	0.521
328.500	226.535	80.001	20.008	100.333	20.036	24.839	0.520
329.000	226.854	80.001	20.007	100.334	20.036	24.884	0.502
329.501	227.046	80.001	20.008	100.325	20.037	24.767	0.507
330.000	227.351	80.001	20.008	100.317	20.038	24.229	0.504
330.500	227.546	80.001	20.007	100.310	20.036	24.892	0.498
331.000	227.845	80.001	20.008	100.306	20.036	24.985	0.497
331.500	228.061	80.002	20.007	100.310	20.037	24.626	0.505
332.000	228.367	80.001	20.007	100.318	20.036	24.806	0.519
332.500	228.597	80.000	20.008	100.327	20.037	24.785	0.529
333.000	228.858	80.001	20.008	100.330	20.035	25.327	0.513
333.500	229.066	80.001	20.007	100.328	20.034	25.495	0.479
334.000	229.352	80.002	20.008	100.324	20.034	25.581	0.481
334.500	229.613	79.999	20.008	100.323	20.036	25.097	0.521
335.000	229.892	80.001	20.007	100.324	20.036	24.886	0.544
335.500	230.120	80.000	20.008	100.332	20.034	25.692	0.524
336.000	230.362	80.001	20.007	100.338	20.035	25.152	0.489
336.500	230.565	80.001	20.007	100.344	20.036	24.937	0.457
337.000	230.891	80.000	20.007	100.345	20.036	24.862	0.487
337.500	231.159	80.000	20.008	100.335	20.036	25.095	0.561
338.000	231.396	80.001	20.008	100.323	20.036	25.075	0.550
338.500	231.679	80.001	20.008	100.320	20.039	24.137	0.513
339.000	231.957	80.002	20.008	100.320	20.035	25.325	0.540
339.500	232.179	80.001	20.008	100.321	20.036	25.046	0.530
340.000	232.407	80.000	20.007	100.329	20.037	24.760	0.475
340.500	232.645	80.001	20.007	100.337	20.039	23.947	0.458
341.000	232.927	80.001	20.007	100.336	20.040	23.861	0.493
341.500	233.124	80.001	20.008	100.330	20.037	24.522	0.500
342.000	233.454	79.999	20.008	100.330	20.037	24.511	0.503
342.500	233.669	80.001	20.008	100.330	20.037	24.707	0.536
343.000	233.939	80.002	20.008	100.331	20.035	25.148	0.515
343.500	234.177	80.000	20.007	100.338	20.038	24.215	0.496
344.000	234.457	80.002	20.008	100.343	20.039	23.973	0.513
344.500	234.686	80.001	20.007	100.337	20.039	24.036	0.513
345.000	234.898	80.002	20.008	100.330	20.040	23.848	0.475
345.500	235.179	80.001	20.008	100.321	20.041	23.304	0.467
346.000	235.419	80.001	20.008	100.310	20.040	23.700	0.507
346.501	235.716	80.000	20.008	100.309	20.041	23.520	0.529
347.001	235.899	80.000	20.008	100.316	20.036	24.940	0.508
347.500	236.222	80.002	20.007	100.327	20.040	23.837	0.493
348.000	236.471	80.001	20.007	100.337	20.040	23.661	0.539
348.500	236.676	80.000	20.008	100.345	20.042	23.110	0.513
349.000	236.936	80.001	20.008	100.340	20.040	23.850	0.460
349.500	237.218	80.000	20.007	100.333	20.042	23.107	0.504
350.001	237.452	80.002	20.008	100.321	20.040	23.673	0.529
350.501	237.729	79.999	20.008	100.316	20.043	22.942	0.513
351.000	237.951	80.000	20.008	100.317	20.040	23.634	0.505
351.500	238.191	80.001	20.007	100.324	20.039	24.099	0.481
352.000	238.437	80.000	20.007	100.332	20.041	23.467	0.474
352.500	238.753	80.001	20.007	100.331	20.042	23.031	0.524
353.000	239.012	80.000	20.008	100.326	20.041	23.329	0.569
353.500	239.263	80.001	20.008	100.318	20.037	24.576	0.542
354.000	239.493	80.001	20.008	100.309	20.041	23.359	0.495
354.500	239.770	80.000	20.007	100.308	20.039	24.119	0.494
355.000	240.095	80.001	20.007	100.316	20.040	23.834	0.554
355.500	240.285	80.001	20.008	100.323	20.038	24.403	0.559
356.000	240.548	80.001	20.008	100.323	20.039	23.940	0.484
356.500	240.820	80.000	20.007	100.324	20.036	24.841	0.494
357.000	241.080	80.002	20.008	100.318	20.040	23.739	0.533
357.500	241.302	80.000	20.008	100.310	20.038	24.382	0.507
358.000	241.629	80.001	20.007	100.308	20.039	23.975	0.515
358.500	241.859	80.001	20.008	100.310	20.039	24.078	0.553
359.000	242.126	80.001	20.007	100.315	20.041	23.266	0.527
359.500	242.403	80.001	20.008	100.320	20.039	23.996	0.520
360.000	242.709	80.000	20.007	100.320	20.040	23.683	0.563
360.500	242.939	80.001	20.008	100.316	20.040	23.775	0.560
361.000	243.172	80.001	20.008	100.313	20.039	23.906	0.499
361.500	243.409	80.001	20.008	100.314	20.039	24.083	0.466
362.000	243.719	80.001	20.008	100.318	20.037	24.616	0.509
362.500	244.007	80.001	20.008	100.329	20.040	23.799	0.573
363.000	244.236	80.000	20.007	100.338	20.042	23.169	0.557
363.500	244.498	80.000	20.007	100.344	20.041	23.381	0.504
364.000	244.792	80.001	20.008	100.337	20.039	23.989	0.523
364.500	245.042	80.001	20.008	100.328	20.040	23.823	0.550
365.000	245.311	80.000	20.008	100.316	20.041	23.280	0.532
365.500	245.560	80.001	20.008	100.309	20.039	23.890	0.519
366.000	245.822	80.000	20.008	100.309	20.040	23.670	0.515
366.500	246.033	80.000	20.007	100.316	20.036	25.005	0.492
367.000	246.296	80.002	20.007	100.325	20.038	24.186	0.474
367.500	246.543	80.000	20.008	100.332	20.041	23.347	0.492
368.000	246.844	80.000	20.008	100.330	20.038	24.371	0.529
368.500	247.057	80.000	20.008	100.324	20.038	24.430	0.530
369.000	247.301	80.001	20.008	100.315	20.036	24.995	0.485
369.500	247.582	80.001	20.008	100.313	20.036	25.034	0.491
370.000	247.822	80.001	20.008	100.313	20.036	24.950	0.523
370.500	248.105	80.002	20.007	100.320	20.039	24.113	0.522
371.000	248.334	80.000	20.007	100.324	20.038	24.475	0.517
371.500	248.613	80.001	20.008	100.323	20.037	24.683	0.510
372.000	248.785	80.000	20.008	100.316	20.037	24.640	0.480
372.500	249.091	80.001	20.009	100.307	20.039	24.000	0.465
373.000	249.370	80.000	20.008	100.298	20.039	23.911	0.531
373.500	249.618	80.001	20.008	100.301	20.037	24.567	0.556
374.000	249.872	80.002	20.007	100.308	20.036	24.806	0.514
374.500	250.141	80.000	20.008	100.318	20.038	24.428	0.512
375.000	250.406	80.001	20.008	100.320	20.039	24.057	0.529
375.500	250.618	80.002	20.009	100.321	20.038	24.471	0.506
376.000	250.853	80.001	20.008	100.316	20.037	24.634	0.462
376.500	251.131	80.001	20.008	100.308	20.038	24.422	0.480
377.000	251.393	80.000	20.008	100.303	20.035	25.137	0.526
377.500	251.605	80.001	20.008	100.312	20.039	24.177	0.507
378.000	251.871	80.001	20.008	100.319	20.037	24.759	0.476
378.500	252.115	80.000	20.008	100.324	20.036	25.081	0.494
379.000	252.411	80.001	20.008	100.324	20.035	25.332	0.525
379.500	252.617	80.001	20.008	100.321	20.036	25.071	0.521
380.000	252.881	80.000	20.008	100.312	20.036	24.812	0.486
380.500	253.118	80.001	20.008	100.304	20.038	24.386	0.485
381.000	253.362	80.001	20.008	100.300	20.038	24.237	0.491
381.501	253.635	80.002	20.008	100.303	20.038	24.477	0.499
382.001	253.893	80.001	20.008	100.308	20.036	25.028	0.524
382.500	254.131	79.999	20.007	100.308	20.041	23.470	0.514
383.000	254.416	80.001	20.008	100.308	20.039	24.136	0.509
383.500	254.681	80.001	20.008	100.307	20.039	23.909	0.536
384.001	254.907	80.001	20.009	100.303	20.038	24.429	0.521
384.501	255.159	80.000	20.008	100.304	20.042	23.114	0.484
385.000	255.364	80.002	20.007	100.312	20.037	24.788	0.467
385.500	255.707	80.000	20.007	100.320	20.036	25.061	0.503
386.000	255.941	80.001	20.008	100.329	20.036	24.859	0.562
386.500	256.179	80.002	20.007	100.334	20.037	24.520	0.524
387.000	256.475	80.000	20.008	100.329	20.037	24.532	0.503
387.500	256.695	80.001	20.008	100.321	20.039	23.994	0.525
388.000	256.938	80.001	20.008	100.314	20.040	23.657	0.489
388.500	257.239	80.000	20.007	100.312	20.041	23.483	0.503
389.000	257.520	80.000	20.008	100.315	20.037	24.670	0.563
389.500	257.725	80.001	20.007	100.323	20.039	23.897	0.534
390.000	257.983	80.001	20.007	100.329	20.038	24.239	0.475
390.500	258.245	80.001	20.008	100.328	20.037	24.537	0.492
391.000	258.474	80.001	20.007	100.321	20.037	24.602	0.506
391.500	258.781	80.002	20.008	100.313	20.034	25.478	0.514
392.000	259.017	80.001	20.008	100.306	20.037	24.624	0.539
392.500	259.239	80.002	20.008	100.299	20.040	23.802	0.500
393.000	259.503	80.001	20.007	100.303	20.038	24.306	0.473
393.500	259.757	80.000	20.008	100.308	20.038	24.414	0.503
394.000	260.000	80.001	20.007	100.310	20.038	24.224	0.507
394.500	260.274	80.000	20.007	100.310	20.041	23.523	0.507
395.001	260.503	79.999	20.008	100.308	20.039	24.042	0.510
395.501	260.758	80.001	20.009	100.302	20.042	23.020	0.494
396.001	261.053	80.001	20.008	100.296	20.040	23.852	0.518
396.500	261.316	80.001	20.008	100.294	20.039	23.873	0.554
397.000	261.576	80.000	20.007	100.299	20.039	23.957	0.540
397.500	261.819	80.001	20.007	100.305	20.039	23.871	0.513
398.000	262.071	80.001	20.008	100.309	20.038	24.381	0.499
398.501	262.327	80.000	20.008	100.311	20.039	23.966	0.501
399.001	262.571	80.000	20.008	100.309	20.040	23.752	0.504
399.500	262.859	80.001	20.008	100.302	20.041	23.422	0.516
400.000	263.103	80.000	20.008	100.296	20.038	24.228	0.532
400.500	263.352	80.000	20.008	100.296	20.039	24.104	0.513
401.000	263.564	80.001	20.008	100.298	20.039	24.057	0.477
401.500	263.830	80.001	20.007	100.300	20.039	23.978	0.470
402.000	264.071	79.999	20.008	100.302	20.039	24.022	0.492
402.500	264.339	80.001	20.008	100.299	20.037	24.514	0.508
403.000	264.602	80.001	20.008	100.291	20.040	23.771	0.521
403.500	264.884	80.000	20.007	100.289	20.038	24.287	0.538
404.000	265.149	80.001	20.008	100.290	20.039	23.991	0.546
404.500	265.393	80.000	20.007	100.294	20.035	25.185	0.528
405.000	265.660	80.000	20.007	100.299	20.036	24.878	0.510
405.500	265.904	80.001	20.008	100.306	20.037	24.701	0.511
406.000	266.159	80.001	20.007	100.299	20.035	25.380	0.505
406.500	266.427	80.000	20.008	100.291	20.037	24.724	0.511
407.000	266.693	80.001	20.008	100.283	20.037	24.577	0.529
407.501	266.902	80.002	20.007	100.280	20.035	25.163	0.504
408.000	267.190	80.000	20.008	100.280	20.034	25.430	0.486
408.500	267.462	80.001	20.008	100.291	20.035	25.268	0.529
409.000	267.672	80.001	20.007	100.299	20.039	24.126	0.521
409.500	267.925	80.002	20.008	100.305	20.036	24.908	0.472
410.000	268.207	80.001	20.008	100.302	20.035	25.230	0.499
410.500	268.498	80.001	20.008	100.296	20.037	24.692	0.554
411.000	268.724	80.001	20.007	100.290	20.038	24.180	0.545
411.500	269.053	80.000	20.008	100.288	20.034	25.549	0.536
412.000	269.235	80.001	20.007	100.288	20.033	25.829	0.533
412.500	269.486	80.000	20.007	100.291	20.032	26.186	0.472
413.000	269.802	80.001	20.007	100.299	20.034	25.548	0.501
413.500	269.960	80.002	20.007	100.297	20.035	25.365	0.521
414.000	270.261	80.001	20.008	100.289	20.032	26.134	0.466
414.500	270.514	80.001	20.008	100.282	20.035	25.155	0.506
415.000	270.788	80.001	20.008	100.278	20.036	25.058	0.541
415.500	271.044	80.001	20.008	100.277	20.035	25.384	0.529
416.000	271.302	80.002	20.008	100.286	20.033	25.769	0.522
416.501	271.509	79.999	20.007	100.301	20.032	26.018	0.490
417.000	271.754	80.002	20.007	100.310	20.032	26.225	0.459
417.500	272.020	80.000	20.008	100.313	20.034	25.537	0.481
418.000	272.325	80.001	20.008	100.307	20.034	25.574	0.541
418.500	272.545	80.001	20.007	100.296	20.037	24.679	0.548
419.000	272.803	80.000	20.008	100.289	20.036	24.951	0.501
419.500	273.037	80.003	20.008	100.288	20.033	25.729	0.485
420.000	273.338	79.999	20.008	100.293	20.034	25.562	0.514
420.500	273.558	80.001	20.007	100.303	20.034	25.537	0.528
421.000	273.788	80.001	20.007	100.311	20.035	25.302	0.485
421.500	274.022	80.000	20.007	100.310	20.034	25.676	0.457
422.000	274.258	80.000	20.008	100.305	20.035	25.177	0.467
422.500	274.549	80.002	20.008	100.296	20.034	25.560	0.499
423.000	274.789	80.001	20.008	100.289	20.036	24.940	0.529
423.500	275.008	80.001	20.008	100.288	20.035	25.378	0.495
424.000	275.279	80.000	20.008	100.288	20.037	24.732	0.475
424.500	275.551	80.002	20.007	100.293	20.036	24.907	0.516
425.000	275.816	80.001	20.007	100.298	20.038	24.458	0.540
425.500	276.073	80.001	20.008	100.297	20.035	25.240	0.529
426.000	276.337	80.000	20.008	100.290	20.038	24.428	0.521
426.500	276.545	80.000	20.008	100.282	20.034	25.451	0.497
427.000	276.835	80.002	20.008	100.275	20.036	24.830	0.485
427.500	277.094	80.001	20.008	100.272	20.038	24.228	0.524
428.000	277.335	80.001	20.008	100.273	20.036	24.929	0.525
428.500	277.548	80.001	20.008	100.283	20.035	25.357	0.477
429.000	277.817	80.000	20.007	100.293	20.035	25.374	0.468
429.501	278.079	80.001	20.008	100.299	20.034	25.701	0.507
430.000	278.302	80.000	20.007	100.301	20.034	25.699	0.508
430.500	278.608	80.001	20.008	100.298	20.030	26.632	0.507
431.000	278.828	80.001	20.008	100.288	20.033	25.889	0.527
431.500	279.093	80.000	20.008	100.286	20.031	26.474	0.506
432.000	279.314	80.001	20.007	100.287	20.029	26.956	0.486
432.500	279.585	80.000	20.008	100.288	20.028	27.274	0.489
433.000	279.817	80.002	20.007	100.292	20.033	25.962	0.497
433.500	280.068	80.000	20.008	100.296	20.029	26.997	0.493
434.000	280.369	80.001	20.007	100.289	20.029	27.137	0.517
434.500	280.614	80.000	20.008	100.282	20.033	25.977	0.549
435.000	280.883	80.001	20.008	100.283	20.033	25.810	0.530
435.500	281.088	80.001	20.008	100.284	20.033	25.832	0.494
436.000	281.327	80.000	20.008	100.294	20.032	26.120	0.459
436.500	281.587	80.001	20.007	100.307	20.031	26.627	0.471
437.000	281.873	80.000	20.008	100.318	20.030	26.763	0.522
437.501	282.147	80.002	20.008	100.317	20.031	26.586	0.553
438.000	282.342	80.000	20.008	100.312	20.029	26.962	0.515
438.500	282.565	80.000	20.008	100.301	20.032	26.248	0.443
439.000	282.874	80.001	20.008	100.293	20.028	27.376	0.475
439.500	283.115	80.000	20.008	100.289	20.030	26.896	0.541
440.000	283.387	80.001	20.007	100.295	20.029	26.962	0.532
440.500	283.636	80.001	20.008	100.300	20.026	28.049	0.517
441.000	283.869	80.001	20.007	100.302	20.029	27.004	0.501
441.500	284.154	80.002	20.007	100.301	20.029	26.996	0.500
442.000	284.437	79.999	20.008	100.293	20.029	27.117	0.543
442.500	284.672	80.001	20.008	100.280	20.025	28.200	0.543
443.000	284.911	80.001	20.008	100.273	20.028	27.488	0.496
443.500	285.159	80.001	20.008	100.272	20.028	27.326	0.480
444.000	285.398	80.000	20.007	100.277	20.027	27.767	0.487
444.500	285.660	80.001	20.007	100.287	20.025	28.394	0.494
445.000	285.927	80.001	20.007	100.294	20.026	28.120	0.515
445.501	286.176	80.001	20.007	100.294	20.027	27.775	0.522
446.000	286.367	80.001	20.008	100.287	20.027	27.549	0.478
446.500	286.633	80.000	20.008	100.277	20.023	28.809	0.449
447.001	286.884	80.001	20.007	100.268	20.026	28.132	0.487
447.500	287.129	80.001	20.008	100.268	20.024	28.556	0.507
448.000	287.391	80.001	20.008	100.276	20.025	28.245	0.502
448.500	287.591	80.001	20.007	100.285	20.021	29.508	0.484
449.000	287.901	80.001	20.008	100.293	20.027	27.671	0.486
449.500	288.155	80.002	20.008	100.301	20.025	28.428	0.537
450.000	288.409	80.001	20.008	100.299	20.023	28.792	0.537
450.500	288.630	80.001	20.008	100.292	20.023	28.989	0.491
451.000	288.928	80.001	20.008	100.291	20.023	29.024	0.497
451.500	289.173	80.001	20.008	100.288	20.022	29.188	0.531
452.000	289.394	79.999	20.007	100.287	20.021	29.452	0.504
452.500	289.651	80.001	20.008	100.289	20.020	29.761	0.472
453.000	289.875	80.001	20.007	100.291	20.023	29.015	0.479
453.500	290.176	80.000	20.008	100.284	20.022	29.080	0.503
454.000	290.339	80.002	20.007	100.279	20.021	29.610	0.494
454.500	290.645	80.000	20.008	100.272	20.019	30.018	0.466
455.000	290.891	80.002	20.008	100.265	20.021	29.474	0.510
455.500	291.130	79.999	20.008	100.268	20.020	29.816	0.519
456.000	291.425	80.001	20.008	100.272	20.020	29.905	0.510
456.500	291.670	80.000	20.007	100.272	20.021	29.635	0.537
457.000	291.951	80.000	20.008	100.272	20.017	30.661	0.533
457.501	292.165	80.000	20.008	100.268	20.020	29.801	0.511
458.000	292.388	80.002	20.008	100.259	20.018	30.451	0.466
458.500	292.660	80.000	20.008	100.256	20.017	30.744	0.466
459.000	292.894	80.001	20.008	100.259	20.018	30.490	0.501
459.501	293.163	80.000	20.008	100.268	20.019	30.236	0.504
460.000	293.411	80.001	20.007	100.280	20.019	30.244	0.510
460.500	293.606	80.000	20.008	100.289	20.015	31.262	0.480
461.000	293.906	80.002	20.007	100.290	20.016	31.055	0.469
461.500	294.153	80.001	20.009	100.285	20.018	30.551	0.521
462.000	294.445	80.001	20.008	100.277	20.017	30.791	0.543
462.501	294.679	80.001	20.008	100.274	20.018	30.457	0.532
463.000	294.906	80.000	20.008	100.276	20.016	30.973	0.494
463.500	295.156	79.999	20.007	100.283	20.019	30.231	0.469
464.000	295.425	80.001	20.008	100.292	20.019	30.300	0.498
464.500	295.654	80.002	20.008	100.299	20.018	30.571	0.508
465.000	295.972	80.000	20.007	100.293	20.017	30.690	0.523
465.500	296.184	80.002	20.008	100.285	20.016	31.062	0.539
466.000	296.423	80.001	20.007	100.285	20.017	30.875	0.490
466.500	296.635	80.001	20.007	100.285	20.018	30.551	0.451
467.000	296.922	80.000	20.008	100.281	20.014	31.678	0.475
467.500	297.198	80.001	20.007	100.280	20.016	31.092	0.531
468.000	297.411	80.001	20.008	100.280	20.017	30.799	0.526
468.500	297.654	80.002	20.008	100.275	20.016	31.162	0.472
469.001	297.920	80.000	20.008	100.271	20.012	32.285	0.482
469.501	298.198	80.001	20.008	100.276	20.015	31.489	0.526
470.001	298.452	80.000	20.008	100.283	20.015	31.275	0.538
470.500	298.721	80.001	20.008	100.291	20.014	31.675	0.528
471.000	298.943	80.002	20.007	100.295	20.014	31.661	0.508
471.500	299.183	80.000	20.008	100.299	20.014	31.582	0.477
472.000	299.422	80.001	20.008	100.295	20.013	31.911	0.470
472.500	299.686	80.001	20.008	100.294	20.016	31.120	0.491
473.000	299.959	80.001	20.007	100.297	20.015	31.245	0.520
473.500	300.225	80.000	20.007	100.298	20.016	31.114	0.538
474.000	300.465	80.001	20.007	100.300	20.013	32.028	0.523
474.500	300.719	80.001	20.008	100.304	20.013	31.833	0.500
475.000	300.942	80.001	20.007	100.305	20.014	31.703	0.485
475.500	301.229	80.001	20.008	100.295	20.011	32.461	0.493
476.001	301.453	80.001	20.008	100.286	20.010	32.915	0.510
476.501	301.714	80.000	20.008	100.277	20.012	32.429	0.498
477.001	301.940	80.002	20.008	100.269	20.014	31.548	0.486
477.500	302.244	80.000	20.008	100.265	20.015	31.510	0.508
478.000	302.487	80.002	20.008	100.272	20.016	31.169	0.539
478.500	302.755	80.000	20.007	100.280	20.014	31.811	0.529
479.000	302.930	80.003	20.008	100.284	20.015	31.353	0.477
479.500	303.231	80.001	20.008	100.284	20.016	31.049	0.460
480.000	303.524	80.001	20.008	100.281	20.014	31.751	0.535
480.500	303.732	80.001	20.008	100.274	20.013	31.843	0.547
481.000	303.976	80.001	20.008	100.266	20.013	31.952	0.476
481.500	304.257	80.001	20.008	100.268	20.010	32.728	0.488
482.001	304.488	80.001	20.007	100.274	20.011	32.591	0.519
482.500	304.724	80.000	20.008	100.277	20.010	32.797	0.490
483.000	304.969	80.000	20.008	100.277	20.012	32.349	0.475
483.501	305.208	80.000	20.008	100.271	20.009	33.348	0.483
484.000	305.473	80.001	20.007	100.269	20.010	32.804	0.493
484.500	305.720	80.001	20.008	100.263	20.010	33.110	0.508
485.000	305.953	80.001	20.008	100.260	20.011	32.683	0.496
485.500	306.212	80.001	20.007	100.259	20.007	33.810	0.486
486.000	306.468	80.000	20.008	100.264	20.010	32.787	0.503
486.500	306.724	80.000	20.008	100.260	20.008	33.681	0.514
487.000	306.994	80.000	20.007	100.260	20.010	32.983	0.520
487.500	307.234	80.001	20.008	100.259	20.010	33.026	0.518
488.000	307.433	80.001	20.008	100.257	20.008	33.388	0.474
488.500	307.746	80.001	20.008	100.255	20.007	33.906	0.476
489.000	307.945	80.000	20.007	100.258	20.006	34.260	0.512
489.500	308.267	80.001	20.008	100.258	20.004	34.667	0.516
490.000	308.534	80.001	20.008	100.258	20.004	34.666	0.555
490.500	308.739	80.001	20.008	100.263	20.002	35.312	0.531
491.000	308.975	79.998	20.010	100.271	20.003	35.201	0.457
491.500	309.220	80.001	20.006	100.312	20.000	35.947	0.461
492.000	309.533	80.002	20.012	100.278	20.002	35.321	0.519
492.500	309.748	80.001	20.008	100.238	20.000	35.906	0.543
493.000	309.995	79.999	20.009	100.205	19.999	36.303	0.495
493.500	310.224	80.001	20.007	100.187	20.000	35.934	0.469
494.000	310.518	80.000	20.006	100.143	20.001	35.589	0.500
494.500	310.762	80.002	20.010	100.161	20.003	35.099	0.530
495.000	311.061	80.001	20.009	100.177	20.000	36.005	0.540
495.500	311.280	80.001	20.007	100.233	20.003	35.020	0.531
496.000	311.507	80.001	20.006	100.291	20.001	35.514	0.482
496.500	311.735	80.000	20.008	100.331	20.002	35.392	0.450
497.000	312.046	80.002	20.007	100.375	20.006	34.110	0.497
497.500	312.285	80.001	20.008	100.418	20.005	34.434	0.545
498.000	312.538	80.000	20.008	100.401	20.003	34.919	0.521
498.500	312.701	80.001	20.008	100.356	20.005	34.517	0.454
499.001	313.003	80.001	20.007	100.322	20.002	35.375	0.441
499.500	313.230	80.000	20.007	100.301	20.000	35.909	0.497
500.000	313.489	80.001	20.008	100.286	20.001	35.666	0.508
500.500	313.748	80.000	20.007	100.279	20.001	35.771	0.502
501.000	313.972	80.000	20.008	100.277	19.997	36.756	0.500
501.500	314.249	80.000	20.007	100.274	19.997	36.993	0.492
502.000	314.512	80.001	20.008	100.267	19.997	36.984	0.521
502.500	314.730	80.001	20.007	100.264	19.997	37.013	0.510
503.000	314.969	80.001	20.007	100.261	19.998	36.665	0.469
503.500	315.235	80.002	20.007	100.256	19.998	36.642	0.481
504.000	315.485	80.000	20.008	100.254	19.993	38.012	0.510
504.500	315.698	80.002	20.007	100.255	19.997	36.945	0.490
505.000	315.953	80.001	20.008	100.262	19.996	37.288	0.466
505.500	316.206	80.001	20.007	100.266	19.994	37.788	0.488
506.000	316.434	80.002	20.008	100.273	19.995	37.522	0.494
506.500	316.687	80.001	20.007	100.272	19.994	37.869	0.481
507.000	316.981	80.001	20.008	100.268	19.994	37.712	0.514
507.500	317.169	80.000	20.008	100.258	19.991	38.797	0.514
508.000	317.427	80.000	20.008	100.254	19.990	38.943	0.464
508.500	317.694	80.001	20.007	100.253	19.989	39.219	0.486
509.000	317.920	80.000	20.007	100.258	19.987	40.035	0.509
509.500	318.175	80.002	20.007	100.262	19.985	40.538	0.487
510.000	318.432	80.000	20.007	100.265	19.985	40.490	0.497
510.500	318.682	80.001	20.008	100.264	19.983	41.331	0.510
511.000	318.896	80.001	20.008	100.263	19.985	40.716	0.486
511.500	319.145	80.000	20.007	100.260	19.984	41.011	0.464
512.000	319.349	80.001	20.008	100.268	19.983	41.310	0.458
512.500	319.626	79.999	20.008	100.277	19.981	41.719	0.466
513.000	319.906	80.001	20.007	100.286	19.979	42.385	0.519
513.500	320.157	80.000	20.007	100.290	19.978	42.834	0.544
514.000	320.431	80.001	20.008	100.288	19.976	43.178	0.528
514.500	320.651	80.000	20.008	100.280	19.977	43.035	0.509
515.000	320.861	79.999	20.008	100.272	19.975	43.598	0.462
515.500	321.106	80.000	20.008	100.265	19.974	44.085	0.443
516.001	321.376	80.001	20.007	100.269	19.972	44.406	0.485
516.500	321.617	80.001	20.008	100.278	19.972	44.481	0.513
517.000	321.847	80.001	20.008	100.284	19.971	44.994	0.491
517.500	322.059	80.001	20.007	100.290	19.968	45.642	0.456
518.000	322.378	79.999	20.008	100.288	19.967	45.949	0.486
518.500	322.606	80.001	20.008	100.273	19.965	46.851	0.539
519.000	322.872	80.001	20.008	100.257	19.965	46.822	0.521
519.500	323.126	80.000	20.008	100.248	19.963	47.410	0.507
520.000	323.398	80.001	20.008	100.245	19.962	47.787	0.523
520.500	323.618	80.000	20.007	100.252	19.960	48.234	0.510
521.000	323.892	80.002	20.008	100.261	19.957	49.038	0.493
521.500	324.124	80.000	20.008	100.270	19.958	48.863	0.499
522.000	324.447	80.001	20.008	100.269	19.956	49.377	0.530
522.500	324.651	80.001	20.008	100.263	19.954	49.969	0.541
523.000	324.925	80.001	20.008	100.255	19.958	48.913	0.503
523.500	325.158	80.001	20.008	100.252	19.955	49.902	0.492
524.000	325.398	80.001	20.008	100.254	19.953	50.235	0.490
524.500	325.671	80.000	20.009	100.262	19.951	51.116	0.493
525.000	325.923	80.002	20.008	100.265	19.952	50.766	0.519
525.500	326.164	80.000	20.008	100.267	19.950	51.263	0.509
526.000	326.360	80.001	20.008	100.262	19.948	51.878	0.465
526.500	326.589	80.001	20.008	100.251	19.944	53.173	0.431
527.000	326.884	80.001	20.008	100.238	19.941	54.061	0.475
527.500	327.148	80.000	20.008	100.235	19.939	54.706	0.541
528.000	327.348	80.002	20.007	100.236	19.937	55.314	0.512
528.500	327.637	80.000	20.008	100.237	19.936	55.590	0.477
529.000	327.884	79.999	20.008	100.244	19.934	56.318	0.512
529.500	328.131	80.002	20.008	100.253	19.931	57.000	0.514
530.000	328.360	80.000	20.007	100.256	19.929	57.634	0.485
530.501	328.639	80.001	20.007	100.257	19.930	57.515	0.492
531.001	328.878	80.000	20.008	100.261	19.925	58.837	0.513
531.500	329.132	80.001	20.008	100.264	19.925	59.136	0.505
532.000	329.378	80.001	20.007	100.272	19.920	60.469	0.497
532.500	329.620	80.002	20.007	100.280	19.917	61.346	0.494
533.000	329.860	80.001	20.007	100.283	19.916	61.807	0.485
533.500	330.159	80.003	20.008	100.283	19.914	62.503	0.510
534.001	330.402	80.001	20.009	100.282	19.909	63.999	0.540
534.501	330.606	80.000	20.006	100.282	19.907	64.507	0.494
535.001	330.875	80.002	20.008	100.274	19.903	65.909	0.460
535.500	331.097	80.001	20.010	100.251	19.904	65.387	0.482
536.000	331.404	80.001	20.008	100.238	19.900	66.702	0.510
536.500	331.652	80.001	20.007	100.235	19.900	66.720	0.542
537.000	331.821	80.002	20.007	100.226	19.898	67.282	0.486
537.500	332.112	80.000	20.007	100.227	19.895	68.163	0.438
538.000	332.351	80.001	20.008	100.251	19.894	68.552	0.495
538.500	332.604	80.002	20.007	100.272	19.891	69.406	0.511
539.000	332.910	80.000	20.008	100.284	19.886	70.811	0.526
539.500	333.132	80.001	20.007	100.294	19.884	71.624	0.544
540.000	333.416	80.001	20.007	100.306	19.883	72.006	0.517
540.500	333.656	80.001	20.007	100.310	19.877	73.806	0.515
541.000	333.949	80.001	20.008	100.308	19.873	75.042	0.528
541.500	334.191	80.001	20.007	100.303	19.871	75.529	0.534
542.000	334.442	80.000	20.007	100.295	19.865	77.502	0.514
542.501	334.689	80.002	20.008	100.285	19.862	78.435	0.495
543.001	334.884	80.000	20.006	100.284	19.857	79.687	0.470
543.500	335.104	80.001	20.009	100.280	19.850	82.098	0.429
544.000	335.361	79.999	20.009	100.280	19.840	84.961	0.446
544.500	335.626	80.001	20.007	100.302	19.832	87.375	0.499
545.000	335.844	80.002	20.006	100.330	19.825	89.754	0.503
545.500	336.149	80.000	20.007	100.343	19.818	91.934	0.503
546.000	336.386	80.000	20.008	100.354	19.809	94.664	0.533
546.500	336.667	80.001	20.007	100.368	19.803	96.461	0.530
547.000	336.859	80.001	20.008	100.365	19.796	98.515	0.495
547.500	337.146	79.999	20.007	100.358	19.794	99.090	0.475
548.000	337.358	80.001	20.007	100.358	19.787	101.285	0.489
548.500	337.599	80.002	20.007	100.354	19.783	102.678	0.476
549.000	337.851	80.002	20.007	100.341	19.776	104.535	0.473
549.500	338.112	80.001	20.008	100.320	19.773	105.727	0.503
550.000	338.350	80.000	20.008	100.297	19.768	107.289	0.506
550.500	338.628	80.002	20.007	100.277	19.764	108.438	0.508
551.000	338.891	80.001	20.008	100.267	19.759	109.957	0.528
551.500	339.102	79.999	20.007	100.265	19.756	110.963	0.508
552.000	339.332	80.001	20.008	100.273	19.752	112.096	0.458
552.500	339.609	80.001	20.008	100.277	19.746	113.886	0.474
553.000	339.919	80.001	20.008	100.276	19.746	113.752	0.547
553.500	340.188	80.001	20.008	100.273	19.740	115.710	0.583
554.000	340.373	80.001	20.008	100.270	19.737	116.633	0.516
554.500	340.678	80.002	20.008	100.263	19.733	117.946	0.472
555.000	340.900	80.000	20.008	100.258	19.726	120.041	0.508
555.500	341.157	80.001	20.007	100.258	19.724	120.537	0.503
556.000	341.409	80.001	20.008	100.260	19.717	122.750	0.494
556.500	341.626	80.001	20.007	100.259	19.712	124.400	0.489
557.000	341.883	80.001	20.008	100.258	19.708	125.511	0.472
557.500	342.141	80.001	20.008	100.254	19.704	126.634	0.494
558.000	342.367	80.001	20.008	100.255	19.703	127.147	0.499
558.500	342.656	80.001	20.008	100.258	19.697	128.812	0.500
559.000	342.895	80.000	20.007	100.266	19.694	129.918	0.522
559.500	343.118	80.001	20.008	100.275	19.689	131.325	0.495
560.000	343.362	80.000	20.007	100.287	19.682	133.571	0.464
560.500	343.581	80.001	20.008	100.292	19.677	135.163	0.465
561.000	343.854	80.001	20.007	100.290	19.671	137.025	0.477
561.500	344.111	79.999	20.008	100.282	19.669	137.397	0.511
562.000	344.380	80.001	20.008	100.279	19.663	139.344	0.528
562.500	344.623	80.001	20.008	100.278	19.660	140.302	0.519
563.000	344.849	79.999	20.007	100.285	19.654	142.185	0.491
563.500	345.151	80.001	20.007	100.298	19.650	143.492	0.499
564.001	345.361	80.001	20.008	100.305	19.644	145.293	0.519
564.500	345.644	80.002	20.008	100.307	19.641	145.950	0.502
565.001	345.905	80.001	20.008	100.299	19.637	147.371	0.518
565.501	346.154	80.000	20.008	100.288	19.632	148.773	0.527
566.000	346.355	80.001	20.008	100.279	19.626	150.806	0.480
566.500	346.618	80.002	20.008	100.279	19.620	152.483	0.457
567.001	346.915	80.000	20.008	100.281	19.611	155.303	0.512
567.500	347.126	80.000	20.008	100.290	19.604	157.491	0.534
568.000	347.364	80.001	20.008	100.296	19.594	160.467	0.479
568.500	347.622	80.000	20.008	100.294	19.590	161.730	0.473
569.000	347.901	80.000	20.008	100.285	19.582	164.312	0.517
569.500	348.168	80.001	20.008	100.277	19.577	165.833	0.541
570.000	348.370	80.000	20.008	100.274	19.570	167.743	0.507
570.500	348.627	80.000	20.008	100.275	19.565	169.582	0.464
571.000	348.871	79.999	20.008	100.281	19.559	171.256	0.480
571.500	349.133	80.000	20.008	100.291	19.554	172.931	0.504
572.000	349.442	80.001	20.008	100.299	19.549	174.282	0.539
572.500	349.645	79.998	20.008	100.299	19.543	176.119	0.541
573.000	349.858	80.000	20.008	100.291	19.537	177.947	0.464
573.501	350.146	80.000	20.008	100.285	19.534	178.783	0.458
574.001	350.427	80.001	20.008	100.276	19.528	180.662	0.535
574.500	350.719	80.000	20.008	100.269	19.524	182.173	0.571
575.000	350.946	80.000	20.008	100.270	19.519	183.566	0.546
575.500	351.195	80.001	20.008	100.279	19.513	185.402	0.497
576.000	351.414	80.001	20.008	100.286	19.511	186.106	0.472
576.500	351.684	80.000	20.008	100.288	19.506	187.543	0.479
577.000	351.942	80.002	20.008	100.288	19.501	188.993	0.508
577.500	352.210	80.000	20.008	100.280	19.497	190.218	0.527
578.000	352.453	80.000	20.008	100.272	19.496	190.731	0.519
578.500	352.707	80.000	20.007	100.265	19.491	192.085	0.504
579.000	352.923	80.000	20.008	100.268	19.487	193.380	0.483
579.500	353.194	80.000	20.008	100.276	19.484	194.333	0.479
580.000	353.383	80.001	20.008	100.284	19.484	194.292	0.474
580.500	353.642	80.001	20.007	100.286	19.480	195.565	0.454
581.000	353.941	80.001	20.008	100.287	19.479	195.843	0.503
581.500	354.150	80.000	20.008	100.282	19.476	196.687	0.533
582.000	354.455	79.999	20.008	100.279	19.472	197.947	0.511
582.500	354.675	80.001	20.008	100.278	19.468	199.296	0.520
583.000	354.924	79.999	20.008	100.284	19.465	200.242	0.497
583.501	355.201	80.000	20.007	100.295	19.463	200.721	0.497
584.000	355.403	80.000	20.008	100.303	19.461	201.379	0.503
584.500	355.707	80.002	20.008	100.304	19.458	202.284	0.493
585.001	355.902	79.999	20.008	100.298	19.456	202.751	0.503
585.501	356.221	79.999	20.008	100.292	19.453	203.849	0.506
586.000	356.463	80.002	20.008	100.289	19.451	204.508	0.538
586.500	356.699	80.000	20.008	100.288	19.447	205.763	0.520
587.000	356.939	79.999	20.008	100.291	19.445	206.156	0.477
587.500	357.191	80.001	20.008	100.306	19.441	207.501	0.484
588.000	357.452	80.000	20.008	100.316	19.439	207.989	0.503
588.500	357.680	79.999	20.008	100.316	19.436	208.855	0.501
589.000	357.910	80.001	20.008	100.311	19.434	209.688	0.473
589.500	358.206	79.999	20.008	100.303	19.432	210.244	0.492
590.000	358.442	80.001	20.008	100.295	19.429	211.032	0.529
590.500	358.670	80.000	20.007	100.292	19.429	211.257	0.498
591.000	358.917	80.000	20.007	100.295	19.428	211.637	0.469
591.500	359.175	80.001	20.008	100.302	19.427	211.885	0.490
592.000	359.442	79.999	20.008	100.307	19.427	211.878	0.515
592.500	359.656	80.000	20.008	100.307	19.418	214.383	0.503
593.000	359.912	80.001	20.009	100.303	19.418	214.380	0.476
593.500	360.199	80.001	20.009	100.294	19.418	214.390	0.507
594.000	360.441	80.000	20.008	100.291	19.418	214.658	0.536
594.500	360.703	80.000	20.008	100.291	19.415	215.501	0.516
595.000	360.979	80.001	20.008	100.292	19.414	215.824	0.521
595.500	361.204	79.999	20.008	100.296	19.412	216.365	0.520
596.000	361.477	80.001	20.008	100.299	19.412	216.494	0.500
596.500	361.742	80.000	20.009	100.295	19.409	217.332	0.518
597.000	362.013	80.001	20.008	100.287	19.407	217.776	0.537
597.500	362.243	80.001	20.008	100.279	19.408	217.700	0.518
598.000	362.504	80.000	20.008	100.273	19.408	217.427	0.496
598.500	362.760	80.001	20.008	100.274	19.407	218.022	0.504
599.000	363.017	80.000	20.007	100.283	19.404	218.910	0.515
599.500	363.266	80.000	20.008	100.291	19.402	219.316	0.510
600.000	363.547	80.000	20.008	100.299	19.402	219.565	0.518
600.500	363.783	80.002	20.008	100.304	19.400	219.996	0.523
601.000	364.047	80.001	20.008	100.299	19.398	220.680	0.508
601.500	364.295	80.000	20.008	100.288	19.397	220.898	0.506
602.000	364.540	80.002	20.008	100.283	19.396	221.376	0.503
602.500	364.788	80.000	20.008	100.285	19.396	221.377	0.493
603.000	365.030	79.999	20.008	100.293	19.393	222.281	0.492
603.500	365.259	80.002	20.008	100.305	19.393	222.159	0.481
604.000	365.480	80.000	20.009	100.313	19.390	222.962	0.460
604.500	365.780	80.000	20.008	100.317	19.392	222.325	0.485
605.000	366.027	80.001	20.008	100.307	19.391	222.711	0.534
605.500	366.244	80.001	20.009	100.293	19.392	222.319	0.505
606.000	366.501	80.001	20.008	100.282	19.391	222.809	0.469
606.500	366.766	80.000	20.008	100.281	19.390	223.211	0.498
607.000	367.009	80.001	20.008	100.282	19.390	223.217	0.515
607.500	367.267	80.001	20.008	100.294	19.388	223.787	0.505
608.001	367.502	80.001	20.008	100.303	19.386	224.291	0.497
608.500	367.730	80.000	20.009	100.305	19.383	225.167	0.478
609.000	367.984	80.002	20.009	100.298	19.385	224.660	0.473
609.500	368.259	80.000	20.008	100.290	19.387	223.963	0.506
610.000	368.513	80.001	20.008	100.280	19.385	224.579	0.529
610.500	368.764	80.000	20.008	100.277	19.383	225.280	0.517
611.000	369.013	80.001	20.008	100.280	19.383	225.308	0.503
611.500	369.256	80.001	20.008	100.288	19.382	225.588	0.496
612.000	369.513	80.001	20.009	100.300	19.380	226.234	0.496
612.500	369.783	80.001	20.008	100.305	19.380	226.063	0.513
613.000	369.987	80.000	20.009	100.306	19.380	226.042	0.501
613.500	370.247	80.002	20.008	100.305	19.381	225.763	0.469
614.000	370.545	80.001	20.008	100.303	19.382	225.640	0.511
614.500	370.752	80.002	20.009	100.299	19.383	225.400	0.532
615.000	370.952	80.000	20.008	100.301	19.384	224.907	0.456
615.500	371.200	80.001	20.008	100.301	19.386	224.452	0.427
616.000	371.464	80.001	20.009	100.303	19.387	224.009	0.480
616.500	371.746	80.000	20.009	100.301	19.386	224.173	0.529
617.000	371.951	80.001	20.008	100.291	19.391	222.621	0.517
617.500	372.213	80.000	20.009	100.276	19.389	223.522	0.477
618.000	372.459	80.003	20.009	100.269	19.388	223.665	0.487
618.500	372.668	80.001	20.008	100.267	19.387	224.130	0.482
619.000	372.934	80.000	20.009	100.272	19.389	223.359	0.465
619.500	373.159	80.000	20.008	100.281	19.391	222.761	0.483
620.000	373.428	80.001	20.009	100.295	19.395	221.517	0.492
620.500	373.654	80.002	20.007	100.301	19.397	221.017	0.495
621.000	373.933	80.001	20.010	100.294	19.401	219.779	0.500
621.500	374.183	80.000	20.009	100.289	19.402	219.389	0.517
622.000	374.490	80.001	20.009	100.288	19.403	219.046	0.543
622.500	374.717	80.001	20.008	100.287	19.409	217.327	0.546
623.000	374.951	80.000	20.009	100.284	19.413	216.068	0.497
623.500	375.153	80.001	20.008	100.290	19.418	214.467	0.448
624.000	375.394	80.000	20.009	100.288	19.422	213.232	0.439
624.500	375.625	80.001	20.008	100.286	19.428	211.298	0.458
625.000	375.914	80.001	20.009	100.285	19.433	209.785	0.496
625.500	376.167	79.999	20.009	100.289	19.438	208.337	0.531
626.000	376.420	80.000	20.008	100.291	19.442	206.992	0.524
626.500	376.661	80.001	20.008	100.297	19.445	206.066	0.500
627.000	376.911	80.001	20.009	100.300	19.449	204.862	0.492
627.500	377.175	80.001	20.009	100.303	19.452	204.192	0.502
628.000	377.335	80.000	20.008	100.300	19.454	203.343	0.469
628.500	377.674	80.001	20.010	100.291	19.460	201.574	0.462
629.000	377.908	80.001	20.009	100.287	19.464	200.374	0.536
629.500	378.133	80.001	20.008	100.282	19.466	199.670	0.516
630.000	378.429	80.001	20.008	100.275	19.471	198.174	0.489
630.500	378.665	80.001	20.010	100.281	19.477	196.466	0.526
631.000	378.891	80.000	20.008	100.304	19.481	195.313	0.497
631.500	379.126	80.001	20.008	100.318	19.486	193.606	0.462
632.000	379.400	80.000	20.008	100.324	19.489	192.716	0.485
632.500	379.665	80.000	20.009	100.326	19.494	191.309	0.524
633.000	379.985	80.001	20.009	100.315	19.499	189.671	0.562
633.500	380.162	80.001	20.009	100.297	19.502	188.648	0.541
634.000	380.424	79.999	20.007	100.288	19.511	186.008	0.468
634.500	380.697	80.002	20.009	100.288	19.516	184.538	0.487
635.000	380.951	80.000	20.009	100.294	19.521	182.951	0.531
635.500	381.175	80.002	20.008	100.302	19.530	180.134	0.503
636.000	381.417	80.000	20.008	100.305	19.534	178.797	0.472
636.500	381.659	80.001	20.009	100.296	19.540	176.952	0.475
637.000	381.950	80.000	20.008	100.285	19.546	175.222	0.508
637.500	382.197	80.001	20.009	100.272	19.553	173.025	0.536
638.000	382.444	80.001	20.008	100.268	19.559	171.315	0.516
638.500	382.685	80.000	20.008	100.263	19.563	170.180	0.491
639.000	382.977	80.002	20.008	100.265	19.566	169.029	0.510
639.500	383.189	80.001	20.008	100.268	19.573	166.950	0.519
640.000	383.466	80.001	20.008	100.272	19.577	165.887	0.497
640.500	383.701	80.002	20.009	100.268	19.583	164.018	0.501
641.000	383.978	80.002	20.009	100.265	19.589	161.907	0.512
641.500	384.222	80.001	20.008	100.265	19.592	161.253	0.516
642.000	384.507	80.000	20.008	100.271	19.597	159.595	0.524
642.500	384.746	80.002	20.008	100.279	19.601	158.284	0.526
643.000	384.993	80.000	20.008	100.286	19.606	156.796	0.505
643.500	385.248	80.001	20.008	100.294	19.607	156.540	0.494
644.000	385.457	80.001	20.008	100.301	19.612	154.882	0.483
644.500	385.747	80.000	20.008	100.297	19.616	153.845	0.482
645.000	386.008	80.000	20.008	100.289	19.620	152.506	0.525
645.500	386.244	80.001	20.008	100.286	19.623	151.485	0.524
646.000	386.511	80.001	20.008	100.287	19.626	150.584	0.500
646.500	386.761	80.001	20.008	100.287	19.629	149.745	0.510
647.000	387.033	80.001	20.008	100.293	19.632	148.811	0.519
647.500	387.249	80.001	20.008	100.302	19.635	147.885	0.505
648.000	387.514	80.001	20.008	100.306	19.639	146.683	0.485
648.500	387.737	80.001	20.009	100.297	19.642	145.766	0.485
649.000	388.008	80.000	20.009	100.289	19.647	144.358	0.491
649.500	388.243	80.000	20.008	100.286	19.651	143.062	0.500
650.000	388.499	80.001	20.008	100.287	19.654	142.026	0.498
650.500	388.746	80.000	20.008	100.287	19.659	140.672	0.497
651.000	389.013	80.001	20.008	100.296	19.659	140.475	0.508
651.500	389.281	80.001	20.008	100.303	19.664	138.914	0.524
652.000	389.542	80.002	20.008	100.305	19.668	137.675	0.532
652.500	389.768	80.003	20.008	100.299	19.674	135.921	0.508
653.000	390.017	80.000	20.008	100.291	19.679	134.324	0.481
653.500	390.329	80.001	20.008	100.282	19.681	133.745	0.518
654.000	390.554	80.001	20.008	100.275	19.685	132.632	0.549
654.500	390.803	80.000	20.008	100.275	19.689	131.417	0.505
655.000	391.019	80.001	20.008	100.280	19.690	130.950	0.470
655.500	391.276	80.000	20.008	100.287	19.695	129.645	0.470
656.000	391.534	80.002	20.008	100.294	19.698	128.682	0.494
656.500	391.782	80.001	20.008	100.296	19.705	126.333	0.510
657.000	392.051	80.000	20.008	100.288	19.709	125.169	0.511
657.500	392.329	80.001	20.008	100.280	19.712	124.348	0.532
658.000	392.527	80.002	20.008	100.273	19.716	122.916	0.512
658.500	392.795	80.000	20.008	100.267	19.723	120.928	0.471
659.000	393.042	80.002	20.008	100.271	19.728	119.374	0.490
659.500	393.269	80.002	20.008	100.278	19.732	118.297	0.495
660.000	393.526	80.000	20.008	100.286	19.735	117.357	0.479
660.500	393.757	80.001	20.008	100.291	19.739	115.991	0.486
661.001	393.992	80.000	20.008	100.290	19.745	114.343	0.477
661.501	394.275	80.002	20.008	100.283	19.747	113.590	0.492
662.000	394.508	80.000	20.009	100.273	19.748	113.151	0.517
662.500	394.785	80.002	20.008	100.264	19.754	111.532	0.512
663.000	394.983	80.001	20.008	100.261	19.758	110.316	0.492
663.500	395.235	80.001	20.007	100.270	19.759	110.029	0.463
664.000	395.496	80.000	20.008	100.277	19.764	108.465	0.482
664.500	395.752	80.002	20.008	100.283	19.768	107.239	0.515
665.000	395.979	80.000	20.008	100.282	19.769	106.734	0.500
665.500	396.278	80.002	20.008	100.274	19.774	105.167	0.504
666.000	396.509	80.002	20.008	100.258	19.779	103.753	0.528
666.500	396.749	80.002	20.008	100.247	19.785	101.974	0.500
667.000	396.993	80.001	20.008	100.243	19.789	100.588	0.477
667.500	397.245	80.002	20.008	100.251	19.794	99.076	0.490
668.000	397.517	80.001	20.008	100.265	19.795	98.981	0.510
668.500	397.746	80.001	20.008	100.278	19.801	97.074	0.513
669.000	398.005	80.001	20.008	100.281	19.804	96.121	0.495
669.500	398.289	80.000	20.008	100.273	19.805	95.895	0.516
670.000	398.504	80.002	20.008	100.260	19.810	94.111	0.521
670.500	398.765	80.001	20.009	100.246	19.818	91.797	0.487
671.000	398.984	80.002	20.008	100.240	19.822	90.634	0.478
671.500	399.224	80.002	20.008	100.242	19.826	89.460	0.470
672.000	399.530	80.001	20.008	100.253	19.830	88.065	0.502
672.500	399.742	80.002	20.008	100.263	19.831	87.875	0.532
673.000	400.014	80.002	20.008	100.274	19.839	85.289	0.501
673.500	400.272	80.001	20.008	100.275	19.841	84.610	0.507
674.000	400.502	80.002	20.008	100.274	19.847	82.831	0.509
674.500	400.786	80.001	20.008	100.267	19.850	81.859	0.501
675.000	401.049	80.001	20.008	100.264	19.855	80.541	0.530
675.500	401.263	80.002	20.008	100.264	19.858	79.401	0.512
676.000	401.536	80.000	20.008	100.272	19.865	77.451	0.482
676.500	401.759	80.002	20.008	100.282	19.867	76.802	0.491
677.000	402.067	80.002	20.008	100.293	19.871	75.516	0.513
677.500	402.290	80.000	20.008	100.298	19.876	74.107	0.531
678.000	402.537	80.001	20.008	100.293	19.878	73.492	0.501
678.500	402.779	80.003	20.008	100.282	19.882	72.165	0.479
679.000	403.027	80.001	20.009	100.269	19.885	71.371	0.489
679.500	403.221	80.000	20.008	100.260	19.889	70.051	0.467
680.000	403.446	80.001	20.008	100.254	19.891	69.376	0.431
680.500	403.703	80.001	20.008	100.258	19.896	67.903	0.450
681.000	403.911	80.001	20.008	100.267	19.901	66.213	0.473
681.500	404.140	80.000	20.007	100.273	19.904	65.524	0.451
682.000	404.380	80.000	20.008	100.272	19.909	63.802	0.454
682.500	404.623	80.002	20.008	100.266	19.912	62.813	0.476
683.000	404.852	80.001	20.008	100.257	19.913	62.761	0.477
683.500	405.070	80.000	20.008	100.249	19.917	61.534	0.460
684.000	405.333	80.001	20.008	100.254	19.920	60.366	0.464
684.500	405.593	80.001	20.008	100.259	19.924	59.308	0.502
685.000	405.861	80.001	20.007	100.265	19.927	58.401	0.525
685.500	406.067	80.000	20.008	100.270	19.931	57.159	0.501
686.000	406.311	80.002	20.008	100.270	19.935	55.988	0.462
686.500	406.590	80.001	20.008	100.256	19.934	56.159	0.486
687.000	406.845	79.999	20.008	100.245	19.938	54.907	0.528
687.500	407.105	80.002	20.009	100.237	19.941	54.004	0.525
688.000	407.351	80.002	20.008	100.233	19.944	53.199	0.510
688.500	407.539	80.001	20.007	100.234	19.947	52.170	0.470
689.000	407.794	80.000	20.008	100.242	19.949	51.483	0.438
689.500	408.089	80.002	20.008	100.250	19.953	50.469	0.496
690.000	408.323	80.001	20.008	100.254	19.954	49.953	0.539
690.500	408.535	80.001	20.008	100.250	19.958	48.855	0.488
691.000	408.782	80.001	20.008	100.243	19.959	48.672	0.453
691.500	409.068	80.001	20.008	100.235	19.965	46.826	0.496
692.000	409.263	80.002	20.008	100.230	19.964	46.930	0.507
692.500	409.596	80.001	20.008	100.233	19.968	45.711	0.504
693.000	409.817	80.001	20.008	100.241	19.969	45.333	0.541
693.500	410.043	80.001	20.008	100.248	19.972	44.567	0.501
694.000	410.337	80.002	20.008	100.249	19.974	43.809	0.484
694.500	410.562	80.000	20.008	100.246	19.977	42.994	0.520
695.000	410.850	80.001	20.008	100.238	19.979	42.363	0.517
695.500	411.049	80.001	20.008	100.231	19.982	41.474	0.500
696.000	411.264	80.000	20.007	100.232	19.987	39.910	0.450
696.500	411.540	80.000	20.007	100.238	19.988	39.575	0.453
697.000	411.838	80.000	20.008	100.246	19.991	38.763	0.533
697.500	412.054	80.000	20.008	100.254	19.995	37.412	0.544
698.000	412.280	80.001	20.008	100.254	19.994	37.921	0.478
698.500	412.554	80.000	20.008	100.246	19.999	36.409	0.471
699.000	412.811	80.002	20.008	100.238	19.999	36.346	0.515
699.500	413.035	80.000	20.008	100.231	20.004	34.749	0.506
700.000	413.322	80.000	20.008	100.229	20.002	35.335	0.496
700.501	413.546	80.001	20.008	100.236	20.005	34.429	0.511
701.000	413.806	80.000	20.008	100.244	20.006	34.111	0.497
701.500	414.057	80.000	20.008	100.247	20.010	33.033	0.497
702.000	414.283	80.001	20.008	100.247	20.011	32.701	0.495
702.500	414.531	80.001	20.008	100.242	20.015	31.340	0.476
703.000	414.762	80.001	20.008	100.233	20.013	32.022	0.476
703.500	415.000	80.000	20.008	100.226	20.016	31.155	0.474
704.000	415.234	80.000	20.008	100.224	20.018	30.313	0.471
704.500	415.535	80.000	20.008	100.224	20.015	31.220	0.504
705.000	415.749	80.000	20.008	100.224	20.017	30.816	0.525
705.500	416.007	80.001	20.008	100.222	20.020	29.892	0.493
706.000	416.280	80.001	20.008	100.218	20.021	29.546	0.501
706.500	416.513	80.001	20.008	100.214	20.022	29.170	0.519
707.000	416.732	80.000	20.008	100.212	20.022	29.131	0.479
707.500	417.022	80.001	20.008	100.216	20.025	28.185	0.480
708.000	417.236	79.999	20.008	100.226	20.027	27.654	0.507
708.500	417.526	80.001	20.008	100.237	20.029	26.967	0.504
709.000	417.788	80.000	20.008	100.248	20.029	27.127	0.528
709.500	418.002	80.000	20.007	100.251	20.030	26.614	0.513
710.000	418.265	80.001	20.008	100.248	20.034	25.533	0.476
710.500	418.466	80.001	20.008	100.238	20.034	25.496	0.471
711.000	418.751	80.000	20.008	100.231	20.034	25.447	0.475
711.500	419.065	80.001	20.008	100.225	20.034	25.391	0.542
712.000	419.285	80.001	20.008	100.230	20.035	25.314	0.566
712.500	419.558	80.000	20.008	100.238	20.034	25.463	0.514
713.000	419.768	80.000	20.008	100.248	20.034	25.430	0.488
713.500	420.012	80.001	20.008	100.251	20.037	24.619	0.469
714.000	420.282	80.001	20.007	100.250	20.037	24.588	0.484
714.500	420.550	80.002	20.008	100.243	20.038	24.460	0.526
715.000	420.820	80.001	20.008	100.236	20.037	24.741	0.538
715.500	421.039	79.999	20.008	100.236	20.037	24.735	0.513
716.000	421.235	80.000	20.008	100.241	20.039	23.904	0.452
716.500	421.496	80.001	20.008	100.247	20.039	23.896	0.436
717.000	421.783	80.001	20.008	100.248	20.040	23.752	0.502
717.500	422.001	80.001	20.008	100.247	20.040	23.803	0.527
718.000	422.207	80.000	20.008	100.239	20.042	23.059	0.465
718.500	422.485	80.001	20.008	100.227	20.042	22.938	0.454
719.000	422.731	80.001	20.008	100.217	20.045	22.182	0.503
719.500	423.019	80.001	20.008	100.216	20.043	22.741	0.529
720.000	423.240	80.000	20.008	100.216	20.046	21.898	0.522
720.500	423.465	80.000	20.007	100.216	20.044	22.537	0.478
721.000	423.700	80.002	20.008	100.216	20.045	22.180	0.453
721.500	423.945	80.002	20.007	100.213	20.045	22.063	0.470
722.000	424.155	80.000	20.008	100.206	20.045	22.063	0.467
722.500	424.392	80.001	20.008	100.203	20.044	22.414	0.451
723.000	424.614	80.000	20.007	100.204	20.046	21.847	0.453
723.500	424.939	80.001	20.008	100.211	20.049	20.831	0.503
724.000	425.154	80.002	20.008	100.223	20.049	21.057	0.544
724.500	425.409	80.002	20.007	100.232	20.050	20.537	0.506
725.000	425.613	80.000	20.007	100.236	20.052	20.121	0.464
725.500	425.864	80.002	20.008	100.236	20.049	20.851	0.457
726.000	426.158	80.002	20.008	100.232	20.050	20.547	0.500
726.501	426.418	80.001	20.007	100.228	20.050	20.677	0.549
727.000	426.651	80.003	20.008	100.233	20.053	19.829	0.523
727.500	426.891	80.002	20.007	100.240	20.053	19.726	0.483
728.000	427.116	80.001	20.008	100.248	20.052	19.913	0.470
728.500	427.317	80.002	20.007	100.251	20.053	19.600	0.446
729.000	427.586	80.002	20.008	100.247	20.050	20.494	0.448
729.500	427.832	80.001	20.008	100.239	20.051	20.410	0.492
730.000	428.103	80.001	20.008	100.232	20.051	20.191	0.516
730.500	428.351	80.001	20.008	100.231	20.054	19.480	0.518
731.000	428.577	80.002	20.008	100.235	20.055	18.975	0.496
731.500	428.798	80.001	20.008	100.244	20.056	18.936	0.460
732.000	429.081	80.002	20.008	100.253	20.058	18.260	0.475
732.501	429.315	80.002	20.008	100.260	20.055	18.959	0.511
733.000	429.598	80.001	20.008	100.256	20.058	18.129	0.517
733.500	429.776	80.001	20.008	100.248	20.058	18.109	0.489
734.000	430.097	80.002	20.008	100.242	20.060	17.682	0.480
734.500	430.302	80.001	20.007	100.242	20.060	17.443	0.512
735.000	430.571	80.001	20.008	100.242	20.060	17.572	0.500
735.500	430.799	80.001	20.008	100.248	20.062	16.936	0.486
736.000	431.070	80.001	20.008	100.260	20.061	17.317	0.498
736.500	431.300	80.001	20.007	100.267	20.059	17.815	0.500
737.000	431.561	80.001	20.008	100.264	20.061	17.181	0.496
737.500	431.792	80.001	20.007	100.258	20.059	17.947	0.492
738.000	431.988	80.001	20.009	100.249	20.060	17.520	0.459
738.500	432.240	80.001	20.008	100.242	20.059	18.006	0.438
739.000	432.480	80.001	20.008	100.241	20.061	17.371	0.470
739.500	432.730	80.002	20.008	100.245	20.059	17.966	0.490
740.000	432.978	80.001	20.008	100.250	20.059	17.810	0.494
740.500	433.266	80.002	20.008	100.250	20.059	17.979	0.517
741.000	433.508	80.000	20.008	100.247	20.060	17.423	0.533
741.500	433.743	80.001	20.008	100.240	20.059	17.877	0.504
742.000	433.967	80.000	20.008	100.238	20.062	16.911	0.468
742.500	434.211	80.001	20.007	100.239	20.061	17.410	0.463
743.000	434.445	80.000	20.008	100.247	20.060	17.700	0.473
743.500	434.672	80.001	20.008	100.253	20.060	17.479	0.469
744.000	434.905	80.000	20.008	100.259	20.062	17.051	0.461
744.500	435.184	80.001	20.008	100.254	20.061	17.369	0.486
745.000	435.403	80.001	20.008	100.246	20.062	16.891	0.505
745.500	435.614	80.002	20.008	100.238	20.062	16.911	0.464
746.000	435.874	80.000	20.008	100.237	20.060	17.572	0.450
746.500	436.158	80.001	20.008	100.236	20.060	17.533	0.507
747.000	436.361	80.000	20.008	100.240	20.061	17.292	0.516
747.500	436.592	80.001	20.008	100.240	20.061	17.116	0.461
748.000	436.887	80.001	20.008	100.239	20.062	16.811	0.480
748.500	437.121	80.000	20.008	100.231	20.064	16.403	0.527
749.000	437.363	80.001	20.008	100.227	20.063	16.572	0.502
749.500	437.607	80.000	20.008	100.221	20.064	16.222	0.481
750.000	437.869	80.001	20.008	100.227	20.063	16.682	0.496
750.500	438.114	80.001	20.008	100.235	20.065	15.904	0.506
751.000	438.380	80.000	20.008	100.238	20.064	16.382	0.509
751.500	438.586	80.000	20.008	100.239	20.063	16.765	0.491
752.000	438.893	80.002	20.008	100.240	20.064	16.216	0.493
752.500	439.129	80.001	20.009	100.233	20.061	17.248	0.528
753.000	439.347	80.000	20.008	100.227	20.064	16.491	0.498
753.500	439.573	80.001	20.008	100.229	20.063	16.647	0.449
754.000	439.783	80.000	20.008	100.236	20.064	16.484	0.440
754.500	440.116	80.000	20.008	100.239	20.063	16.747	0.490
755.000	440.353	80.000	20.008	100.240	20.065	16.183	0.556
755.500	440.564	80.001	20.008	100.239	20.063	16.494	0.509
756.000	440.803	80.001	20.008	100.232	20.062	17.072	0.449
756.500	441.067	80.001	20.008	100.225	20.065	16.140	0.477
757.000	441.278	80.000	20.008	100.222	20.063	16.749	0.489
757.500	441.553	80.002	20.007	100.227	20.065	15.952	0.480
758.000	441.809	79.999	20.008	100.232	20.066	15.874	0.509
758.500	442.048	80.001	20.008	100.236	20.063	16.753	0.513
759.000	442.354	80.000	20.008	100.236	20.066	15.599	0.520
759.500	442.540	80.001	20.008	100.236	20.064	16.403	0.518
760.000	442.815	80.000	20.008	100.230	20.062	16.942	0.477
760.500	443.057	80.000	20.008	100.225	20.065	16.178	0.489
761.000	443.328	80.001	20.008	100.223	20.066	15.764	0.515
761.500	443.518	80.001	20.008	100.225	20.065	15.905	0.487
762.000	443.755	80.001	20.008	100.226	20.066	15.710	0.444
762.500	444.013	80.001	20.008	100.226	20.066	15.625	0.461
763.000	444.261	80.000	20.008	100.223	20.063	16.571	0.500
763.500	444.551	80.001	20.009	100.218	20.061	17.193	0.522
764.000	444.765	80.000	20.008	100.214	20.064	16.442	0.521
764.500	445.010	80.001	20.008	100.220	20.066	15.820	0.481
765.000	445.283	80.000	20.008	100.227	20.064	16.189	0.488
765.500	445.528	80.000	20.008	100.237	20.061	17.244	0.518
766.000	445.793	80.002	20.008	100.246	20.066	15.850	0.515
766.500	446.066	80.000	20.008	100.248	20.064	16.453	0.524
767.000	446.310	80.001	20.008	100.240	20.066	15.630	0.527
767.500	446.479	80.001	20.008	100.228	20.065	15.884	0.465
768.000	446.785	80.001	20.008	100.221	20.065	15.897	0.444
768.500	446.988	80.000	20.008	100.222	20.064	16.409	0.492
769.000	447.244	80.000	20.008	100.230	20.063	16.675	0.484
769.500	447.513	80.001	20.008	100.235	20.066	15.760	0.492
770.000	447.735	80.000	20.008	100.240	20.066	15.836	0.508
770.500	447.978	80.001	20.008	100.239	20.065	16.089	0.477
771.000	448.249	80.000	20.008	100.233	20.065	16.024	0.489
771.500	448.507	80.001	20.008	100.222	20.067	15.390	0.522
772.000	448.731	80.000	20.008	100.218	20.066	15.793	0.506
772.500	448.997	80.000	20.008	100.224	20.066	15.846	0.486
773.000	449.279	80.001	20.007	100.231	20.066	15.715	0.519
773.500	449.563	80.000	20.008	100.233	20.065	16.102	0.557
774.000	449.808	80.001	20.008	100.234	20.065	16.069	0.547
774.500	449.969	80.002	20.008	100.229	20.067	15.564	0.468
775.000	450.247	80.001	20.008	100.222	20.065	16.173	0.423
775.500	450.476	80.000	20.008	100.216	20.066	15.798	0.473
776.000	450.739	80.001	20.008	100.216	20.066	15.787	0.499
776.500	450.974	80.001	20.008	100.218	20.068	15.223	0.495
777.000	451.252	80.001	20.008	100.223	20.065	16.058	0.506
777.500	451.547	80.000	20.008	100.224	20.068	15.138	0.543
778.000	451.803	80.001	20.008	100.219	20.067	15.520	0.562
778.500	452.053	80.001	20.008	100.213	20.068	15.125	0.529
779.000	452.289	80.000	20.008	100.210	20.068	15.203	0.496
779.500	452.496	80.001	20.008	100.209	20.070	14.427	0.464
780.000	452.754	80.001	20.008	100.209	20.068	15.095	0.454
780.500	452.975	80.001	20.008	100.214	20.067	15.489	0.472
781.000	453.298	80.001	20.008	100.220	20.067	15.378	0.512
781.500	453.463	80.001	20.008	100.222	20.064	16.356	0.516
782.000	453.789	80.001	20.008	100.219	20.067	15.372	0.489
782.500	453.959	80.001	20.008	100.211	20.068	15.204	0.494
783.000	454.277	80.001	20.008	100.203	20.069	14.842	0.492
783.500	454.480	80.000	20.008	100.201	20.066	15.822	0.504
784.000	454.738	80.001	20.008	100.203	20.066	15.614	0.491
784.500	455.024	80.000	20.009	100.207	20.066	15.588	0.502
785.000	455.219	80.000	20.009	100.216	20.068	15.147	0.513
785.500	455.513	80.001	20.008	100.220	20.066	15.593	0.485
786.000	455.747	80.001	20.008	100.214	20.069	14.855	0.508
786.500	455.957	80.000	20.008	100.204	20.066	15.834	0.486
787.000	456.230	80.002	20.009	100.199	20.067	15.426	0.463
787.500	456.493	80.000	20.008	100.198	20.068	15.103	0.510
788.000	456.755	80.000	20.008	100.202	20.069	14.948	0.531
788.500	456.982	80.000	20.007	100.209	20.069	14.668	0.507
789.000	457.261	80.002	20.008	100.218	20.069	14.933	0.498
789.501	457.489	80.000	20.008	100.216	20.068	15.055	0.506
790.001	457.743	80.000	20.008	100.212	20.067	15.425	0.494
790.500	457.995	80.001	20.008	100.208	20.069	14.940	0.494
791.000	458.242	79.999	20.008	100.208	20.067	15.272	0.503
791.500	458.531	80.002	20.008	100.208	20.065	15.939	0.518
792.000	458.734	80.001	20.008	100.214	20.067	15.510	0.514
792.500	459.026	80.000	20.008	100.220	20.069	14.951	0.493
793.000	459.273	80.001	20.008	100.223	20.069	14.878	0.517
793.500	459.512	80.001	20.008	100.217	20.067	15.319	0.513
794.000	459.734	80.001	20.009	100.213	20.068	15.144	0.473
794.500	460.018	80.001	20.008	100.213	20.069	14.705	0.483
795.000	460.274	80.001	20.008	100.214	20.067	15.477	0.523
795.500	460.500	80.001	20.008	100.217	20.066	15.633	0.511
796.000	460.769	80.000	20.008	100.225	20.068	15.185	0.489
796.500	460.976	80.000	20.008	100.232	20.067	15.495	0.486
797.000	461.262	80.001	20.008	100.231	20.067	15.560	0.484
797.500	461.430	80.000	20.008	100.229	20.066	15.709	0.473
798.000	461.728	80.001	20.008	100.225	20.068	15.186	0.460
798.500	461.983	80.001	20.008	100.221	20.067	15.284	0.510
799.000	462.235	80.000	20.008	100.221	20.069	14.941	0.530
799.500	462.445	80.001	20.008	100.226	20.067	15.556	0.484
800.000	462.759	80.001	20.008	100.231	20.068	15.024	0.493
800.500	462.990	80.001	20.008	100.236	20.069	14.874	0.535
801.000	463.207	80.001	20.008	100.236	20.067	15.457	0.497
801.500	463.479	80.001	20.008	100.229	20.072	13.942	0.468
802.000	463.707	80.000	20.008	100.224	20.071	14.319	0.494
802.500	463.962	80.000	20.008	100.219	20.069	14.909	0.491
803.000	464.215	80.000	20.008	100.220	20.070	14.533	0.496
803.500	464.484	80.000	20.008	100.229	20.067	15.270	0.515
804.000	464.699	80.000	20.008	100.236	20.066	15.799	0.503
804.500	464.983	80.001	20.008	100.236	20.068	15.014	0.492
805.001	465.234	80.001	20.008	100.229	20.068	15.098	0.517
805.500	465.446	80.000	20.009	100.216	20.069	14.652	0.499
806.000	465.710	80.001	20.008	100.207	20.068	14.990	0.470
806.501	465.910	80.001	20.008	100.205	20.070	14.440	0.470
807.000	466.179	80.001	20.008	100.208	20.066	15.690	0.467
807.500	466.462	80.000	20.008	100.216	20.068	15.164	0.510
808.000	466.660	80.000	20.008	100.225	20.067	15.267	0.516
808.500	466.956	80.002	20.008	100.225	20.069	14.852	0.487
809.000	467.203	80.001	20.008	100.220	20.068	15.001	0.519
809.500	467.451	80.001	20.008	100.216	20.069	14.827	0.519
810.000	467.660	80.002	20.008	100.216	20.067	15.470	0.476
810.501	467.966	79.999	20.008	100.218	20.068	15.004	0.486
811.000	468.197	80.001	20.008	100.224	20.070	14.589	0.526
811.500	468.463	80.000	20.008	100.234	20.067	15.307	0.517
812.000	468.702	80.002	20.008	100.237	20.069	14.859	0.502
812.500	468.926	80.001	20.008	100.233	20.068	15.125	0.484
813.000	469.183	80.001	20.008	100.229	20.069	14.679	0.472
813.500	469.418	80.001	20.008	100.223	20.070	14.538	0.487
814.000	469.681	80.001	20.008	100.218	20.068	15.149	0.495
814.500	469.944	80.001	20.008	100.225	20.068	15.170	0.512
815.000	470.202	80.001	20.008	100.234	20.068	15.221	0.523
815.500	470.461	80.001	20.008	100.238	20.070	14.650	0.519
816.000	470.706	80.001	20.009	100.234	20.066	15.659	0.511
816.500	470.915	80.001	20.008	100.226	20.070	14.518	0.480
817.001	471.226	80.002	20.009	100.213	20.070	14.589	0.487
817.501	471.484	80.001	20.009	100.204	20.070	14.441	0.544
818.000	471.702	79.999	20.008	100.203	20.070	14.585	0.522
818.500	471.954	80.000	20.008	100.208	20.071	14.216	0.473
819.000	472.226	80.001	20.008	100.215	20.069	14.689	0.497
819.501	472.447	80.001	20.008	100.220	20.068	15.078	0.509
820.000	472.703	80.001	20.008	100.217	20.070	14.370	0.485
820.500	472.897	80.000	20.008	100.209	20.070	14.408	0.464
821.000	473.169	80.001	20.008	100.205	20.069	14.952	0.458
821.500	473.435	80.000	20.008	100.204	20.072	13.981	0.502
822.000	473.664	80.001	20.008	100.204	20.069	14.765	0.517
822.500	473.946	80.000	20.008	100.211	20.070	14.474	0.503
823.000	474.160	80.001	20.008	100.219	20.069	14.771	0.503
823.500	474.397	80.000	20.008	100.222	20.070	14.414	0.473
824.000	474.611	80.000	20.008	100.222	20.070	14.569	0.451
824.500	474.926	80.002	20.008	100.215	20.070	14.374	0.490
825.000	475.137	80.001	20.008	100.210	20.067	15.334	0.528
825.500	475.399	80.002	20.008	100.209	20.067	15.426	0.499
826.000	475.630	80.002	20.008	100.216	20.067	15.317	0.483
826.500	475.869	80.000	20.008	100.225	20.068	15.038	0.482
827.000	476.112	80.000	20.008	100.240	20.066	15.777	0.476
827.500	476.383	80.000	20.008	100.247	20.068	15.186	0.498
828.000	476.626	80.001	20.008	100.247	20.069	14.679	0.514
828.500	476.864	80.001	20.008	100.240	20.070	14.581	0.497
829.000	477.126	80.000	20.008	100.231	20.066	15.663	0.490
829.500	477.375	80.001	20.008	100.222	20.068	14.997	0.505
830.000	477.590	80.000	20.007	100.220	20.069	14.752	0.488
830.500	477.842	80.002	20.008	100.226	20.068	15.129	0.466
831.000	478.047	80.000	20.008	100.235	20.068	15.116	0.462
831.500	478.346	80.000	20.008	100.240	20.068	15.225	0.480
832.000	478.584	80.001	20.008	100.241	20.069	14.777	0.520
832.500	478.784	80.002	20.008	100.239	20.071	14.140	0.487
833.001	479.096	80.000	20.008	100.233	20.070	14.560	0.474
833.500	479.375	80.001	20.008	100.225	20.070	14.502	0.552
834.000	479.547	79.999	20.008	100.221	20.068	15.105	0.522
834.500	479.830	80.000	20.008	100.226	20.070	14.439	0.453
835.000	480.093	80.001	20.008	100.230	20.069	14.873	0.500
835.500	480.322	80.001	20.008	100.231	20.068	15.137	0.518
836.001	480.573	80.001	20.008	100.227	20.068	15.091	0.486
836.500	480.800	80.001	20.008	100.221	20.069	14.714	0.479
837.000	481.051	80.000	20.008	100.215	20.070	14.532	0.478
837.500	481.308	80.001	20.008	100.214	20.070	14.617	0.494
838.000	481.544	80.000	20.008	100.218	20.070	14.392	0.501
838.500	481.769	80.000	20.008	100.229	20.072	13.953	0.477
839.000	482.018	80.000	20.008	100.236	20.072	14.038	0.467
839.501	482.246	80.002	20.008	100.236	20.067	15.371	0.476
840.000	482.509	80.001	20.008	100.234	20.071	14.314	0.484
840.500	482.745	80.001	20.008	100.225	20.072	13.814	0.495
841.000	482.976	80.001	20.008	100.215	20.069	14.766	0.483
841.500	483.259	80.001	20.008	100.213	20.070	14.372	0.491
842.000	483.458	80.000	20.008	100.213	20.069	14.775	0.498
842.500	483.754	80.001	20.008	100.219	20.068	14.997	0.488
843.000	483.972	80.000	20.008	100.229	20.069	14.946	0.504
843.500	484.193	80.000	20.008	100.236	20.070	14.460	0.476
844.000	484.479	80.000	20.008	100.236	20.069	14.654	0.473
844.500	484.720	80.001	20.008	100.231	20.072	13.862	0.517
845.000	484.941	80.000	20.008	100.219	20.070	14.632	0.494
845.500	485.175	80.002	20.008	100.209	20.074	13.272	0.459
846.000	485.434	80.001	20.008	100.202	20.068	15.041	0.474
846.500	485.683	80.001	20.008	100.203	20.072	13.850	0.501
847.000	485.953	80.001	20.008	100.209	20.069	14.753	0.514
847.500	486.174	80.000	20.008	100.213	20.068	15.265	0.505
848.000	486.427	80.001	20.008	100.211	20.068	15.239	0.482
848.500	486.670	80.001	20.008	100.206	20.070	14.468	0.485
849.000	486.953	80.002	20.007	100.197	20.071	14.123	0.511
849.500	487.172	80.001	20.008	100.189	20.069	14.835	0.514
850.000	487.418	80.001	20.008	100.188	20.071	14.317	0.484
850.500	487.670	80.000	20.008	100.194	20.069	14.668	0.481
851.000	487.913	80.000	20.008	100.203	20.070	14.390	0.497
851.500	488.189	80.001	20.008	100.212	20.068	15.064	0.507
852.000	488.385	80.000	20.008	100.215	20.070	14.570	0.495
852.500	488.689	80.000	20.008	100.211	20.071	14.167	0.486
853.000	488.881	80.001	20.008	100.203	20.071	14.191	0.498
853.500	489.152	80.002	20.008	100.194	20.070	14.521	0.480
854.000	489.347	80.000	20.008	100.193	20.072	13.919	0.464
854.500	489.649	80.000	20.008	100.197	20.073	13.609	0.481
855.000	489.918	80.001	20.008	100.209	20.071	14.290	0.534
855.500	490.141	80.001	20.008	100.217	20.070	14.439	0.531
856.000	490.427	80.000	20.008	100.225	20.071	14.153	0.501
856.500	490.699	80.000	20.008	100.225	20.071	14.326	0.534
857.000	490.898	80.001	20.008	100.221	20.071	14.261	0.515
857.500	491.126	80.001	20.008	100.208	20.071	14.126	0.449
858.000	491.382	80.001	20.008	100.207	20.071	14.317	0.455
858.500	491.619	80.001	20.008	100.207	20.071	14.111	0.488
859.000	491.876	80.000	20.007	100.209	20.072	13.801	0.493
859.500	492.162	80.001	20.008	100.220	20.073	13.483	0.518
860.000	492.340	80.001	20.008	100.235	20.070	14.408	0.503
860.500	492.658	80.001	20.008	100.237	20.070	14.638	0.480
861.000	492.904	80.001	20.008	100.237	20.070	14.390	0.530
861.500	493.207	80.001	20.008	100.235	20.072	13.976	0.557
862.000	493.397	80.001	20.008	100.226	20.073	13.608	0.521
862.500	493.693	80.002	20.008	100.219	20.072	13.921	0.489
863.000	493.909	80.000	20.008	100.224	20.071	14.050	0.499
863.500	494.171	80.001	20.008	100.229	20.071	14.153	0.495
864.000	494.395	80.000	20.008	100.231	20.071	14.304	0.482
864.500	494.669	80.000	20.008	100.232	20.074	13.274	0.492
865.000	494.960	80.002	20.008	100.225	20.072	13.892	0.531
865.500	495.161	80.000	20.008	100.212	20.072	13.853	0.528
866.001	495.401	80.001	20.008	100.201	20.071	14.321	0.467
866.500	495.667	80.001	20.008	100.200	20.069	14.830	0.474
867.000	495.898	80.000	20.008	100.201	20.068	15.103	0.502
867.500	496.151	80.000	20.007	100.209	20.071	14.238	0.490
868.000	496.412	80.002	20.007	100.216	20.069	14.793	0.499
868.500	496.648	79.999	20.008	100.215	20.070	14.591	0.505
869.000	496.925	80.002	20.007	100.206	20.070	14.517	0.505
869.500	497.186	80.001	20.008	100.197	20.069	14.758	0.526
870.000	497.438	80.001	20.009	100.190	20.070	14.616	0.526
870.501	497.706	79.999	20.007	100.197	20.066	15.769	0.516
871.001	497.951	80.001	20.007	100.220	20.067	15.362	0.516
871.500	498.183	80.000	20.008	100.233	20.067	15.572	0.495
872.000	498.400	79.999	20.008	100.237	20.067	15.420	0.463
872.500	498.724	80.001	20.008	100.237	20.070	14.582	0.495
873.000	498.948	80.001	20.008	100.221	20.068	15.222	0.544
873.500	499.234	80.001	20.008	100.199	20.068	15.046	0.529
874.000	499.449	80.001	20.008	100.187	20.069	14.703	0.506
874.500	499.691	80.001	20.008	100.191	20.066	15.676	0.479
875.000	499.956	80.000	20.007	100.202	20.068	15.258	0.482
875.500	500.211	80.002	20.007	100.213	20.063	16.505	0.513
876.000	500.490	79.999	20.011	100.214	20.065	16.169	0.527
876.500	500.714	80.003	20.004	100.250	20.067	15.508	0.518
877.001	500.965	80.001	20.012	100.221	20.064	16.413	0.489
877.500	501.238	80.002	20.009	100.176	20.064	16.411	0.500
878.000	501.462	80.001	20.008	100.150	20.065	16.176	0.510
878.500	501.697	80.001	20.007	100.146	20.066	15.839	0.478
879.000	501.958	80.002	20.008	100.116	20.066	15.846	0.478
879.500	502.199	80.001	20.008	100.144	20.069	14.804	0.499
880.000	502.478	80.001	20.007	100.190	20.068	15.108	0.511
880.500	502.754	80.001	20.011	100.215	20.069	14.822	0.538
881.000	503.000	80.000	20.007	100.246	20.069	14.796	0.538
881.500	503.239	80.000	20.007	100.278	20.071	14.276	0.504
882.000	503.449	80.002	20.008	100.302	20.069	14.775	0.467
882.500	503.740	80.001	20.008	100.312	20.070	14.633	0.474
883.000	503.927	80.000	20.007	100.319	20.070	14.576	0.489
883.500	504.206	80.001	20.007	100.307	20.069	14.888	0.473
884.000	504.448	80.001	20.008	100.277	20.072	13.936	0.494
884.500	504.712	80.001	20.008	100.253	20.070	14.428	0.513
885.000	504.978	80.002	20.008	100.233	20.071	14.117	0.517
885.500	505.214	80.000	20.007	100.220	20.071	14.337	0.516
886.000	505.498	80.002	20.008	100.206	20.070	14.453	0.511
886.500	505.693	80.001	20.008	100.198	20.071	14.311	0.500
887.000	505.944	80.001	20.007	100.201	20.069	14.914	0.462
887.501	506.159	79.999	20.008	100.215	20.070	14.596	0.456
888.000	506.446	80.002	20.007	100.232	20.068	15.030	0.484
888.500	506.688	80.002	20.008	100.248	20.068	15.042	0.515
889.000	506.927	80.001	20.007	100.258	20.071	14.263	0.505
889.500	507.191	80.001	20.008	100.255	20.069	14.728	0.492
890.000	507.415	79.999	20.008	100.244	20.069	14.942	0.496
890.500	507.698	80.000	20.008	100.232	20.070	14.398	0.498
891.000	507.970	80.001	20.008	100.222	20.070	14.626	0.531
891.500	508.153	80.001	20.007	100.220	20.071	14.290	0.505
892.000	508.471	80.000	20.007	100.224	20.070	14.356	0.478
892.500	508.722	80.000	20.008	100.227	20.070	14.401	0.535
893.000	508.905	80.000	20.007	100.229	20.072	14.030	0.501
893.500	509.184	80.000	20.007	100.222	20.070	14.496	0.448
894.000	509.448	80.000	20.008	100.218	20.068	15.228	0.503
894.501	509.665	80.000	20.008	100.210	20.070	14.632	0.512
895.000	509.946	80.000	20.007	100.209	20.071	14.193	0.489
895.500	510.223	80.001	20.008	100.214	20.072	13.805	0.528
896.000	510.446	80.000	20.007	100.223	20.070	14.466	0.529
896.500	510.700	80.001	20.007	100.226	20.071	14.220	0.489
897.000	510.965	80.001	20.008	100.232	20.073	13.683	0.498
897.500	511.180	80.001	20.008	100.231	20.071	14.312	0.499
898.000	511.480	80.000	20.008	100.225	20.071	14.190	0.497
898.500	511.686	80.002	20.008	100.223	20.072	13.866	0.511
899.000	511.917	80.001	20.008	100.223	20.071	14.047	0.472
899.501	512.189	80.001	20.007	100.224	20.071	14.079	0.470
900.000	512.459	80.002	20.007	100.226	20.072	14.039	0.523
900.500	512.721	80.001	20.008	100.226	20.072	13.973	0.537
901.001	512.919	80.001	20.008	100.223	20.071	14.115	0.496
901.500	513.185	80.001	20.008	100.215	20.069	14.852	0.462
902.000	513.401	80.002	20.008	100.205	20.069	14.663	0.473
902.500	513.632	80.003	20.008	100.200	20.067	15.349	0.465
903.000	513.850	80.001	20.007	100.199	20.070	14.579	0.448
903.500	514.139	80.002	20.008	100.202	20.067	15.565	0.477
904.000	514.384	80.001	20.008	100.210	20.067	15.333	0.520
904.500	514.646	80.000	20.008	100.217	20.066	15.839	0.521
905.000	514.930	80.002	20.007	100.221	20.066	15.709	0.526
905.500	515.149	80.001	20.008	100.217	20.070	14.600	0.524
906.001	515.382	80.002	20.008	100.210	20.070	14.638	0.478
906.501	515.639	80.000	20.008	100.206	20.069	14.949	0.471
907.001	515.895	80.001	20.008	100.208	20.070	14.446	0.502
907.501	516.110	80.002	20.008	100.208	20.072	13.819	0.492
908.001	516.370	80.000	20.008	100.213	20.069	14.670	0.473
908.501	516.599	80.002	20.008	100.220	20.070	14.439	0.482
909.000	516.885	80.001	20.008	100.221	20.069	14.679	0.502
909.500	517.141	80.001	20.008	100.220	20.069	14.866	0.529
910.000	517.383	80.001	20.008	100.225	20.070	14.471	0.520
910.500	517.587	80.000	20.008	100.234	20.069	14.931	0.471
911.000	517.876	80.001	20.007	100.236	20.069	14.822	0.469
911.500	518.090	80.002	20.008	100.236	20.067	15.310	0.498
912.000	518.397	80.002	20.008	100.237	20.068	15.039	0.512
912.500	518.629	80.001	20.008	100.232	20.068	15.143	0.530
913.001	518.879	80.002	20.008	100.224	20.068	15.181	0.511
913.501	519.113	80.000	20.008	100.217	20.067	15.544	0.483
914.000	519.370	80.002	20.008	100.210	20.068	15.200	0.487
914.500	519.603	80.001	20.008	100.201	20.069	14.739	0.490
915.000	519.891	80.001	20.008	100.195	20.070	14.622	0.506
915.500	520.134	80.002	20.008	100.194	20.069	14.895	0.526
916.000	520.386	80.001	20.008	100.199	20.069	14.675	0.513
916.500	520.595	80.001	20.008	100.206	20.071	14.143	0.478
917.000	520.856	80.001	20.008	100.216	20.072	13.929	0.466
917.500	521.047	80.002	20.008	100.221	20.069	14.706	0.461
918.000	521.314	80.002	20.008	100.218	20.074	13.208	0.455
918.500	521.546	80.001	20.008	100.210	20.072	13.837	0.479
919.000	521.790	80.000	20.008	100.205	20.073	13.448	0.488
919.500	522.022	80.001	20.008	100.206	20.076	12.775	0.476
920.000	522.270	80.002	20.008	100.215	20.074	13.334	0.478
920.500	522.458	80.001	20.008	100.227	20.074	13.191	0.458
921.000	522.731	80.002	20.007	100.243	20.075	12.996	0.449
921.500	522.973	80.001	20.008	100.256	20.073	13.722	0.488
922.000	523.206	80.000	20.008	100.258	20.075	12.917	0.495
922.500	523.428	80.003	20.007	100.257	20.075	13.040	0.465
923.000	523.659	80.000	20.008	100.254	20.077	12.309	0.454
923.501	523.938	80.002	20.008	100.256	20.077	12.465	0.482
924.000	524.131	80.001	20.008	100.262	20.075	12.978	0.491
924.500	524.386	80.002	20.008	100.276	20.077	12.461	0.460
925.000	524.649	80.001	20.008	100.282	20.077	12.312	0.483
925.500	524.878	80.001	20.008	100.285	20.078	12.026	0.505
926.000	525.099	80.000	20.009	100.283	20.078	12.005	0.471
926.501	525.365	80.001	20.007	100.279	20.078	11.940	0.468
927.001	525.586	80.002	20.008	100.278	20.079	11.887	0.487
927.501	525.833	80.001	20.008	100.272	20.080	11.342	0.477
928.000	526.017	80.002	20.008	100.270	20.079	11.667	0.449
928.500	526.295	80.001	20.008	100.274	20.078	11.946	0.447
929.000	526.519	80.001	20.008	100.277	20.078	11.945	0.482
929.500	526.734	80.002	20.008	100.271	20.076	12.651	0.470
930.000	527.006	80.000	20.008	100.271	20.078	12.112	0.463
930.500	527.265	80.001	20.008	100.268	20.077	12.214	0.509
931.000	527.483	80.001	20.007	100.264	20.078	12.066	0.505
931.500	527.715	80.000	20.008	100.261	20.080	11.497	0.464
932.000	527.992	80.001	20.008	100.263	20.080	11.441	0.480
932.500	528.214	80.000	20.007	100.270	20.077	12.349	0.504
933.000	528.442	80.001	20.007	100.280	20.077	12.304	0.474
933.500	528.661	80.002	20.008	100.279	20.078	11.991	0.448
934.000	528.933	80.000	20.008	100.279	20.078	12.002	0.469
934.500	529.215	80.003	20.008	100.276	20.076	12.611	0.522
935.000	529.400	80.002	20.008	100.270	20.074	13.182	0.510
935.501	529.703	80.000	20.008	100.266	20.076	12.554	0.478
936.001	529.922	80.001	20.008	100.276	20.078	11.960	0.505
936.500	530.180	80.002	20.008	100.284	20.077	12.260	0.499
937.000	530.335	80.001	20.008	100.291	20.081	11.029	0.445
937.500	530.592	80.002	20.008	100.298	20.078	12.007	0.413
938.000	530.835	80.000	20.008	100.300	20.078	11.928	0.457
938.500	531.041	80.001	20.008	100.293	20.080	11.519	0.475
939.000	531.329	80.001	20.008	100.286	20.080	11.323	0.471
939.500	531.589	80.000	20.008	100.278	20.083	10.519	0.521
940.000	531.825	80.002	20.008	100.269	20.082	10.946	0.522
940.500	532.049	80.000	20.008	100.270	20.082	10.893	0.478
941.000	532.324	80.001	20.008	100.277	20.082	10.827	0.479
941.500	532.542	80.001	20.007	100.277	20.080	11.449	0.496
942.000	532.775	80.002	20.009	100.272	20.080	11.344	0.472
942.500	533.011	80.001	20.008	100.263	20.080	11.557	0.460
943.000	533.272	80.001	20.008	100.253	20.080	11.577	0.483
943.500	533.526	80.003	20.008	100.245	20.083	10.658	0.506
944.000	533.773	80.000	20.008	100.249	20.081	11.255	0.508
944.500	533.998	80.002	20.008	100.262	20.080	11.295	0.486
945.000	534.283	80.000	20.007	100.279	20.080	11.354	0.491
945.501	534.475	80.000	20.008	100.288	20.080	11.470	0.494
946.000	534.724	80.001	20.007	100.286	20.080	11.502	0.459
946.500	534.998	80.002	20.009	100.273	20.082	10.751	0.481
947.000	535.250	80.001	20.008	100.260	20.082	10.972	0.524
947.500	535.465	80.001	20.008	100.255	20.084	10.085	0.497
948.000	535.719	80.001	20.008	100.259	20.083	10.455	0.468
948.500	535.955	80.001	20.007	100.270	20.082	10.708	0.480
949.000	536.210	80.001	20.007	100.287	20.082	10.714	0.490
949.500	536.466	80.000	20.008	100.299	20.082	10.907	0.500
950.000	536.700	80.002	20.007	100.304	20.083	10.537	0.500
950.500	536.909	80.002	20.008	100.299	20.081	11.021	0.467
951.000	537.186	80.000	20.008	100.291	20.084	10.204	0.464
951.500	537.438	80.000	20.008	100.281	20.081	10.981	0.507
952.000	537.670	80.002	20.008	100.273	20.082	10.677	0.507
952.500	537.941	80.000	20.008	100.265	20.079	11.714	0.493
953.000	538.176	80.000	20.007	100.259	20.079	11.735	0.505
953.500	538.429	80.001	20.008	100.250	20.080	11.418	0.497
954.000	538.688	80.001	20.007	100.243	20.078	11.994	0.500
954.500	538.871	80.000	20.007	100.235	20.077	12.285	0.477
955.001	539.169	80.001	20.008	100.226	20.078	12.005	0.462
955.500	539.436	80.002	20.008	100.222	20.076	12.627	0.523
956.000	539.686	80.001	20.008	100.225	20.076	12.809	0.541
956.500	539.875	80.000	20.008	100.233	20.075	12.855	0.478
957.000	540.160	80.002	20.008	100.241	20.076	12.621	0.456
957.500	540.407	80.001	20.007	100.249	20.074	13.405	0.503
958.000	540.633	80.000	20.007	100.256	20.075	12.867	0.502
958.500	540.877	80.001	20.008	100.256	20.076	12.725	0.472
959.000	541.109	80.001	20.009	100.250	20.075	12.861	0.473
959.500	541.358	80.000	20.008	100.255	20.077	12.232	0.478
960.000	541.585	80.001	20.008	100.264	20.077	12.317	0.479
960.500	541.793	80.001	20.008	100.270	20.077	12.373	0.455
961.000	542.019	80.001	20.008	100.273	20.079	11.668	0.435
961.500	542.269	80.001	20.009	100.277	20.078	12.130	0.455
962.000	542.527	80.000	20.008	100.272	20.078	12.043	0.492
962.501	542.820	79.999	20.008	100.262	20.081	11.025	0.530
963.000	543.061	80.001	20.008	100.249	20.080	11.512	0.542
963.500	543.300	80.001	20.008	100.237	20.078	12.054	0.507
964.000	543.507	80.000	20.008	100.229	20.077	12.492	0.463
964.500	543.748	80.001	20.008	100.225	20.074	13.351	0.447
965.000	544.024	80.000	20.008	100.225	20.075	12.893	0.482
965.500	544.274	80.001	20.008	100.233	20.072	13.906	0.522
966.000	544.561	80.001	20.008	100.245	20.072	13.819	0.532
966.500	544.805	80.000	20.008	100.247	20.072	13.890	0.534
967.000	545.056	80.001	20.008	100.243	20.068	15.251	0.513
967.500	545.303	80.002	20.008	100.236	20.069	14.795	0.497
968.000	545.523	80.001	20.008	100.228	20.067	15.360	0.483
968.500	545.793	80.001	20.008	100.226	20.067	15.564	0.479
969.000	546.049	80.000	20.007	100.231	20.070	14.461	0.508
969.501	546.256	80.002	20.008	100.235	20.068	15.051	0.495
970.000	546.538	80.001	20.008	100.236	20.065	16.046	0.476
970.500	546.759	80.001	20.008	100.235	20.064	16.401	0.496
971.000	547.023	80.000	20.008	100.232	20.068	15.236	0.494
971.500	547.266	80.001	20.008	100.233	20.066	15.724	0.496
972.000	547.537	80.002	20.008	100.231	20.066	15.683	0.510
972.500	547.786	80.000	20.008	100.231	20.064	16.267	0.517
973.000	548.015	79.998	20.008	100.234	20.064	16.243	0.499
973.500	548.269	80.003	20.006	100.268	20.063	16.577	0.480
974.000	548.519	80.001	20.012	100.225	20.061	17.097	0.493
974.500	548.776	80.001	20.008	100.187	20.064	16.180	0.505
975.000	549.021	80.001	20.007	100.165	20.066	15.653	0.505
975.500	549.277	80.002	20.008	100.151	20.064	16.245	0.502
976.000	549.575	80.001	20.008	100.113	20.062	16.836	0.527
976.500	549.814	80.000	20.008	100.149	20.064	16.216	0.545
977.000	550.080	80.002	20.007	100.187	20.064	16.300	0.521
977.500	550.316	80.001	20.007	100.215	20.064	16.359	0.504
978.000	550.612	80.000	20.004	100.228	20.063	16.663	0.517
978.500	550.853	80.002	20.015	100.199	20.064	16.209	0.534
979.000	551.131	80.001	20.009	100.183	20.066	15.871	0.528
979.500	551.351	80.001	20.006	100.229	20.067	15.543	0.509
980.000	551.624	80.000	20.007	100.272	20.068	14.971	0.496
980.500	551.906	80.001	20.007	100.300	20.066	15.831	0.524
981.000	552.150	80.002	20.007	100.347	20.067	15.515	0.540
981.500	552.384	80.001	20.008	100.365	20.066	15.854	0.502
982.000	552.638	80.000	20.008	100.319	20.064	16.311	0.483
982.500	552.865	80.001	20.007	100.278	20.062	16.870	0.484
983.000	553.104	80.001	20.008	100.256	20.064	16.432	0.474
983.500	553.362	80.001	20.008	100.250	20.062	16.969	0.482
984.000	553.623	80.000	20.009	100.256	20.061	17.229	0.508
984.500	553.894	80.002	20.006	100.273	20.063	16.530	0.526
985.000	554.176	80.001	20.008	100.254	20.061	17.133	0.542
985.500	554.416	80.001	20.008	100.222	20.065	16.121	0.538
986.000	554.690	80.001	20.008	100.196	20.062	16.987	0.518
986.500	554.938	80.001	20.008	100.177	20.062	16.894	0.518
987.000	555.194	79.999	20.007	100.151	20.063	16.608	0.513
987.500	555.523	80.002	20.007	100.163	20.067	15.475	0.545
988.000	555.772	80.002	20.007	100.187	20.065	15.987	0.581
988.500	556.034	80.000	20.008	100.206	20.065	15.923	0.544
989.000	556.247	80.002	20.008	100.218	20.066	15.872	0.493
989.500	556.536	80.000	20.007	100.227	20.067	15.533	0.489
990.000	556.800	80.000	20.007	100.227	20.070	14.520	0.528
990.500	557.042	80.001	20.008	100.227	20.069	14.933	0.529
991.000	557.309	80.001	20.007	100.226	20.069	14.848	0.507
991.500	557.578	80.003	20.008	100.222	20.070	14.563	0.523
992.000	557.823	80.001	20.010	100.215	20.070	14.519	0.525
992.500	558.074	80.001	20.008	100.234	20.068	15.182	0.505
993.000	558.304	80.001	20.007	100.264	20.067	15.546	0.489
993.500	558.558	80.001	20.007	100.290	20.070	14.406	0.483
994.000	558.825	80.002	20.007	100.304	20.071	14.256	0.503
994.500	559.090	80.001	20.008	100.313	20.067	15.329	0.526
995.000	559.356	80.001	20.008	100.295	20.067	15.426	0.531
995.500	559.620	79.999	20.008	100.265	20.068	15.018	0.531
996.000	559.913	80.002	20.008	100.241	20.068	15.221	0.544
996.500	560.150	80.001	20.007	100.236	20.066	15.743	0.543
997.000	560.341	80.000	20.007	100.241	20.067	15.343	0.478
997.500	560.665	80.002	20.008	100.248	20.064	16.341	0.472
998.001	560.882	80.001	20.009	100.247	20.065	15.951	0.528
998.500	561.178	80.000	20.008	100.243	20.062	17.089	0.527
999.000	561.423	80.003	20.008	100.229	20.063	16.608	0.527
999.500	561.658	80.002	20.009	100.215	20.067	15.526	0.510
1000.000	561.957	80.000	20.008	100.208	20.065	16.057	0.507
1000.500	562.184	80.001	20.008	100.209	20.066	15.773	0.530
1001.000	562.497	80.001	20.008	100.214	20.065	16.092	0.533
1001.500	562.729	80.001	20.008	100.221	20.064	16.345	0.543
1002.000	562.984	80.000	20.008	100.221	20.064	16.195	0.516
1002.500	563.215	80.001	20.009	100.211	20.065	16.135	0.486
1003.000	563.524	80.000	20.008	100.195	20.065	16.076	0.512
1003.500	563.792	80.000	20.008	100.182	20.063	16.678	0.559
1004.000	564.037	80.001	20.008	100.175	20.065	16.069	0.545
1004.500	564.335	80.001	20.008	100.176	20.068	15.202	0.528
1005.000	564.529	80.000	20.008	100.187	20.065	16.091	0.518
1005.500	564.776	80.001	20.008	100.203	20.063	16.610	0.467
1006.000	565.123	80.000	20.008	100.213	20.062	16.810	0.517
1006.500	565.352	80.002	20.008	100.211	20.065	16.167	0.585
1007.000	565.635	80.000	20.008	100.200	20.065	16.031	0.545
1007.500	565.911	80.001	20.008	100.191	20.063	16.692	0.536
1008.000	566.107	80.002	20.008	100.186	20.068	15.054	0.515
1008.500	566.403	80.001	20.008	100.189	20.066	15.846	0.482
1009.000	566.610	80.002	20.008	100.205	20.065	15.985	0.498
1009.500	566.924	80.000	20.008	100.227	20.064	16.322	0.512
1010.000	567.156	80.000	20.007	100.237	20.062	16.879	0.534
1010.500	567.389	80.001	20.008	100.240	20.063	16.710	0.505
1011.000	567.665	80.001	20.008	100.230	20.062	16.857	0.486
1011.500	567.940	80.000	20.008	100.216	20.063	16.526	0.530
1012.000	568.162	80.000	20.008	100.208	20.061	17.381	0.524
1012.500	568.410	80.001	20.008	100.206	20.061	17.175	0.484
1013.000	568.644	80.000	20.008	100.207	20.061	17.371	0.476
1013.500	568.913	80.001	20.008	100.215	20.061	17.126	0.492
1014.000	569.151	80.000	20.008	100.221	20.061	17.288	0.505
1014.500	569.412	80.001	20.008	100.222	20.063	16.775	0.503
1015.000	569.691	80.000	20.008	100.215	20.064	16.236	0.519
1015.500	569.936	80.000	20.007	100.207	20.061	17.141	0.532
1016.000	570.226	80.001	20.008	100.200	20.061	17.289	0.530
1016.500	570.528	80.000	20.008	100.200	20.061	17.219	0.563
1017.000	570.701	80.000	20.008	100.201	20.061	17.402	0.533
1017.500	570.978	80.001	20.008	100.207	20.064	16.431	0.462
1018.000	571.251	80.001	20.008	100.217	20.061	17.222	0.500
1018.500	571.467	80.000	20.008	100.221	20.060	17.721	0.520
1019.000	571.743	80.001	20.008	100.216	20.060	17.487	0.490
1019.501	572.023	80.002	20.008	100.207	20.058	18.036	0.524
1020.000	572.233	80.002	20.008	100.207	20.062	16.869	0.523
1020.500	572.530	80.001	20.008	100.206	20.063	16.494	0.499
1021.000	572.723	80.000	20.008	100.211	20.061	17.280	0.499
1021.500	573.017	80.000	20.008	100.225	20.061	17.371	0.488
1022.000	573.262	80.001	20.008	100.239	20.061	17.307	0.513
1022.500	573.529	80.000	20.007	100.241	20.061	17.300	0.525
1023.000	573.758	80.001	20.008	100.240	20.062	17.040	0.505
1023.500	573.985	80.001	20.008	100.235	20.064	16.320	0.477
1024.000	574.273	80.001	20.009	100.225	20.062	16.805	0.485
1024.501	574.538	80.000	20.008	100.219	20.060	17.511	0.533
1025.001	574.766	80.001	20.008	100.221	20.061	17.136	0.523
1025.500	574.992	80.001	20.008	100.229	20.059	17.734	0.473
1026.000	575.249	80.000	20.008	100.238	20.061	17.177	0.469
1026.500	575.471	80.002	20.007	100.243	20.059	17.922	0.481
1027.000	575.749	80.001	20.008	100.243	20.060	17.546	0.489
1027.500	575.990	80.000	20.008	100.238	20.061	17.149	0.509
1028.001	576.215	80.001	20.008	100.229	20.059	17.736	0.493
1028.501	576.455	80.002	20.008	100.217	20.061	17.211	0.466
1029.000	576.713	80.000	20.008	100.213	20.060	17.483	0.482
1029.500	576.986	80.001	20.008	100.219	20.062	17.088	0.514
1030.000	577.221	80.000	20.008	100.229	20.060	17.418	0.520
1030.500	577.486	80.000	20.008	100.234	20.061	17.115	0.504
1031.001	577.770	80.001	20.008	100.239	20.060	17.576	0.524
1031.501	577.989	80.001	20.008	100.238	20.062	16.856	0.526
1032.000	578.240	80.002	20.008	100.231	20.063	16.662	0.486
1032.501	578.443	79.999	20.008	100.224	20.061	17.245	0.462
1033.001	578.710	80.001	20.008	100.222	20.061	17.245	0.462
1033.500	578.974	80.000	20.008	100.225	20.060	17.713	0.501
1034.000	579.221	80.001	20.008	100.233	20.062	16.943	0.521
1034.500	579.471	80.000	20.008	100.239	20.063	16.776	0.504
1035.000	579.703	80.001	20.008	100.241	20.061	17.152	0.490
1035.500	579.938	80.001	20.008	100.239	20.061	17.184	0.474
1036.000	580.255	80.000	20.008	100.234	20.065	16.075	0.509
1036.500	580.477	80.000	20.008	100.226	20.062	17.013	0.545
1037.000	580.731	80.002	20.008	100.221	20.062	16.888	0.507
1037.500	580.972	79.999	20.008	100.221	20.062	17.018	0.486
1038.000	581.268	80.002	20.008	100.228	20.061	17.389	0.516
1038.500	581.452	80.000	20.008	100.237	20.060	17.578	0.509
1039.001	581.732	80.002	20.008	100.240	20.062	16.970	0.472
1039.501	581.992	80.001	20.008	100.240	20.059	17.753	0.502
1040.000	582.219	80.000	20.008	100.238	20.061	17.266	0.514
1040.500	582.454	80.000	20.008	100.230	20.061	17.173	0.475
1041.000	582.743	80.002	20.008	100.215	20.061	17.203	0.493
1041.500	582.946	80.000	20.008	100.210	20.057	18.393	0.508
1042.000	583.205	80.000	20.008	100.211	20.058	18.193	0.477
1042.500	583.446	80.001	20.008	100.211	20.059	17.858	0.480
1043.000	583.708	80.000	20.008	100.212	20.060	17.692	0.501
1043.500	583.999	80.001	20.008	100.219	20.057	18.473	0.528
1044.000	584.232	80.000	20.008	100.223	20.054	19.427	0.538
1044.500	584.487	80.001	20.008	100.220	20.054	19.420	0.506
1045.000	584.685	80.001	20.008	100.220	20.057	18.636	0.471
1045.500	584.994	80.002	20.008	100.220	20.056	18.751	0.480
1046.000	585.223	80.001	20.008	100.222	20.056	18.776	0.523
1046.500	585.472	80.000	20.008	100.227	20.058	18.101	0.508
1047.000	585.752	80.000	20.008	100.234	20.056	18.659	0.503
1047.500	585.940	80.001	20.008	100.243	20.057	18.478	0.498
1048.000	586.244	80.001	20.008	100.244	20.058	18.225	0.480
1048.500	586.510	80.001	20.008	100.242	20.057	18.568	0.531
1049.000	586.759	80.001	20.008	100.234	20.058	18.061	0.543
1049.500	586.970	80.001	20.008	100.228	20.058	18.312	0.488
1050.000	587.214	80.000	20.008	100.219	20.057	18.616	0.457
1050.501	587.495	80.000	20.008	100.220	20.056	18.908	0.489
1051.001	587.775	80.000	20.008	100.228	20.056	18.733	0.543
1051.501	587.994	80.001	20.008	100.237	20.054	19.311	0.530
1052.001	588.288	80.001	20.008	100.240	20.057	18.476	0.506
1052.500	588.490	80.001	20.008	100.237	20.056	18.723	0.504
1053.000	588.753	80.001	20.007	100.228	20.055	19.097	0.480
1053.501	589.053	80.001	20.008	100.214	20.056	18.914	0.514
1054.001	589.269	80.000	20.008	100.200	20.056	18.796	0.540
1054.501	589.504	80.000	20.008	100.195	20.055	18.983	0.484
1055.001	589.756	80.000	20.008	100.198	20.054	19.293	0.469
1055.501	589.981	80.002	20.008	100.208	20.057	18.569	0.482
1056.000	590.290	80.001	20.008	100.223	20.056	18.817	0.506
1056.500	590.567	80.000	20.008	100.239	20.054	19.330	0.560
1057.000	590.774	80.000	20.008	100.247	20.054	19.467	0.535
1057.500	591.039	80.002	20.008	100.248	20.055	19.097	0.478
1058.000	591.241	80.000	20.008	100.245	20.057	18.623	0.469
1058.500	591.520	80.002	20.008	100.237	20.057	18.454	0.474
1059.000	591.801	80.000	20.008	100.229	20.057	18.493	0.521
1059.501	592.068	80.001	20.008	100.227	20.059	17.832	0.554
1060.001	592.255	80.000	20.008	100.231	20.057	18.345	0.501
1060.500	592.488	80.000	20.008	100.232	20.057	18.489	0.437
1061.000	592.789	79.999	20.008	100.232	20.057	18.365	0.477
1061.501	593.051	80.002	20.008	100.231	20.058	18.202	0.548
1062.001	593.245	80.001	20.008	100.221	20.057	18.563	0.510
1062.501	593.538	80.002	20.008	100.212	20.057	18.594	0.472
1063.000	593.776	80.001	20.008	100.209	20.055	18.995	0.509
1063.500	594.022	80.000	20.008	100.209	20.056	18.855	0.508
1064.000	594.296	80.000	20.008	100.210	20.054	19.505	0.502
1064.500	594.569	80.002	20.008	100.218	20.055	19.120	0.533
1065.000	594.783	80.000	20.007	100.222	20.056	18.844	0.517
1065.500	595.054	80.001	20.008	100.224	20.056	18.722	0.486
1066.000	595.279	80.000	20.008	100.218	20.058	18.287	0.491
1066.501	595.522	80.002	20.008	100.210	20.058	18.157	0.482
1067.001	595.795	80.000	20.008	100.202	20.057	18.559	0.492
1067.501	596.039	80.000	20.008	100.195	20.057	18.364	0.516
1068.001	596.309	80.000	20.008	100.194	20.058	18.326	0.515
1068.500	596.579	80.000	20.008	100.200	20.054	19.286	0.527
1069.000	596.794	80.001	20.008	100.208	20.056	18.923	0.513
1069.501	597.044	80.001	20.007	100.216	20.054	19.382	0.476
1070.001	597.341	80.000	20.007	100.222	20.056	18.933	0.506
1070.500	597.564	80.000	20.008	100.218	20.052	19.897	0.533
1071.001	597.802	80.000	20.008	100.211	20.054	19.357	0.490
1071.501	598.085	80.000	20.008	100.209	20.055	18.987	0.491
1072.001	598.348	80.001	20.007	100.208	20.054	19.557	0.534
1072.500	598.583	80.001	20.008	100.209	20.054	19.493	0.522
1073.001	598.833	80.001	20.007	100.215	20.057	18.334	0.492
1073.501	599.059	80.001	20.007	100.220	20.056	18.749	0.481
1074.001	599.349	80.001	20.007	100.216	20.059	17.932	0.496
1074.501	599.574	80.001	20.008	100.208	20.056	18.798	0.516
1075.000	599.830	80.000	20.007	100.200	20.055	19.016	0.498
1075.500	600.084	80.001	20.008	100.192	20.054	19.353	0.495
1076.001	600.293	80.001	20.008	100.192	20.054	19.353	0.486
1076.501	600.563	80.000	20.008	100.203	20.052	19.885	0.471
1077.001	600.791	80.001	20.008	100.218	20.054	19.362	0.489
1077.501	601.081	80.002	20.007	100.233	20.053	19.824	0.508
1078.001	601.299	80.000	20.007	100.249	20.056	18.872	0.513
1078.501	601.555	80.001	20.008	100.258	20.057	18.600	0.491
1079.001	601.821	80.001	20.008	100.253	20.055	19.033	0.498
1079.501	602.044	80.001	20.007	100.250	20.055	18.975	0.505
1080.000	602.325	80.000	20.008	100.249	20.055	19.078	0.496
1080.500	602.533	80.000	20.008	100.249	20.054	19.358	0.496
1081.001	602.840	80.002	20.008	100.250	20.056	18.770	0.502
1081.501	603.084	80.000	20.007	100.255	20.054	19.348	0.533
1082.001	603.378	80.001	20.008	100.256	20.055	19.114	0.545
1082.501	603.622	80.000	20.008	100.249	20.055	19.042	0.539
1083.001	603.855	80.001	20.008	100.242	20.053	19.630	0.507
1083.501	604.106	80.001	20.008	100.231	20.056	18.928	0.480
1084.000	604.353	80.001	20.008	100.222	20.055	19.162	0.491
1084.501	604.619	80.001	20.008	100.217	20.053	19.633	0.505
1085.001	604.855	80.000	20.008	100.218	20.055	19.227	0.507
1085.500	605.105	80.002	20.008	100.220	20.053	19.723	0.494
1086.000	605.365	80.000	20.008	100.222	20.052	19.876	0.498
1086.501	605.592	80.000	20.008	100.224	20.052	19.997	0.499
1087.001	605.836	79.999	20.007	100.222	20.052	20.146	0.479
1087.501	606.113	80.001	20.008	100.213	20.051	20.202	0.495
1088.000	606.340	80.000	20.008	100.202	20.055	19.227	0.512
1088.500	606.619	79.999	20.008	100.200	20.050	20.654	0.505
1089.000	606.903	80.001	20.008	100.200	20.051	20.318	0.534
1089.500	607.119	80.000	20.008	100.204	20.052	19.986	0.531
1090.000	607.396	80.001	20.008	100.215	20.053	19.643	0.497
1090.500	607.621	80.000	20.008	100.224	20.052	20.171	0.498
1091.000	607.900	80.000	20.007	100.225	20.050	20.562	0.503
1091.501	608.110	80.001	20.008	100.224	20.051	20.391	0.497
1092.001	608.359	80.000	20.008	100.223	20.052	20.093	0.474
1092.500	608.620	80.001	20.008	100.220	20.054	19.477	0.485
1093.000	608.855	79.999	20.008	100.220	20.055	19.120	0.503
1093.500	609.109	80.000	20.008	100.229	20.053	19.590	0.492
1094.000	609.363	80.001	20.008	100.237	20.054	19.534	0.499
1094.501	609.644	79.999	20.008	100.240	20.051	20.236	0.522
1095.001	609.888	80.002	20.008	100.240	20.048	21.150	0.530
1095.500	610.105	80.000	20.008	100.235	20.047	21.457	0.493
1096.000	610.369	80.001	20.008	100.224	20.048	21.304	0.471
1096.500	610.625	79.999	20.009	100.213	20.047	21.436	0.500
1097.000	610.862	80.001	20.006	100.217	20.046	21.886	0.507
1097.500	611.098	80.000	20.008	100.207	20.047	21.541	0.483
1098.001	611.337	80.000	20.008	100.185	20.046	21.732	0.474
1098.501	611.617	80.000	20.008	100.170	20.046	21.842	0.497
1099.001	611.846	80.000	20.007	100.162	20.045	22.323	0.514
1099.501	612.099	80.000	20.008	100.148	20.047	21.465	0.495
1100.000	612.318	80.001	20.007	100.150	20.047	21.447	0.477
1100.500	612.569	80.000	20.007	100.169	20.051	20.461	0.471
1101.000	612.830	80.000	20.007	100.186	20.051	20.197	0.491
1101.500	613.078	80.003	20.008	100.196	20.053	19.612	0.511
1102.000	613.301	80.000	20.010	100.199	20.053	19.742	0.490
1102.500	613.584	80.001	20.007	100.224	20.053	19.742	0.488
1103.000	613.815	80.001	20.007	100.258	20.049	20.824	0.510
1103.500	614.064	80.000	20.008	100.276	20.052	20.090	0.497
1104.000	614.346	80.003	20.010	100.285	20.051	20.263	0.505
1104.500	614.562	79.998	20.004	100.304	20.052	20.074	0.514
1105.000	614.812	80.001	20.014	100.304	20.050	20.643	0.482
1105.500	615.131	80.000	20.011	100.240	20.051	20.384	0.518
1106.000	615.333	80.001	20.008	100.203	20.053	19.731	0.546
1106.500	615.595	80.000	20.008	100.187	20.052	20.017	0.493
1107.000	615.793	80.000	20.007	100.168	20.052	19.887	0.462
1107.500	616.077	80.000	20.007	100.148	20.053	19.756	0.471
1108.000	616.329	80.000	20.007	100.182	20.054	19.282	0.509
1108.500	616.575	80.000	20.008	100.197	20.055	19.022	0.517
1109.000	616.867	80.000	20.008	100.205	20.054	19.379	0.518
1109.500	617.109	80.001	20.007	100.219	20.054	19.440	0.536
1110.000	617.342	80.001	20.010	100.230	20.054	19.307	0.505
1110.500	617.593	80.000	20.008	100.257	20.055	19.166	0.480
1111.000	617.818	80.000	20.007	100.300	20.055	19.032	0.480
1111.501	618.056	80.000	20.008	100.327	20.056	18.831	0.469
1112.001	618.330	80.000	20.008	100.332	20.055	19.063	0.487
1112.500	618.576	80.001	20.008	100.326	20.057	18.608	0.516
1113.000	618.809	79.999	20.008	100.302	20.057	18.472	0.499
1113.500	619.052	80.000	20.008	100.265	20.057	18.350	0.477
1114.000	619.314	79.999	20.007	100.241	20.055	18.993	0.491
1114.501	619.586	80.000	20.008	100.232	20.056	18.780	0.520
1115.001	619.787	80.000	20.008	100.234	20.055	19.013	0.503
1115.501	620.070	79.999	20.008	100.238	20.056	18.850	0.478
1116.001	620.322	80.000	20.008	100.237	20.057	18.634	0.510
1116.501	620.570	80.001	20.008	100.228	20.055	19.106	0.518
1117.001	620.865	80.000	20.008	100.217	20.054	19.346	0.522
1117.500	621.122	80.001	20.008	100.210	20.052	20.021	0.548
1118.000	621.356	80.000	20.008	100.207	20.050	20.535	0.522
1118.500	621.578	80.001	20.008	100.207	20.051	20.251	0.473
1119.001	621.859	79.999	20.008	100.213	20.050	20.535	0.480
1119.501	622.061	80.000	20.008	100.218	20.047	21.524	0.493
1120.001	622.334	80.000	20.008	100.216	20.050	20.724	0.478
1120.500	622.583	80.001	20.008	100.208	20.048	21.214	0.498
1121.000	622.831	80.000	20.008	100.201	20.050	20.675	0.510
1121.500	623.055	80.001	20.008	100.197	20.045	22.140	0.485
1122.001	623.315	80.000	20.008	100.200	20.047	21.488	0.478
1122.501	623.556	80.001	20.008	100.213	20.048	21.108	0.493
1123.001	623.802	80.000	20.008	100.229	20.048	21.201	0.495
1123.500	624.078	80.001	20.008	100.241	20.049	21.032	0.505
1124.000	624.291	80.000	20.008	100.248	20.049	20.889	0.505
1124.500	624.567	80.001	20.008	100.248	20.053	19.839	0.489
1125.000	624.820	80.000	20.008	100.240	20.053	19.846	0.508
1125.500	625.046	80.000	20.008	100.232	20.050	20.671	0.504
1126.001	625.251	80.000	20.008	100.235	20.054	19.384	0.455
1126.501	625.554	80.001	20.007	100.241	20.050	20.558	0.469
1127.001	625.772	80.001	20.008	100.247	20.050	20.513	0.514
1127.500	626.048	80.000	20.008	100.254	20.049	20.870	0.508
1128.000	626.283	79.999	20.008	100.254	20.047	21.491	0.502
1128.500	626.542	80.002	20.008	100.246	20.050	20.751	0.502
1129.000	626.791	79.999	20.008	100.237	20.046	21.758	0.501
1129.500	627.073	80.001	20.008	100.231	20.052	20.132	0.520
1130.001	627.289	79.999	20.008	100.232	20.051	20.400	0.515
1130.501	627.520	80.000	20.008	100.239	20.048	21.145	0.473
1131.001	627.769	80.000	20.008	100.247	20.050	20.677	0.463
1131.501	628.072	80.002	20.008	100.251	20.049	20.984	0.516
1132.000	628.287	80.001	20.008	100.248	20.049	20.902	0.535
1132.501	628.559	79.999	20.008	100.238	20.050	20.529	0.503
1133.001	628.745	79.999	20.008	100.223	20.049	20.799	0.473
1133.500	629.037	80.001	20.008	100.208	20.048	21.110	0.467
1134.000	629.255	80.001	20.008	100.205	20.050	20.573	0.494
1134.500	629.520	80.000	20.008	100.209	20.051	20.335	0.497
1135.000	629.741	80.000	20.008	100.217	20.050	20.478	0.485
1135.501	629.948	79.998	20.007	100.231	20.051	20.298	0.457
1136.001	630.255	80.001	20.008	100.239	20.052	19.930	0.471
1136.500	630.478	80.000	20.008	100.239	20.053	19.726	0.522
1137.000	630.705	80.001	20.008	100.235	20.054	19.404	0.490
1137.501	630.998	80.001	20.008	100.235	20.053	19.647	0.486
1138.001	631.204	80.001	20.008	100.236	20.055	19.202	0.510
1138.500	631.487	80.000	20.008	100.248	20.057	18.650	0.494
1139.000	631.745	80.000	20.007	100.258	20.058	18.319	0.515
1139.500	631.998	79.999	20.008	100.266	20.058	18.103	0.526
1140.000	632.255	80.001	20.008	100.269	20.059	17.998	0.511
1140.500	632.500	80.001	20.008	100.268	20.062	16.993	0.506
1141.000	632.767	80.000	20.007	100.262	20.059	17.914	0.506
1141.500	632.975	80.001	20.008	100.260	20.059	17.922	0.493
1142.000	633.240	80.000	20.008	100.269	20.059	17.858	0.474
1142.500	633.469	80.001	20.008	100.276	20.059	17.818	0.483
1143.001	633.779	80.000	20.008	100.283	20.059	17.965	0.517
1143.501	633.949	79.999	20.007	100.284	20.056	18.889	0.509
1144.000	634.254	80.000	20.008	100.276	20.056	18.901	0.478
1144.500	634.458	80.000	20.008	100.256	20.059	17.890	0.492
1145.000	634.696	80.000	20.008	100.235	20.055	19.026	0.475
1145.500	634.976	80.000	20.008	100.218	20.055	19.235	0.480
1146.000	635.224	79.999	20.008	100.210	20.054	19.561	0.523
1146.500	635.444	80.000	20.008	100.210	20.056	18.938	0.498
1147.001	635.696	80.001	20.008	100.213	20.058	18.166	0.470
1147.501	635.954	80.000	20.008	100.220	20.057	18.340	0.491
1148.001	636.188	80.001	20.008	100.222	20.057	18.482	0.501
1148.500	636.466	80.000	20.008	100.228	20.058	18.184	0.502
1149.000	636.650	80.000	20.007	100.235	20.057	18.645	0.487
1149.500	636.913	79.999	20.008	100.251	20.058	18.334	0.454
1150.000	637.134	80.000	20.008	100.265	20.058	18.315	0.466
1150.500	637.406	80.001	20.009	100.280	20.056	18.691	0.489
1151.000	637.649	80.001	20.007	100.289	20.056	18.709	0.504
1151.500	637.917	80.000	20.007	100.288	20.057	18.586	0.513
1152.000	638.134	80.000	20.008	100.282	20.055	18.989	0.498
1152.500	638.381	79.999	20.008	100.272	20.056	18.854	0.474
1153.000	638.650	80.001	20.007	100.265	20.055	19.141	0.490
1153.501	638.881	79.999	20.007	100.261	20.053	19.583	0.508
1154.001	639.137	80.001	20.007	100.268	20.056	18.676	0.493
1154.501	639.360	79.999	20.007	100.275	20.055	19.155	0.483
1155.000	639.616	80.001	20.007	100.278	20.057	18.538	0.480
1155.500	639.859	80.000	20.008	100.274	20.057	18.544	0.489
1156.000	640.095	80.001	20.008	100.263	20.058	18.246	0.489
1156.500	640.359	79.998	20.008	100.248	20.055	19.089	0.490
1157.000	640.612	80.001	20.008	100.242	20.056	18.953	0.508
1157.500	640.840	80.000	20.008	100.243	20.054	19.316	0.499
1158.000	641.128	80.000	20.007	100.254	20.052	19.976	0.498
1158.501	641.327	80.000	20.007	100.261	20.055	18.957	0.502
1159.001	641.558	79.999	20.007	100.269	20.055	19.104	0.459
1159.500	641.829	80.000	20.007	100.267	20.053	19.623	0.466
1160.000	642.033	80.001	20.008	100.262	20.053	19.806	0.488
1160.500	642.323	79.999	20.007	100.255	20.053	19.711	0.485
1161.000	642.557	80.000	20.008	100.255	20.054	19.330	0.509
1161.500	642.797	80.001	20.007	100.256	20.053	19.841	0.499
1162.000	643.014	79.997	20.008	100.258	20.054	19.554	0.466
1162.500	643.300	80.000	20.007	100.261	20.054	19.544	0.480
1163.000	643.556	80.001	20.007	100.263	20.056	18.746	0.522
1163.500	643.835	80.000	20.008	100.262	20.054	19.400	0.538
1164.000	644.020	80.000	20.008	100.258	20.055	19.129	0.500
1164.500	644.280	80.001	20.008	100.256	20.053	19.720	0.455
1165.000	644.534	80.000	20.007	100.261	20.053	19.780	0.480
1165.500	644.803	80.001	20.007	100.270	20.054	19.260	0.519
1166.000	645.018	80.000	20.007	100.277	20.055	19.045	0.503
1166.500	645.255	80.001	20.008	100.285	20.054	19.304	0.468
1167.001	645.511	80.001	20.007	100.288	20.052	19.893	0.472
1167.501	645.721	80.001	20.008	100.282	20.055	19.181	0.480
1168.001	645.999	80.001	20.007	100.275	20.056	18.871	0.477
1168.501	646.242	80.000	20.008	100.273	20.057	18.508	0.504
1169.000	646.480	80.000	20.007	100.274	20.056	18.825	0.501
1169.500	646.748	80.002	20.007	100.278	20.056	18.707	0.494
1170.000	646.974	80.000	20.007	100.280	20.055	19.172	0.500
1170.501	647.246	80.000	20.007	100.279	20.055	19.196	0.496
1171.001	647.532	80.002	20.008	100.271	20.057	18.504	0.528
1171.500	647.793	80.001	20.008	100.262	20.054	19.309	0.553
1172.001	648.020	80.001	20.007	100.256	20.054	19.363	0.518
1172.501	648.298	80.001	20.008	100.258	20.059	17.983	0.496
1173.000	648.551	80.001	20.008	100.266	20.056	18.786	0.518
1173.500	648.838	79.999	20.007	100.278	20.056	18.746	0.536
1174.000	649.046	80.001	20.007	100.281	20.055	18.997	0.518
1174.500	649.298	80.000	20.007	100.277	20.056	18.860	0.478
1175.000	649.557	80.000	20.007	100.267	20.056	18.860	0.485
1175.500	649.787	80.000	20.008	100.251	20.055	19.139	0.500
1176.000	650.021	80.001	20.008	100.245	20.055	19.159	0.477
1176.500	650.293	80.000	20.007	100.245	20.053	19.794	0.485
1177.000	650.579	80.001	20.007	100.249	20.053	19.618	0.532
1177.500	650.817	80.000	20.007	100.255	20.052	19.883	0.541
1178.000	651.074	80.001	20.008	100.262	20.053	19.675	0.509
1178.500	651.292	80.000	20.007	100.254	20.053	19.637	0.485
1179.000	651.522	80.001	20.008	100.249	20.054	19.444	0.462
1179.500	651.818	80.000	20.008	100.247	20.055	19.238	0.487
1180.000	652.049	80.000	20.008	100.247	20.055	19.110	0.526
1180.500	652.257	80.000	20.007	100.248	20.054	19.563	0.483
1181.000	652.541	80.001	20.007	100.254	20.055	18.992	0.466
1181.500	652.810	80.001	20.008	100.255	20.054	19.445	0.523
1182.000	653.082	79.999	20.008	100.250	20.054	19.315	0.546
1182.500	653.323	80.002	20.007	100.243	20.053	19.646	0.527
1183.000	653.544	80.000	20.008	100.234	20.052	20.069	0.488
1183.500	653.812	80.000	20.008	100.229	20.053	19.818	0.475
1184.000	654.065	80.001	20.008	100.232	20.052	20.070	0.505
1184.500	654.353	80.001	20.007	100.243	20.053	19.700	0.531
1185.000	654.622	80.000	20.007	100.250	20.051	20.212	0.549
1185.500	654.898	80.001	20.008	100.254	20.053	19.577	0.551
1186.001	655.119	80.000	20.007	100.252	20.053	19.779	0.520
1186.501	655.358	80.001	20.008	100.246	20.049	20.803	0.478
1187.001	655.616	80.001	20.008	100.234	20.049	21.056	0.478
1187.501	655.864	80.000	20.008	100.229	20.049	21.016	0.502
1188.001	656.132	80.000	20.007	100.229	20.048	21.131	0.511
1188.500	656.408	80.000	20.008	100.234	20.048	21.187	0.530
1189.000	656.637	80.002	20.007	100.234	20.049	20.863	0.524
1189.500	656.936	80.000	20.008	100.234	20.050	20.630	0.516
1190.000	657.166	79.999	20.007	100.231	20.048	21.137	0.529
1190.500	657.457	80.001	20.008	100.227	20.050	20.743	0.526
1191.000	657.689	80.001	20.007	100.223	20.051	20.322	0.522
1191.501	657.922	80.001	20.007	100.230	20.049	20.819	0.494
1192.001	658.256	80.000	20.007	100.238	20.054	19.360	0.516
1192.501	658.462	80.000	20.008	100.245	20.051	20.246	0.553
1193.000	658.722	80.001	20.008	100.250	20.051	20.233	0.503
1193.500	659.002	79.999	20.008	100.249	20.051	20.345	0.503
1194.000	659.224	80.001	20.007	100.241	20.051	20.280	0.521
1194.500	659.516	80.000	20.008	100.240	20.051	20.404	0.508
1195.001	659.783	80.000	20.008	100.240	20.051	20.416	0.537
1195.501	660.025	80.001	20.008	100.243	20.052	19.942	0.534
1196.001	660.307	80.001	20.007	100.251	20.053	19.597	0.516
1196.501	660.543	80.000	20.008	100.257	20.055	18.949	0.521
1197.000	660.812	80.000	20.008	100.255	20.053	19.616	0.511
1197.500	661.071	80.000	20.008	100.254	20.054	19.513	0.517
1198.000	661.307	80.000	20.008	100.254	20.054	19.358	0.511
1198.500	661.554	79.999	20.007	100.254	20.052	20.051	0.489
1199.001	661.769	80.000	20.007	100.257	20.053	19.805	0.472
1199.501	662.110	80.001	20.008	100.260	20.052	20.012	0.509
1200.001	662.333	80.000	20.008	100.260	20.049	21.010	0.560
1200.501	662.601	80.002	20.008	100.253	20.048	21.219	0.528
1201.000	662.835	79.999	20.008	100.245	20.051	20.313	0.496
1201.500	663.076	80.001	20.008	100.237	20.049	20.918	0.488
1202.000	663.359	80.001	20.007	100.234	20.050	20.491	0.499
1202.500	663.626	79.999	20.008	100.235	20.049	20.893	0.537
1203.000	663.848	80.000	20.008	100.243	20.050	20.685	0.520
1203.500	664.097	80.000	20.007	100.250	20.052	20.135	0.480
1204.000	664.370	80.000	20.007	100.250	20.052	20.175	0.496
1204.501	664.595	80.001	20.007	100.244	20.051	20.319	0.510
1205.001	664.882	80.000	20.008	100.236	20.049	21.060	0.505
1205.501	665.131	80.000	20.007	100.229	20.048	21.300	0.524
1206.001	665.358	80.000	20.008	100.229	20.048	21.143	0.506
1206.500	665.618	79.999	20.007	100.235	20.048	21.381	0.481
1207.000	665.922	80.000	20.007	100.238	20.049	21.023	0.525
1207.500	666.132	80.000	20.008	100.239	20.047	21.418	0.539
1208.000	666.431	80.001	20.007	100.237	20.047	21.587	0.512
1208.500	666.720	80.001	20.008	100.230	20.046	21.717	0.549
1209.000	666.891	79.999	20.008	100.223	20.047	21.634	0.524
1209.500	667.174	80.000	20.008	100.220	20.047	21.439	0.457
1210.000	667.431	80.000	20.008	100.222	20.048	21.219	0.497
1210.500	667.691	80.001	20.008	100.225	20.044	22.366	0.529
1211.000	667.911	80.000	20.007	100.226	20.047	21.460	0.498
1211.500	668.182	80.000	20.007	100.226	20.048	21.105	0.485
1212.000	668.486	80.000	20.008	100.226	20.048	21.184	0.533
1212.500	668.742	80.001	20.008	100.224	20.046	21.767	0.568
1213.000	668.986	80.001	20.008	100.226	20.049	20.891	0.531
1213.500	669.243	80.000	20.007	100.233	20.047	21.628	0.500
1214.001	669.485	80.001	20.008	100.242	20.048	21.133	0.500
1214.501	669.750	80.001	20.007	100.249	20.050	20.509	0.503
1215.000	669.983	80.000	20.008	100.255	20.050	20.548	0.503
1215.500	670.255	80.001	20.008	100.254	20.050	20.769	0.501
1216.000	670.466	80.000	20.008	100.254	20.049	20.815	0.493
1216.500	670.707	80.000	20.008	100.254	20.052	20.136	0.467
1217.000	670.976	80.001	20.007	100.262	20.055	19.203	0.481
1217.500	671.211	80.000	20.007	100.271	20.052	20.115	0.507
1218.000	671.467	79.999	20.007	100.278	20.052	19.926	0.498
1218.500	671.726	80.002	20.007	100.279	20.052	19.958	0.503
1219.000	671.981	80.001	20.007	100.275	20.054	19.498	0.514
1219.500	672.253	80.001	20.008	100.265	20.052	19.920	0.520
1220.000	672.511	80.001	20.008	100.257	20.054	19.403	0.529
1220.500	672.774	80.000	20.008	100.255	20.051	20.323	0.526
1221.001	672.983	80.001	20.008	100.257	20.051	20.387	0.497
1221.501	673.215	80.000	20.007	100.260	20.052	19.939	0.456
1222.000	673.492	80.001	20.008	100.264	20.054	19.434	0.475
1222.501	673.769	79.999	20.007	100.264	20.053	19.869	0.531
1223.001	674.018	80.001	20.008	100.264	20.052	20.072	0.540
1223.501	674.264	80.000	20.008	100.262	20.049	21.079	0.511
1224.001	674.483	80.001	20.007	100.268	20.047	21.436	0.480
1224.501	674.721	80.001	20.008	100.275	20.049	20.910	0.461
1225.000	674.991	80.000	20.007	100.282	20.049	20.849	0.483
1225.500	675.235	80.000	20.007	100.283	20.049	21.048	0.511
1226.000	675.492	80.001	20.007	100.278	20.051	20.334	0.507
1226.500	675.769	79.999	20.008	100.268	20.049	20.820	0.517
1227.000	675.959	80.002	20.008	100.257	20.051	20.342	0.500
1227.501	676.215	80.000	20.008	100.247	20.051	20.414	0.457
1228.001	676.437	80.001	20.008	100.246	20.050	20.744	0.462
1228.500	676.734	80.001	20.008	100.252	20.051	20.393	0.498
1229.000	676.971	79.999	20.008	100.256	20.050	20.514	0.526
1229.500	677.194	79.999	20.007	100.261	20.050	20.734	0.498
1230.001	677.443	80.001	20.008	100.261	20.049	21.077	0.466
1230.501	677.690	80.000	20.007	100.254	20.050	20.579	0.484
1231.001	677.919	80.000	20.008	100.247	20.052	20.042	0.486
1231.501	678.168	80.001	20.008	100.245	20.053	19.589	0.477
1232.001	678.411	80.000	20.007	100.246	20.050	20.541	0.485
1232.500	678.658	79.999	20.008	100.249	20.052	19.976	0.491
1233.000	678.924	80.001	20.007	100.256	20.052	20.124	0.502
1233.500	679.158	80.000	20.008	100.258	20.052	19.943	0.507
1234.000	679.417	80.001	20.008	100.253	20.049	20.930	0.497
1234.500	679.693	80.000	20.008	100.250	20.050	20.536	0.514
1235.000	679.923	80.001	20.008	100.251	20.051	20.401	0.520
1235.500	680.110	80.001	20.008	100.256	20.051	20.212	0.462
1236.001	680.378	80.000	20.007	100.268	20.048	21.306	0.436
1236.501	680.600	80.002	20.007	100.278	20.046	21.803	0.472
1237.001	680.879	79.999	20.008	100.280	20.050	20.675	0.496
1237.501	681.086	80.001	20.008	100.276	20.050	20.571	0.494
1238.001	681.334	80.001	20.008	100.263	20.046	21.927	0.471
1238.500	681.582	80.001	20.008	100.252	20.050	20.646	0.475
1239.000	681.800	80.001	20.007	100.247	20.048	21.244	0.481
1239.501	682.045	80.001	20.007	100.249	20.051	20.375	0.465
1240.001	682.275	79.999	20.007	100.254	20.049	20.977	0.469
1240.500	682.522	80.001	20.007	100.261	20.050	20.490	0.476
1241.000	682.781	80.002	20.007	100.258	20.046	21.753	0.492
1241.500	683.087	80.000	20.008	100.250	20.047	21.514	0.536
1242.000	683.302	80.000	20.008	100.240	20.049	20.918	0.543
1242.501	683.528	80.000	20.007	100.238	20.047	21.566	0.481
1243.001	683.841	80.001	20.008	100.237	20.050	20.769	0.490
1243.500	684.025	80.001	20.007	100.243	20.047	21.448	0.518
1244.000	684.311	80.001	20.007	100.247	20.048	21.382	0.483
1244.501	684.556	80.001	20.008	100.248	20.051	20.331	0.501
1245.001	684.795	80.001	20.009	100.243	20.050	20.661	0.508
1245.500	685.060	80.002	20.008	100.237	20.049	21.012	0.494
1246.000	685.269	80.001	20.008	100.234	20.047	21.500	0.489
1246.500	685.583	80.000	20.008	100.237	20.050	20.657	0.499
1247.000	685.807	80.001	20.007	100.246	20.050	20.592	0.530
1247.500	686.060	80.000	20.008	100.252	20.050	20.577	0.507
1248.000	686.303	80.002	20.007	100.258	20.050	20.621	0.487
1248.500	686.529	80.001	20.008	100.253	20.050	20.556	0.482
1249.001	686.822	80.001	20.008	100.246	20.051	20.318	0.494
1249.501	687.045	80.001	20.008	100.237	20.048	21.246	0.518
1250.000	687.261	80.001	20.008	100.236	20.052	19.945	0.477
1250.501	687.528	80.000	20.008	100.236	20.051	20.237	0.461
1251.001	687.779	80.001	20.008	100.244	20.051	20.398	0.500
1251.500	688.043	80.001	20.007	100.252	20.050	20.513	0.516
1252.000	688.273	80.000	20.008	100.259	20.052	19.909	0.505
1252.500	688.484	80.001	20.009	100.260	20.052	20.059	0.468
1253.001	688.808	80.000	20.008	100.255	20.051	20.222	0.488
1253.501	689.066	80.001	20.008	100.250	20.052	20.024	0.559
1254.000	689.284	80.000	20.008	100.247	20.051	20.284	0.529
1254.500	689.526	80.001	20.008	100.249	20.048	21.328	0.468
1255.000	689.761	80.000	20.008	100.250	20.048	21.346	0.469
1255.500	690.020	80.000	20.008	100.253	20.048	21.344	0.486
1256.000	690.282	80.001	20.007	100.253	20.050	20.687	0.508
1256.500	690.546	80.001	20.008	100.246	20.049	21.089	0.524
1257.000	690.764	80.000	20.008	100.238	20.048	21.343	0.504
1257.500	690.986	80.002	20.008	100.231	20.049	21.092	0.461
1258.000	691.246	80.000	20.008	100.232	20.047	21.579	0.460
1258.500	691.511	80.000	20.007	100.238	20.047	21.419	0.503
1259.000	691.756	80.000	20.007	100.243	20.048	21.346	0.518
1259.500	692.028	80.001	20.007	100.243	20.048	21.241	0.514
1260.000	692.270	80.001	20.008	100.240	20.047	21.649	0.515
1260.500	692.538	80.000	20.008	100.232	20.046	21.903	0.512
1261.000	692.793	80.001	20.008	100.224	20.048	21.360	0.516
1261.500	693.018	80.001	20.007	100.223	20.046	22.011	0.502
1262.000	693.253	80.000	20.008	100.231	20.044	22.492	0.470
1262.501	693.547	79.999	20.007	100.241	20.047	21.695	0.494
1263.001	693.827	79.999	20.007	100.248	20.046	21.869	0.552
1263.501	694.049	80.001	20.008	100.248	20.046	21.983	0.539
1264.000	694.270	80.000	20.007	100.243	20.049	21.068	0.473
1264.500	694.555	80.002	20.008	100.236	20.048	21.393	0.474
1265.001	694.844	80.001	20.008	100.230	20.049	20.920	0.540
1265.501	695.076	80.000	20.008	100.231	20.049	21.049	0.548
1266.001	695.319	80.000	20.007	100.240	20.048	21.381	0.498
1266.500	695.584	80.000	20.008	100.251	20.047	21.659	0.491
1267.000	695.810	79.999	20.007	100.257	20.048	21.219	0.499
1267.500	696.116	80.001	20.008	100.259	20.047	21.445	0.512
1268.000	696.367	80.000	20.008	100.251	20.047	21.517	0.545
1268.500	696.581	80.000	20.008	100.242	20.044	22.387	0.512
1269.000	696.886	80.001	20.008	100.233	20.047	21.480	0.492
1269.500	697.161	80.000	20.008	100.232	20.046	21.901	0.549
1270.000	697.428	80.001	20.008	100.237	20.047	21.653	0.560
1270.501	697.637	80.000	20.008	100.245	20.046	21.871	0.509
1271.001	697.891	79.999	20.007	100.253	20.045	22.025	0.470
1271.500	698.142	80.001	20.007	100.259	20.047	21.675	0.484
1272.001	698.405	80.000	20.007	100.252	20.047	21.416	0.510
1272.501	698.697	80.000	20.008	100.248	20.048	21.178	0.535
1273.000	698.952	80.001	20.008	100.247	20.047	21.419	0.551
1273.500	699.205	80.001	20.007	100.250	20.048	21.400	0.528
1274.001	699.473	80.001	20.008	100.259	20.048	21.334	0.515
1274.501	699.690	80.001	20.007	100.271	20.047	21.469	0.503
1275.000	699.966	80.000	20.008	100.276	20.050	20.678	0.489
1275.500	700.171	80.002	20.008	100.276	20.050	20.588	0.487
1276.000	700.419	80.000	20.008	100.273	20.047	21.582	0.467
1276.500	700.696	79.999	20.008	100.264	20.048	21.118	0.489
1277.000	700.929	80.000	20.008	100.258	20.044	22.333	0.518
1277.501	701.197	80.000	20.007	100.258	20.048	21.328	0.505
1278.001	701.423	79.999	20.007	100.259	20.048	21.313	0.498
1278.501	701.719	80.001	20.007	100.260	20.049	21.013	0.508
1279.001	701.963	79.999	20.008	100.262	20.046	21.783	0.531
1279.501	702.201	80.000	20.008	100.263	20.047	21.685	0.511
1280.000	702.489	80.001	20.008	100.262	20.047	21.704	0.503
1280.500	702.753	79.999	20.008	100.262	20.048	21.283	0.539
1281.000	703.025	80.000	20.007	100.265	20.046	21.731	0.544
1281.500	703.291	80.000	20.007	100.270	20.049	21.075	0.537
1282.000	703.521	80.001	20.007	100.273	20.048	21.274	0.517
1282.501	703.789	79.999	20.008	100.272	20.049	20.799	0.497
1283.001	704.023	80.002	20.008	100.266	20.049	20.857	0.500
1283.500	704.284	80.000	20.008	100.254	20.049	20.968	0.499
1284.000	704.535	80.000	20.008	100.247	20.048	21.111	0.504
1284.500	704.778	80.001	20.008	100.245	20.049	20.996	0.503
1285.000	705.025	80.000	20.008	100.245	20.049	21.087	0.492
1285.500	705.305	80.000	20.008	100.253	20.050	20.587	0.508
1286.001	705.506	80.001	20.008	100.262	20.048	21.142	0.504
1286.501	705.769	80.000	20.008	100.262	20.050	20.598	0.472
1287.000	706.034	80.000	20.008	100.257	20.049	20.928	0.496
1287.500	706.311	80.001	20.007	100.252	20.052	20.029	0.535
1288.000	706.538	79.999	20.008	100.250	20.052	19.888	0.523
1288.500	706.828	80.002	20.008	100.255	20.051	20.350	0.511
1289.001	707.074	80.001	20.008	100.264	20.051	20.317	0.527
1289.501	707.386	80.000	20.007	100.277	20.050	20.564	0.547
1290.001	707.573	80.000	20.008	100.288	20.047	21.562	0.528
1290.500	707.843	80.001	20.008	100.289	20.049	20.940	0.478
1291.001	708.116	80.001	20.008	100.282	20.048	21.330	0.499
1291.501	708.401	79.998	20.008	100.273	20.048	21.273	0.550
1292.000	708.620	80.001	20.008	100.266	20.047	21.410	0.531
1292.500	708.871	80.001	20.008	100.260	20.046	21.941	0.487
1293.000	709.096	80.001	20.007	100.258	20.048	21.201	0.473
1293.500	709.419	80.000	20.008	100.261	20.044	22.423	0.512
1294.000	709.634	80.001	20.008	100.263	20.047	21.578	0.543
1294.500	709.932	80.001	20.008	100.256	20.044	22.465	0.526
1295.000	710.183	80.001	20.008	100.248	20.045	22.212	0.531
1295.500	710.407	80.000	20.009	100.241	20.043	22.842	0.512
1296.001	710.682	79.999	20.008	100.240	20.045	22.164	0.487
1296.501	710.944	80.002	20.008	100.240	20.044	22.364	0.518
1297.001	711.174	80.001	20.008	100.246	20.044	22.343	0.515
1297.500	711.426	80.000	20.008	100.254	20.046	22.004	0.487
1298.000	711.707	80.002	20.008	100.254	20.047	21.563	0.507
1298.500	711.962	80.002	20.008	100.246	20.044	22.484	0.534
1299.001	712.207	79.999	20.008	100.239	20.047	21.669	0.518
1299.501	712.438	80.001	20.008	100.238	20.045	22.319	0.488
1300.000	712.681	80.001	20.008	100.239	20.045	22.178	0.475
1300.501	712.934	80.001	20.008	100.245	20.044	22.385	0.485
1301.001	713.161	80.000	20.007	100.254	20.048	21.398	0.488
1301.500	713.442	79.999	20.008	100.260	20.048	21.371	0.494
1302.000	713.653	80.000	20.008	100.262	20.047	21.422	0.500
1302.500	713.889	80.000	20.008	100.261	20.045	22.031	0.470
1303.000	714.109	80.000	20.008	100.262	20.047	21.520	0.451
1303.500	714.419	80.002	20.008	100.263	20.047	21.638	0.493
1304.000	714.709	80.000	20.008	100.269	20.047	21.631	0.565
1304.500	714.935	80.001	20.008	100.275	20.046	21.999	0.558
1305.000	715.139	80.000	20.007	100.280	20.045	22.173	0.473
1305.500	715.401	80.000	20.007	100.279	20.045	22.205	0.448
1306.000	715.631	80.000	20.008	100.272	20.045	22.109	0.479
1306.500	715.891	80.001	20.008	100.257	20.044	22.338	0.491
1307.000	716.118	80.001	20.008	100.247	20.046	21.828	0.489
1307.500	716.372	80.001	20.008	100.243	20.044	22.561	0.484
1308.000	716.629	79.999	20.008	100.244	20.043	22.742	0.496
1308.501	716.844	80.000	20.007	100.249	20.047	21.418	0.491
1309.001	717.115	79.999	20.007	100.257	20.047	21.566	0.479
1309.500	717.372	80.001	20.007	100.256	20.047	21.475	0.507
1310.000	717.598	79.999	20.008	100.248	20.047	21.598	0.505
1310.500	717.833	80.001	20.008	100.240	20.047	21.683	0.472
1311.000	718.098	80.000	20.008	100.239	20.045	22.113	0.481
1311.501	718.345	80.000	20.007	100.239	20.046	21.737	0.506
1312.001	718.605	79.999	20.008	100.247	20.046	21.769	0.510
1312.500	718.834	80.001	20.007	100.256	20.046	21.787	0.498
1313.000	719.093	80.000	20.007	100.263	20.045	22.305	0.489
1313.500	719.324	80.000	20.008	100.261	20.047	21.574	0.489
1314.000	719.621	80.000	20.008	100.253	20.045	22.049	0.509
1314.500	719.849	80.000	20.008	100.247	20.047	21.513	0.526
1315.001	720.122	80.001	20.007	100.246	20.045	22.235	0.513
1315.501	720.377	80.000	20.007	100.246	20.045	22.171	0.515
1316.001	720.559	80.000	20.008	100.249	20.046	21.936	0.482
1316.500	720.832	80.000	20.007	100.255	20.044	22.337	0.446
1317.000	721.083	80.000	20.008	100.252	20.044	22.432	0.490
1317.500	721.329	80.001	20.008	100.245	20.046	21.848	0.511
1318.000	721.559	80.000	20.008	100.242	20.046	21.906	0.486
1318.500	721.806	80.001	20.008	100.241	20.044	22.445	0.476
1319.001	722.106	80.000	20.008	100.244	20.046	22.012	0.512
1319.501	722.329	79.999	20.008	100.255	20.045	22.123	0.535
1320.000	722.587	80.000	20.007	100.263	20.045	22.110	0.502
1320.500	722.833	80.000	20.008	100.268	20.047	21.565	0.492
1321.000	723.068	80.001	20.007	100.265	20.046	21.810	0.492
1321.500	723.313	80.002	20.007	100.256	20.044	22.463	0.480
1322.000	723.616	80.000	20.007	100.249	20.047	21.556	0.514
1322.500	723.837	80.000	20.008	100.248	20.045	22.057	0.536
1323.001	724.097	80.001	20.008	100.248	20.043	22.784	0.503
1323.501	724.350	80.001	20.007	100.254	20.044	22.624	0.497
1324.000	724.598	80.000	20.007	100.261	20.045	22.093	0.507
1324.500	724.902	80.001	20.008	100.263	20.045	22.215	0.526
1325.000	725.158	80.001	20.008	100.261	20.045	22.213	0.556
1325.500	725.421	80.000	20.008	100.255	20.045	22.116	0.540
1326.000	725.678	80.001	20.008	100.253	20.047	21.565	0.520
1326.500	725.911	80.001	20.007	100.258	20.048	21.164	0.505
1327.001	726.146	80.000	20.008	100.266	20.046	21.776	0.479
1327.501	726.453	80.001	20.008	100.274	20.046	21.732	0.505
1328.000	726.671	80.001	20.007	100.286	20.046	21.758	0.533
1328.500	726.911	79.999	20.008	100.289	20.045	22.229	0.492
1329.001	727.185	80.001	20.007	100.285	20.047	21.437	0.486
1329.501	727.431	80.001	20.008	100.278	20.047	21.539	0.517
1330.000	727.679	80.001	20.008	100.271	20.049	20.806	0.507
1330.500	727.953	80.000	20.008	100.265	20.047	21.474	0.508
1331.000	728.199	80.001	20.008	100.263	20.048	21.314	0.521
1331.500	728.425	80.001	20.008	100.269	20.046	21.873	0.496
1332.000	728.650	80.000	20.008	100.276	20.046	21.847	0.462
1332.500	728.947	80.001	20.008	100.279	20.046	21.969	0.487
1333.000	729.213	80.000	20.008	100.280	20.049	20.949	0.543
1333.500	729.423	80.000	20.007	100.278	20.047	21.407	0.519
1334.001	729.725	80.002	20.008	100.272	20.048	21.127	0.494
1334.501	729.936	80.000	20.008	100.265	20.051	20.259	0.513
1335.000	730.203	80.001	20.008	100.266	20.048	21.246	0.495
1335.500	730.435	80.001	20.008	100.273	20.048	21.222	0.488
1336.000	730.700	80.001	20.008	100.280	20.051	20.355	0.498
1336.500	730.978	80.000	20.007	100.287	20.049	20.834	0.520
1337.000	731.224	80.001	20.007	100.289	20.051	20.471	0.534
1337.500	731.434	80.000	20.008	100.284	20.051	20.365	0.490
1338.000	731.697	80.000	20.008	100.276	20.053	19.759	0.464
1338.500	731.947	80.001	20.008	100.274	20.053	19.862	0.493
1339.001	732.226	80.000	20.008	100.276	20.054	19.518	0.521
1339.501	732.445	80.000	20.008	100.283	20.055	19.013	0.514
1340.000	732.689	80.001	20.008	100.292	20.055	19.247	0.481
1340.500	732.939	80.001	20.007	100.300	20.054	19.468	0.478
1341.000	733.178	80.000	20.008	100.299	20.050	20.628	0.491
1341.500	733.435	80.001	20.008	100.291	20.052	20.103	0.493
1342.000	733.720	80.001	20.007	100.282	20.052	20.128	0.519
1342.500	733.981	80.001	20.008	100.274	20.049	20.815	0.544
1343.000	734.199	80.001	20.008	100.272	20.048	21.140	0.513
1343.500	734.474	80.000	20.007	100.276	20.050	20.622	0.486
1344.000	734.740	80.000	20.008	100.283	20.049	20.798	0.517
1344.500	734.952	80.000	20.007	100.290	20.048	21.213	0.510
1345.000	735.225	80.001	20.008	100.290	20.047	21.615	0.482
1345.501	735.504	80.001	20.008	100.284	20.046	21.982	0.519
1346.001	735.756	80.000	20.008	100.276	20.048	21.113	0.541
1346.501	735.994	80.001	20.008	100.267	20.048	21.210	0.510
1347.000	736.247	79.999	20.008	100.260	20.047	21.677	0.490
1347.500	736.541	80.000	20.007	100.262	20.050	20.725	0.519
1348.000	736.775	80.001	20.008	100.270	20.048	21.219	0.538
1348.500	737.059	79.999	20.007	100.279	20.046	21.784	0.523
1349.000	737.289	80.000	20.007	100.285	20.044	22.411	0.516
1349.500	737.625	80.001	20.008	100.286	20.045	22.247	0.540
1350.000	737.804	80.001	20.008	100.284	20.045	22.232	0.540
1350.500	738.103	80.000	20.007	100.273	20.045	22.024	0.497
1351.000	738.342	80.001	20.008	100.258	20.045	22.303	0.509
1351.500	738.582	80.001	20.008	100.250	20.045	22.039	0.509
1352.001	738.827	80.001	20.008	100.250	20.046	21.930	0.482
1352.501	739.082	80.000	20.007	100.250	20.045	22.321	0.492
1353.000	739.317	80.000	20.007	100.254	20.042	22.949	0.495
1353.501	739.587	80.000	20.008	100.261	20.045	22.078	0.498
1354.001	739.850	80.000	20.008	100.260	20.044	22.498	0.519
1354.501	740.121	80.001	20.008	100.256	20.048	21.233	0.533
1355.000	740.356	80.001	20.008	100.255	20.045	22.082	0.520
1355.500	740.625	80.000	20.008	100.255	20.047	21.622	0.505
1356.000	740.859	80.000	20.008	100.257	20.044	22.538	0.503
1356.500	741.113	80.000	20.008	100.260	20.044	22.513	0.495
1357.000	741.384	80.001	20.007	100.265	20.044	22.481	0.506
1357.500	741.628	80.000	20.008	100.266	20.042	23.005	0.520
1358.000	741.891	79.999	20.008	100.266	20.042	22.939	0.512
1358.500	742.126	80.001	20.008	100.259	20.040	23.600	0.503
1359.000	742.393	80.000	20.008	100.253	20.044	22.337	0.500
