Sample Weight (mg):	3.01
Heating Rate (C/s):	0.5
Combustor Temp (C):	900
N2 Flow Rate (cc/min):	80
O2 Flow Rate (cc/min):	20
Time (s)	Temperature (C)	N2 flow rate (cc/min)	O2 flow rate (cc/min)	Flow Rate (cc/min)	Oxygen (%)	HRR (W/g)	Heating rate (C/s)
0.000	89.684	80.002	20.008	100.006	20.180	2.366	-0.101
0.500	89.651	80.000	20.008	100.032	20.178	2.586	-0.117
1.000	89.636	80.000	20.008	100.070	20.172	3.149	-0.077
1.500	89.559	80.001	20.008	100.116	20.169	3.508	-0.070
2.000	89.505	80.002	20.007	100.171	20.162	4.202	-0.112
2.500	89.483	80.000	20.008	100.231	20.159	4.554	-0.104
3.000	89.421	80.002	20.008	100.287	20.155	4.997	-0.080
3.500	89.399	80.000	20.008	100.333	20.151	5.384	-0.084
4.000	89.304	80.000	20.008	100.371	20.149	5.579	-0.100
4.500	89.306	80.001	20.008	100.394	20.146	5.841	-0.105
5.000	89.278	80.001	20.008	100.405	20.143	6.209	-0.060
5.500	89.206	79.999	20.008	100.416	20.141	6.411	-0.063
6.000	89.143	80.001	20.008	100.431	20.138	6.707	-0.117
6.500	89.114	80.000	20.008	100.448	20.136	6.906	-0.114
7.000	89.054	80.001	20.008	100.465	20.135	7.057	-0.090
7.500	89.081	80.000	20.008	100.478	20.133	7.268	-0.061
8.000	89.030	80.001	20.008	100.481	20.130	7.519	-0.029
8.500	88.933	80.000	20.008	100.477	20.131	7.473	-0.086
9.000	88.912	80.001	20.008	100.470	20.128	7.742	-0.132
9.500	88.885	80.001	20.008	100.469	20.126	7.930	-0.083
10.000	88.843	80.000	20.008	100.474	20.126	7.998	-0.059
10.500	88.806	80.001	20.008	100.487	20.126	8.026	-0.074
11.000	88.787	79.999	20.008	100.495	20.125	8.069	-0.067
11.500	88.708	80.002	20.008	100.502	20.128	7.800	-0.077
12.000	88.728	80.000	20.008	100.497	20.124	8.164	-0.078
12.500	88.683	80.001	20.008	100.489	20.129	7.708	-0.042
13.000	88.700	80.000	20.008	100.476	20.126	7.981	-0.027
13.500	88.635	80.000	20.008	100.472	20.126	7.945	-0.038
14.000	88.648	80.000	20.008	100.473	20.127	7.915	-0.050
14.500	88.604	80.000	20.008	100.478	20.127	7.907	-0.042
15.000	88.575	80.000	20.008	100.486	20.124	8.148	-0.052
15.500	88.556	80.001	20.008	100.491	20.125	8.097	-0.060
16.000	88.584	79.999	20.008	100.490	20.123	8.311	-0.020
16.500	88.555	80.002	20.008	100.483	20.124	8.137	0.003
17.000	88.473	80.001	20.008	100.478	20.121	8.481	-0.056
17.500	88.501	80.001	20.008	100.478	20.122	8.385	-0.082
18.000	88.445	80.002	20.008	100.486	20.122	8.415	-0.041
18.500	88.478	80.000	20.008	100.504	20.121	8.521	-0.025
19.000	88.463	80.001	20.008	100.527	20.121	8.518	-0.003
19.500	88.501	80.001	20.008	100.545	20.120	8.619	0.020
20.000	88.446	79.999	20.008	100.551	20.119	8.663	0.002
20.500	88.442	80.002	20.008	100.551	20.122	8.382	-0.038
21.000	88.412	80.000	20.008	100.550	20.120	8.602	-0.046
21.500	88.438	80.002	20.008	100.551	20.119	8.695	-0.019
22.001	88.404	80.001	20.008	100.555	20.123	8.342	-0.007
22.500	88.414	80.000	20.008	100.561	20.118	8.815	-0.016
23.000	88.375	80.001	20.008	100.563	20.119	8.768	-0.026
23.500	88.365	80.001	20.008	100.559	20.116	8.985	-0.039
24.000	88.399	80.000	20.008	100.548	20.117	8.940	-0.012
24.500	88.377	80.001	20.008	100.532	20.117	8.952	0.018
25.000	88.359	80.001	20.008	100.520	20.117	8.896	-0.014
25.500	88.351	80.001	20.008	100.516	20.114	9.189	-0.033
26.000	88.409	80.001	20.008	100.519	20.116	9.064	0.012
26.500	88.406	80.000	20.008	100.529	20.116	8.999	0.052
27.000	88.423	80.001	20.008	100.544	20.112	9.419	0.034
27.500	88.448	80.000	20.008	100.556	20.114	9.257	0.028
28.000	88.429	80.001	20.008	100.563	20.111	9.553	0.024
28.500	88.441	80.001	20.008	100.562	20.110	9.693	-0.001
29.000	88.442	80.000	20.008	100.560	20.108	9.886	0.003
29.500	88.516	80.000	20.008	100.560	20.110	9.700	0.045
30.001	88.487	80.002	20.008	100.567	20.107	9.971	0.060
30.500	88.519	80.001	20.007	100.578	20.105	10.199	0.024
31.000	88.517	80.001	20.008	100.592	20.106	10.109	0.016
31.500	88.528	80.001	20.008	100.603	20.103	10.368	0.020
32.000	88.537	80.001	20.008	100.611	20.101	10.619	0.015
32.500	88.577	80.001	20.008	100.611	20.101	10.574	0.035
33.000	88.562	80.000	20.008	100.607	20.099	10.817	0.037
33.500	88.658	80.000	20.008	100.599	20.098	10.902	0.053
34.000	88.627	80.001	20.008	100.598	20.100	10.664	0.073
34.500	88.673	80.001	20.008	100.605	20.099	10.819	0.040
35.000	88.690	80.001	20.008	100.619	20.099	10.822	0.039
35.500	88.709	80.001	20.008	100.638	20.097	11.020	0.050
36.000	88.739	80.000	20.008	100.655	20.098	10.912	0.042
36.500	88.774	80.000	20.008	100.662	20.096	11.164	0.057
37.000	88.795	80.000	20.008	100.655	20.096	11.157	0.061
37.500	88.913	80.000	20.008	100.641	20.097	10.964	0.097
38.000	88.931	80.002	20.008	100.627	20.095	11.183	0.138
38.500	88.909	80.000	20.008	100.623	20.095	11.258	0.066
39.000	88.972	80.001	20.008	100.631	20.095	11.188	0.018
39.500	89.056	80.001	20.008	100.647	20.098	10.952	0.094
40.000	89.040	80.001	20.008	100.664	20.099	10.804	0.108
40.500	89.141	80.001	20.008	100.673	20.098	10.923	0.076
41.000	89.225	80.000	20.008	100.673	20.097	11.010	0.135
41.500	89.265	80.002	20.008	100.664	20.099	10.768	0.155
42.000	89.316	79.999	20.009	100.655	20.101	10.587	0.108
42.501	89.348	80.001	20.008	100.647	20.098	10.937	0.087
43.001	89.408	80.001	20.008	100.646	20.102	10.526	0.087
43.500	89.504	80.001	20.008	100.653	20.102	10.514	0.124
44.000	89.548	80.001	20.008	100.663	20.104	10.325	0.148
44.500	89.615	79.999	20.008	100.664	20.102	10.540	0.125
45.000	89.658	80.000	20.008	100.662	20.103	10.422	0.111
45.500	89.708	80.001	20.008	100.655	20.103	10.358	0.102
46.000	89.829	80.001	20.008	100.642	20.103	10.390	0.132
46.500	89.883	80.000	20.008	100.633	20.102	10.447	0.173
47.000	89.925	80.001	20.008	100.632	20.104	10.266	0.136
47.500	89.994	80.000	20.008	100.636	20.102	10.525	0.104
48.000	90.064	80.002	20.008	100.648	20.103	10.365	0.125
48.500	90.144	80.000	20.008	100.659	20.100	10.732	0.145
49.000	90.238	80.001	20.008	100.664	20.103	10.362	0.162
49.500	90.333	79.999	20.008	100.665	20.101	10.553	0.182
50.000	90.405	80.001	20.008	100.662	20.104	10.299	0.178
50.501	90.472	80.000	20.008	100.656	20.103	10.341	0.153
51.001	90.594	80.001	20.008	100.658	20.105	10.132	0.164
51.500	90.693	80.002	20.008	100.660	20.102	10.480	0.205
52.000	90.792	80.001	20.008	100.664	20.103	10.394	0.210
52.500	90.804	80.001	20.008	100.665	20.103	10.360	0.154
53.000	90.932	80.001	20.008	100.659	20.102	10.521	0.125
53.500	91.012	80.001	20.008	100.646	20.101	10.639	0.174
54.000	91.082	80.000	20.008	100.633	20.100	10.682	0.179
54.500	91.165	80.001	20.008	100.619	20.101	10.628	0.152
55.000	91.305	80.000	20.008	100.611	20.100	10.743	0.189
55.501	91.361	80.002	20.008	100.613	20.098	10.865	0.209
56.001	91.506	80.001	20.008	100.620	20.101	10.634	0.198
56.500	91.565	80.001	20.008	100.628	20.099	10.821	0.202
57.000	91.656	80.000	20.008	100.637	20.099	10.808	0.177
57.501	91.758	80.001	20.008	100.644	20.096	11.166	0.172
58.001	91.862	80.001	20.008	100.641	20.094	11.347	0.200
58.500	91.984	80.001	20.008	100.633	20.099	10.819	0.216
59.000	92.063	80.001	20.008	100.625	20.097	11.018	0.213
59.500	92.176	80.001	20.008	100.618	20.097	10.965	0.197
60.000	92.295	80.000	20.008	100.618	20.098	10.935	0.212
60.500	92.347	80.002	20.008	100.629	20.094	11.325	0.201
61.000	92.452	80.001	20.008	100.640	20.094	11.348	0.164
61.500	92.524	80.000	20.008	100.648	20.091	11.637	0.167
62.000	92.659	80.002	20.008	100.652	20.093	11.480	0.192
62.501	92.802	80.000	20.008	100.646	20.092	11.546	0.243
63.001	92.886	80.000	20.008	100.638	20.092	11.580	0.253
63.500	92.979	80.003	20.008	100.638	20.091	11.599	0.202
64.000	93.116	80.000	20.008	100.646	20.093	11.403	0.203
64.500	93.209	80.000	20.008	100.660	20.090	11.743	0.229
65.001	93.341	80.000	20.008	100.682	20.090	11.700	0.227
65.501	93.475	80.002	20.008	100.696	20.090	11.744	0.246
66.000	93.595	80.000	20.008	100.698	20.088	11.962	0.260
66.500	93.718	80.001	20.008	100.692	20.088	11.968	0.249
67.000	93.861	80.001	20.008	100.680	20.089	11.830	0.254
67.500	93.972	80.002	20.008	100.668	20.089	11.801	0.260
68.000	94.075	80.002	20.008	100.666	20.090	11.697	0.234
68.501	94.183	80.000	20.008	100.673	20.091	11.670	0.213
69.001	94.304	80.001	20.008	100.685	20.093	11.466	0.220
69.500	94.408	80.001	20.008	100.695	20.093	11.469	0.227
70.000	94.564	80.001	20.008	100.702	20.091	11.694	0.242
70.500	94.704	80.001	20.008	100.702	20.092	11.535	0.278
71.000	94.845	80.002	20.008	100.691	20.090	11.695	0.289
71.501	94.989	80.001	20.008	100.682	20.091	11.609	0.283
72.001	95.095	80.001	20.008	100.680	20.091	11.671	0.268
72.500	95.275	80.000	20.008	100.686	20.092	11.530	0.269
73.001	95.390	80.001	20.008	100.695	20.089	11.887	0.290
73.501	95.523	79.999	20.008	100.710	20.092	11.549	0.271
74.000	95.648	80.002	20.008	100.719	20.089	11.842	0.253
74.500	95.840	80.000	20.008	100.718	20.090	11.793	0.287
75.000	95.978	80.001	20.008	100.710	20.087	12.051	0.323
75.500	96.113	80.001	20.008	100.694	20.089	11.891	0.302
76.000	96.268	80.001	20.008	100.678	20.087	12.060	0.282
76.500	96.401	80.000	20.008	100.671	20.088	11.933	0.289
77.000	96.541	80.004	20.008	100.672	20.086	12.136	0.281
77.500	96.716	80.000	20.008	100.677	20.086	12.175	0.294
78.000	96.808	80.002	20.008	100.685	20.087	12.049	0.291
78.501	96.995	80.001	20.008	100.692	20.083	12.464	0.273
79.001	97.147	80.000	20.008	100.687	20.085	12.275	0.309
79.500	97.283	80.002	20.008	100.678	20.084	12.329	0.314
80.000	97.497	80.000	20.008	100.668	20.086	12.174	0.319
80.501	97.602	80.002	20.008	100.665	20.085	12.260	0.335
81.001	97.747	80.001	20.008	100.666	20.082	12.548	0.285
81.500	97.922	80.000	20.008	100.675	20.083	12.506	0.285
82.001	98.095	80.002	20.008	100.686	20.084	12.380	0.334
82.501	98.262	80.000	20.008	100.694	20.087	12.055	0.344
83.001	98.420	80.001	20.008	100.696	20.084	12.396	0.333
83.500	98.566	80.002	20.008	100.692	20.087	12.089	0.314
84.000	98.791	80.001	20.008	100.685	20.085	12.263	0.337
84.500	98.908	80.002	20.008	100.681	20.084	12.341	0.357
85.001	99.136	80.000	20.008	100.684	20.087	12.092	0.343
85.501	99.268	80.001	20.008	100.690	20.085	12.226	0.352
86.000	99.492	80.003	20.008	100.702	20.083	12.438	0.359
86.500	99.654	80.001	20.008	100.714	20.086	12.171	0.371
87.000	99.804	80.001	20.008	100.719	20.085	12.273	0.348
87.500	99.965	80.001	20.008	100.715	20.086	12.118	0.312
88.000	100.154	80.001	20.008	100.708	20.086	12.211	0.331
88.500	100.361	80.001	20.008	100.699	20.086	12.175	0.373
89.000	100.557	80.000	20.008	100.693	20.084	12.335	0.399
89.500	100.713	80.001	20.008	100.697	20.085	12.314	0.377
90.000	100.941	80.001	20.008	100.705	20.085	12.308	0.368
90.500	101.073	80.000	20.008	100.712	20.085	12.287	0.372
91.000	101.261	80.001	20.008	100.716	20.086	12.131	0.340
91.500	101.467	80.001	20.008	100.713	20.086	12.136	0.357
92.000	101.656	80.001	20.008	100.699	20.083	12.433	0.394
92.501	101.824	80.001	20.008	100.689	20.085	12.265	0.376
93.001	102.018	80.000	20.008	100.685	20.085	12.235	0.360
93.500	102.226	80.000	20.008	100.689	20.084	12.358	0.382
94.000	102.413	80.001	20.008	100.699	20.084	12.423	0.398
94.500	102.610	80.000	20.008	100.711	20.086	12.202	0.390
95.000	102.850	80.002	20.008	100.714	20.085	12.224	0.410
95.501	103.025	80.001	20.008	100.711	20.088	11.970	0.426
96.001	103.232	80.001	20.008	100.703	20.086	12.148	0.399
96.500	103.447	80.000	20.008	100.695	20.086	12.133	0.402
97.000	103.667	80.000	20.008	100.692	20.086	12.154	0.428
97.500	103.874	80.002	20.008	100.697	20.084	12.333	0.431
98.000	104.069	80.001	20.008	100.699	20.083	12.473	0.414
98.500	104.309	80.001	20.008	100.700	20.085	12.279	0.419
99.000	104.512	80.001	20.008	100.700	20.086	12.133	0.440
99.500	104.739	80.000	20.007	100.697	20.085	12.251	0.436
100.000	104.927	80.001	20.008	100.687	20.085	12.290	0.422
100.500	105.134	80.000	20.008	100.684	20.086	12.196	0.405
101.000	105.394	80.001	20.008	100.686	20.084	12.325	0.431
101.501	105.557	80.001	20.008	100.694	20.085	12.297	0.445
102.001	105.790	80.000	20.008	100.702	20.082	12.601	0.409
102.501	105.989	80.000	20.008	100.715	20.085	12.290	0.414
103.001	106.216	80.001	20.008	100.719	20.083	12.528	0.429
103.500	106.452	80.001	20.008	100.713	20.082	12.574	0.445
104.000	106.671	80.001	20.008	100.699	20.083	12.482	0.459
104.500	106.842	80.000	20.008	100.687	20.084	12.339	0.423
105.000	107.079	80.001	20.008	100.678	20.086	12.132	0.399
105.500	107.306	80.000	20.008	100.675	20.084	12.325	0.436
106.000	107.498	80.002	20.008	100.682	20.083	12.481	0.441
106.500	107.686	80.001	20.008	100.695	20.082	12.589	0.399
107.000	107.996	80.001	20.008	100.700	20.086	12.176	0.439
107.500	108.196	80.001	20.009	100.700	20.085	12.263	0.504
108.000	108.376	80.001	20.008	100.700	20.085	12.271	0.445
108.501	108.634	80.001	20.008	100.696	20.087	12.105	0.409
109.001	108.844	80.000	20.008	100.690	20.087	12.108	0.453
109.500	109.054	80.002	20.008	100.697	20.086	12.204	0.444
110.000	109.310	80.000	20.008	100.704	20.087	12.085	0.444
110.500	109.555	80.001	20.008	100.711	20.086	12.191	0.483
111.000	109.803	80.001	20.008	100.719	20.086	12.191	0.496
111.500	110.022	80.001	20.008	100.720	20.087	12.032	0.480
112.000	110.261	80.002	20.008	100.713	20.086	12.181	0.463
112.500	110.465	80.000	20.008	100.704	20.085	12.234	0.451
113.001	110.729	80.001	20.008	100.697	20.086	12.173	0.456
113.501	110.992	80.001	20.008	100.691	20.086	12.194	0.498
114.000	111.175	80.001	20.008	100.697	20.084	12.351	0.487
114.500	111.423	80.001	20.007	100.705	20.086	12.191	0.439
115.000	111.685	80.001	20.008	100.716	20.087	12.069	0.470
115.500	111.897	80.000	20.008	100.720	20.086	12.125	0.492
116.000	112.148	80.002	20.008	100.718	20.084	12.363	0.468
116.500	112.411	80.001	20.008	100.710	20.087	12.085	0.489
117.000	112.607	80.001	20.008	100.702	20.084	12.390	0.486
117.500	112.856	80.000	20.008	100.699	20.084	12.424	0.451
118.001	113.096	80.001	20.008	100.703	20.085	12.323	0.467
118.501	113.358	80.002	20.008	100.710	20.083	12.482	0.496
119.000	113.649	80.000	20.008	100.712	20.082	12.534	0.528
119.500	113.812	80.001	20.008	100.711	20.087	12.041	0.503
120.000	114.127	80.001	20.008	100.707	20.082	12.547	0.466
120.501	114.354	80.001	20.008	100.697	20.085	12.254	0.510
121.001	114.586	80.001	20.008	100.685	20.084	12.360	0.500
121.500	114.794	80.001	20.008	100.685	20.086	12.214	0.450
122.001	115.124	80.001	20.008	100.688	20.084	12.348	0.489
122.501	115.368	80.002	20.008	100.695	20.087	12.103	0.556
123.001	115.623	80.000	20.008	100.700	20.088	12.006	0.537
123.501	115.883	80.002	20.008	100.704	20.085	12.310	0.507
124.000	116.121	80.001	20.008	100.702	20.087	12.102	0.506
124.500	116.419	80.001	20.008	100.696	20.087	12.025	0.518
125.000	116.663	80.001	20.008	100.689	20.087	12.086	0.539
125.500	116.915	80.001	20.008	100.689	20.088	11.941	0.519
126.000	117.170	80.001	20.008	100.697	20.087	12.021	0.501
126.500	117.416	80.001	20.008	100.707	20.087	12.085	0.504
127.000	117.675	80.002	20.008	100.714	20.087	12.038	0.504
127.500	117.944	80.000	20.008	100.715	20.089	11.829	0.516
128.000	118.205	80.002	20.008	100.712	20.088	12.005	0.529
128.500	118.444	80.003	20.008	100.704	20.091	11.636	0.515
129.000	118.749	80.002	20.008	100.696	20.090	11.795	0.522
129.500	118.958	80.002	20.008	100.697	20.090	11.730	0.529
130.000	119.258	80.000	20.008	100.705	20.090	11.712	0.512
130.500	119.509	80.002	20.008	100.713	20.087	12.011	0.530
131.000	119.777	80.000	20.008	100.717	20.088	11.915	0.535
131.500	120.016	80.001	20.008	100.716	20.090	11.754	0.513
132.000	120.298	80.001	20.008	100.710	20.090	11.765	0.514
132.500	120.571	80.001	20.008	100.700	20.089	11.798	0.538
133.000	120.821	80.000	20.008	100.692	20.090	11.775	0.539
133.501	121.076	80.002	20.008	100.689	20.091	11.689	0.514
134.000	121.377	80.000	20.008	100.697	20.092	11.494	0.530
134.500	121.576	80.002	20.008	100.704	20.092	11.552	0.528
135.000	121.883	80.000	20.008	100.706	20.091	11.646	0.503
135.500	122.189	80.002	20.008	100.706	20.090	11.724	0.560
136.000	122.464	80.001	20.008	100.705	20.093	11.455	0.597
136.500	122.726	80.000	20.008	100.697	20.094	11.373	0.559
137.000	123.014	80.001	20.008	100.693	20.095	11.272	0.543
137.500	123.284	80.001	20.008	100.700	20.091	11.619	0.554
138.000	123.538	80.002	20.008	100.708	20.093	11.447	0.541
138.500	123.799	80.000	20.008	100.716	20.092	11.519	0.519
139.000	124.101	80.001	20.008	100.722	20.092	11.560	0.539
139.500	124.389	80.001	20.008	100.720	20.095	11.240	0.576
140.000	124.631	80.002	20.008	100.710	20.095	11.226	0.560
140.500	124.943	80.001	20.008	100.699	20.096	11.094	0.542
141.000	125.154	80.001	20.008	100.690	20.096	11.106	0.539
141.500	125.488	80.003	20.008	100.689	20.094	11.283	0.534
142.000	125.732	80.000	20.008	100.694	20.095	11.231	0.561
142.500	125.965	80.000	20.008	100.697	20.095	11.275	0.528
143.000	126.257	80.002	20.008	100.695	20.096	11.160	0.502
143.500	126.542	80.000	20.007	100.688	20.095	11.198	0.551
144.000	126.906	80.002	20.008	100.677	20.094	11.351	0.613
144.500	127.165	80.001	20.008	100.664	20.096	11.156	0.636
145.000	127.425	80.001	20.008	100.656	20.095	11.262	0.571
145.500	127.690	80.001	20.008	100.659	20.097	11.052	0.522
146.000	128.002	80.001	20.008	100.667	20.093	11.482	0.551
146.500	128.238	80.000	20.007	100.674	20.096	11.116	0.563
147.000	128.518	80.002	20.008	100.683	20.094	11.274	0.532
147.500	128.834	80.001	20.008	100.684	20.096	11.148	0.556
148.000	129.126	80.000	20.008	100.677	20.095	11.237	0.603
148.500	129.379	80.001	20.008	100.669	20.095	11.204	0.576
149.000	129.681	80.001	20.008	100.666	20.095	11.187	0.550
149.500	129.912	80.000	20.008	100.665	20.098	10.943	0.544
150.000	130.224	80.002	20.008	100.669	20.097	11.039	0.539
150.500	130.530	80.001	20.008	100.676	20.097	11.037	0.581
151.000	130.808	80.001	20.008	100.678	20.097	11.042	0.600
151.500	131.077	80.001	20.008	100.673	20.097	10.973	0.565
152.000	131.394	80.000	20.008	100.665	20.098	10.933	0.567
152.500	131.707	80.000	20.008	100.655	20.097	11.006	0.609
153.000	131.966	80.000	20.008	100.648	20.098	10.880	0.601
153.500	132.223	80.000	20.007	100.654	20.097	11.040	0.544
154.000	132.480	80.001	20.008	100.662	20.098	10.939	0.515
154.500	132.785	80.001	20.008	100.672	20.096	11.143	0.538
155.000	133.088	79.999	20.008	100.679	20.097	11.043	0.585
155.500	133.406	80.000	20.008	100.679	20.097	11.020	0.614
156.000	133.693	80.000	20.008	100.669	20.097	10.964	0.613
156.500	133.987	80.001	20.008	100.654	20.098	10.935	0.593
157.000	134.266	80.002	20.008	100.644	20.096	11.161	0.577
157.500	134.570	80.000	20.008	100.639	20.098	10.935	0.579
158.000	134.850	80.000	20.008	100.642	20.098	10.863	0.583
158.500	135.159	80.001	20.008	100.648	20.100	10.688	0.586
159.000	135.422	80.001	20.008	100.655	20.100	10.730	0.580
159.500	135.722	80.001	20.008	100.657	20.099	10.846	0.567
160.000	135.966	80.001	20.008	100.649	20.102	10.507	0.554
160.500	136.242	80.000	20.008	100.640	20.099	10.810	0.532
161.000	136.545	80.001	20.008	100.635	20.101	10.584	0.549
161.500	136.846	80.000	20.008	100.634	20.100	10.685	0.592
162.000	137.102	80.002	20.008	100.634	20.099	10.774	0.581
162.500	137.390	80.000	20.008	100.644	20.097	10.960	0.550
163.000	137.677	80.001	20.008	100.656	20.100	10.719	0.559
163.500	137.981	80.001	20.008	100.659	20.100	10.670	0.582
164.000	138.250	80.000	20.007	100.660	20.101	10.567	0.582
164.500	138.572	80.001	20.008	100.660	20.102	10.485	0.582
165.000	138.806	80.000	20.008	100.657	20.099	10.810	0.574
165.500	139.073	80.002	20.008	100.651	20.098	10.896	0.528
166.000	139.373	80.000	20.008	100.656	20.099	10.840	0.534
166.500	139.666	80.001	20.008	100.663	20.101	10.620	0.580
167.000	139.975	80.000	20.008	100.671	20.102	10.484	0.598
167.500	140.231	80.000	20.008	100.679	20.099	10.804	0.583
168.000	140.537	80.001	20.008	100.687	20.101	10.626	0.563
168.500	140.804	80.000	20.008	100.682	20.103	10.383	0.567
169.000	141.121	80.001	20.008	100.676	20.103	10.409	0.579
169.500	141.377	80.001	20.008	100.667	20.104	10.259	0.578
170.000	141.668	80.001	20.008	100.659	20.105	10.171	0.560
170.500	141.930	80.000	20.008	100.656	20.106	10.033	0.550
171.000	142.213	80.000	20.008	100.662	20.105	10.171	0.549
171.500	142.494	80.001	20.008	100.668	20.104	10.266	0.555
172.000	142.755	80.001	20.008	100.669	20.105	10.186	0.553
172.500	143.028	80.000	20.008	100.662	20.104	10.238	0.538
173.000	143.336	80.000	20.008	100.650	20.106	10.039	0.558
173.500	143.621	80.001	20.008	100.635	20.105	10.184	0.587
174.000	143.979	80.000	20.008	100.625	20.108	9.846	0.617
174.500	144.252	80.002	20.008	100.625	20.105	10.184	0.637
175.000	144.585	80.001	20.008	100.634	20.106	10.110	0.619
175.500	144.835	80.000	20.008	100.641	20.103	10.351	0.595
176.000	145.106	80.000	20.008	100.648	20.106	10.090	0.552
176.500	145.431	80.001	20.008	100.645	20.106	10.079	0.558
177.000	145.705	80.000	20.008	100.636	20.107	10.015	0.597
177.500	145.963	80.001	20.008	100.626	20.105	10.223	0.565
178.000	146.264	80.001	20.008	100.620	20.105	10.162	0.546
178.500	146.562	80.002	20.008	100.621	20.105	10.147	0.579
179.000	146.796	80.000	20.008	100.626	20.108	9.854	0.566
179.500	147.071	80.000	20.007	100.635	20.104	10.242	0.521
180.000	147.384	80.000	20.007	100.638	20.107	9.968	0.548
180.500	147.666	80.000	20.008	100.640	20.107	10.002	0.591
181.000	147.942	80.001	20.008	100.631	20.106	10.111	0.577
181.500	148.246	80.001	20.008	100.623	20.104	10.254	0.569
182.000	148.541	80.002	20.008	100.615	20.104	10.234	0.589
182.500	148.856	80.000	20.008	100.615	20.105	10.122	0.605
183.000	149.144	80.000	20.008	100.621	20.105	10.134	0.607
183.500	149.395	80.000	20.008	100.630	20.103	10.379	0.571
184.000	149.668	80.001	20.008	100.639	20.104	10.304	0.531
184.500	149.974	80.002	20.008	100.642	20.105	10.134	0.552
185.000	150.261	80.000	20.008	100.639	20.104	10.312	0.586
185.500	150.568	80.001	20.008	100.630	20.104	10.254	0.594
186.000	150.897	80.002	20.008	100.621	20.107	10.012	0.615
186.500	151.145	80.000	20.008	100.614	20.105	10.141	0.607
187.000	151.422	79.999	20.008	100.612	20.107	10.017	0.551
187.500	151.709	80.001	20.008	100.618	20.107	9.973	0.544
188.000	151.993	80.002	20.007	100.625	20.107	9.948	0.567
188.500	152.253	80.002	20.008	100.628	20.109	9.755	0.558
189.000	152.599	79.998	20.008	100.626	20.109	9.719	0.575
189.500	152.905	80.002	20.008	100.625	20.109	9.784	0.629
190.000	153.126	80.001	20.008	100.619	20.109	9.740	0.590
190.500	153.402	80.000	20.008	100.613	20.109	9.731	0.512
191.000	153.687	80.001	20.008	100.616	20.110	9.688	0.529
191.500	153.995	80.000	20.008	100.622	20.109	9.731	0.577
192.000	154.247	80.002	20.008	100.623	20.113	9.292	0.576
192.500	154.591	80.000	20.008	100.622	20.113	9.372	0.578
193.000	154.810	80.002	20.008	100.616	20.111	9.503	0.579
193.500	155.097	80.000	20.008	100.603	20.111	9.527	0.535
194.000	155.392	80.001	20.008	100.591	20.115	9.108	0.545
194.500	155.705	80.001	20.008	100.588	20.113	9.286	0.595
195.000	155.979	80.001	20.008	100.588	20.113	9.318	0.597
195.500	156.265	80.000	20.008	100.594	20.112	9.436	0.573
196.000	156.559	80.000	20.008	100.602	20.112	9.483	0.570
196.500	156.846	80.001	20.008	100.608	20.110	9.639	0.580
197.000	157.111	80.003	20.008	100.603	20.112	9.399	0.566
197.500	157.439	80.000	20.008	100.596	20.114	9.220	0.572
198.000	157.622	80.001	20.008	100.591	20.111	9.517	0.552
198.500	157.931	80.002	20.008	100.591	20.113	9.317	0.502
199.000	158.181	80.001	20.008	100.594	20.110	9.661	0.526
199.500	158.482	80.001	20.008	100.603	20.109	9.802	0.554
200.000	158.753	80.001	20.008	100.615	20.113	9.328	0.561
200.500	159.031	80.001	20.008	100.620	20.113	9.338	0.560
201.000	159.314	80.002	20.008	100.613	20.114	9.220	0.555
201.500	159.608	80.000	20.008	100.604	20.112	9.437	0.569
202.000	159.878	80.000	20.008	100.594	20.114	9.262	0.571
202.500	160.159	80.001	20.008	100.582	20.114	9.221	0.558
203.000	160.456	80.001	20.008	100.578	20.111	9.492	0.564
203.500	160.711	80.000	20.008	100.584	20.114	9.253	0.565
204.000	161.008	80.001	20.008	100.592	20.111	9.584	0.552
204.500	161.326	80.002	20.008	100.601	20.111	9.569	0.584
205.000	161.562	80.003	20.008	100.602	20.113	9.350	0.585
205.500	161.839	80.002	20.008	100.601	20.111	9.506	0.534
206.000	162.103	80.001	20.008	100.593	20.112	9.450	0.527
206.500	162.421	80.002	20.008	100.585	20.110	9.625	0.562
207.000	162.659	79.999	20.008	100.581	20.112	9.431	0.569
207.500	162.990	80.001	20.008	100.585	20.114	9.236	0.562
208.000	163.268	80.000	20.008	100.593	20.113	9.306	0.588
208.500	163.553	80.002	20.008	100.601	20.113	9.370	0.586
209.000	163.831	80.002	20.008	100.608	20.115	9.157	0.563
209.500	164.112	80.001	20.008	100.610	20.112	9.462	0.561
210.000	164.381	80.001	20.008	100.608	20.111	9.565	0.554
210.501	164.625	80.001	20.008	100.603	20.114	9.281	0.532
211.001	164.905	80.002	20.008	100.602	20.113	9.308	0.519
211.500	165.181	80.002	20.008	100.602	20.113	9.360	0.540
212.000	165.438	80.001	20.008	100.605	20.111	9.584	0.545
212.500	165.723	80.001	20.008	100.608	20.112	9.473	0.537
213.000	165.995	80.000	20.008	100.607	20.111	9.562	0.549
213.501	166.268	80.001	20.008	100.597	20.108	9.852	0.551
214.001	166.558	80.001	20.008	100.583	20.108	9.817	0.554
214.500	166.771	80.002	20.008	100.570	20.107	9.965	0.533
215.000	167.042	80.002	20.008	100.562	20.110	9.673	0.493
215.501	167.329	80.000	20.008	100.563	20.109	9.755	0.521
216.000	167.615	80.000	20.008	100.572	20.109	9.801	0.565
216.500	167.910	80.001	20.008	100.582	20.110	9.657	0.577
217.000	168.174	80.001	20.008	100.586	20.110	9.676	0.570
217.500	168.466	80.001	20.008	100.586	20.112	9.411	0.557
218.000	168.754	80.000	20.008	100.583	20.112	9.454	0.568
218.500	168.984	80.002	20.008	100.581	20.111	9.591	0.549
219.000	169.264	80.000	20.008	100.588	20.110	9.686	0.514
219.500	169.531	80.003	20.008	100.603	20.108	9.852	0.529
220.000	169.742	80.002	20.008	100.619	20.110	9.660	0.513
220.500	170.028	80.001	20.008	100.632	20.111	9.543	0.487
221.000	170.297	80.002	20.008	100.635	20.111	9.531	0.525
221.500	170.564	80.001	20.008	100.628	20.111	9.517	0.545
222.000	170.854	80.002	20.008	100.613	20.112	9.432	0.547
222.500	171.066	80.000	20.009	100.603	20.111	9.506	0.530
223.000	171.326	80.000	20.008	100.596	20.112	9.471	0.487
223.500	171.632	80.001	20.008	100.602	20.113	9.348	0.519
224.000	171.880	80.002	20.008	100.609	20.109	9.723	0.560
224.500	172.143	80.001	20.008	100.616	20.108	9.860	0.532
225.000	172.440	80.000	20.008	100.610	20.108	9.875	0.535
225.500	172.671	80.002	20.008	100.601	20.111	9.548	0.544
226.000	172.967	80.001	20.008	100.587	20.111	9.559	0.528
226.500	173.236	80.001	20.008	100.579	20.110	9.602	0.546
227.000	173.518	80.001	20.008	100.579	20.112	9.471	0.558
227.500	173.763	80.001	20.008	100.587	20.110	9.626	0.539
228.000	174.013	80.000	20.008	100.596	20.106	10.016	0.511
228.500	174.286	80.002	20.008	100.604	20.107	9.934	0.509
229.000	174.532	80.001	20.008	100.602	20.109	9.735	0.521
229.500	174.780	80.002	20.008	100.593	20.109	9.712	0.507
230.000	175.002	80.001	20.008	100.578	20.107	9.910	0.482
230.500	175.287	80.001	20.008	100.569	20.105	10.216	0.488
231.000	175.601	80.001	20.008	100.561	20.102	10.437	0.553
231.500	175.836	80.000	20.008	100.568	20.102	10.466	0.575
232.000	176.105	79.999	20.008	100.575	20.105	10.181	0.527
232.500	176.321	80.003	20.008	100.581	20.101	10.599	0.494
233.000	176.630	80.000	20.008	100.578	20.100	10.688	0.505
233.500	176.870	80.000	20.008	100.575	20.102	10.454	0.537
234.000	177.145	80.001	20.008	100.562	20.103	10.326	0.532
234.500	177.391	80.000	20.008	100.557	20.102	10.520	0.518
235.000	177.627	80.002	20.008	100.561	20.100	10.668	0.502
235.500	177.870	80.000	20.008	100.572	20.100	10.675	0.481
236.000	178.188	80.002	20.008	100.583	20.102	10.431	0.520
236.500	178.435	80.000	20.008	100.589	20.102	10.506	0.563
237.000	178.709	80.001	20.008	100.584	20.103	10.390	0.543
237.500	179.003	80.001	20.008	100.573	20.105	10.211	0.545
238.000	179.226	80.000	20.008	100.562	20.104	10.289	0.543
238.500	179.531	80.001	20.008	100.554	20.103	10.331	0.522
239.000	179.801	80.000	20.008	100.554	20.102	10.489	0.552
239.500	179.997	80.001	20.008	100.564	20.104	10.251	0.521
240.000	180.331	80.000	20.008	100.580	20.103	10.397	0.498
240.500	180.530	80.000	20.008	100.588	20.104	10.275	0.531
241.000	180.868	80.001	20.008	100.590	20.102	10.457	0.535
241.500	181.097	80.000	20.008	100.587	20.102	10.452	0.552
242.000	181.336	80.002	20.008	100.577	20.100	10.705	0.517
242.500	181.607	80.001	20.008	100.567	20.103	10.347	0.489
243.000	181.886	80.001	20.008	100.562	20.101	10.546	0.530
243.500	182.137	80.000	20.008	100.564	20.102	10.483	0.540
244.000	182.348	80.003	20.007	100.569	20.100	10.695	0.495
244.500	182.614	80.000	20.008	100.574	20.100	10.695	0.469
245.000	182.852	80.000	20.008	100.568	20.100	10.639	0.491
245.500	183.173	80.000	20.008	100.561	20.098	10.867	0.531
246.000	183.392	80.002	20.008	100.549	20.100	10.651	0.550
246.500	183.657	80.002	20.008	100.540	20.099	10.785	0.513
247.000	183.872	80.001	20.008	100.534	20.100	10.680	0.482
247.500	184.146	80.000	20.008	100.540	20.102	10.471	0.484
248.000	184.410	80.001	20.008	100.547	20.098	10.920	0.513
248.500	184.612	80.000	20.008	100.550	20.099	10.840	0.502
249.000	184.917	80.002	20.008	100.552	20.101	10.604	0.487
249.500	185.185	80.001	20.008	100.551	20.099	10.834	0.540
250.000	185.447	80.001	20.008	100.545	20.100	10.638	0.552
250.500	185.722	80.000	20.008	100.538	20.099	10.797	0.534
251.000	185.978	80.001	20.008	100.542	20.100	10.654	0.534
251.500	186.221	80.002	20.008	100.548	20.098	10.890	0.514
252.000	186.475	80.001	20.008	100.557	20.097	11.024	0.498
252.500	186.756	80.001	20.008	100.563	20.097	11.043	0.516
253.000	187.007	80.001	20.008	100.563	20.099	10.781	0.534
253.500	187.269	80.000	20.008	100.557	20.097	10.949	0.523
254.000	187.486	80.002	20.008	100.549	20.099	10.831	0.496
254.500	187.744	79.999	20.008	100.540	20.100	10.706	0.476
255.000	187.982	80.001	20.008	100.539	20.100	10.702	0.486
255.500	188.251	80.001	20.008	100.546	20.098	10.906	0.502
256.000	188.511	80.000	20.008	100.553	20.098	10.938	0.518
256.500	188.764	80.001	20.008	100.561	20.099	10.810	0.521
257.000	188.988	80.001	20.008	100.568	20.098	10.880	0.495
257.500	189.255	80.000	20.008	100.566	20.099	10.770	0.483
258.000	189.509	80.002	20.008	100.559	20.099	10.742	0.506
258.500	189.788	80.001	20.008	100.551	20.099	10.758	0.527
259.000	190.026	80.002	20.008	100.549	20.098	10.934	0.525
259.500	190.260	80.001	20.008	100.549	20.099	10.843	0.494
260.000	190.539	80.001	20.008	100.554	20.096	11.080	0.493
260.500	190.772	80.000	20.008	100.553	20.099	10.775	0.513
261.001	191.016	80.001	20.008	100.554	20.097	11.031	0.494
261.500	191.282	80.000	20.007	100.546	20.097	10.996	0.493
262.000	191.542	80.001	20.008	100.539	20.099	10.837	0.518
262.500	191.791	80.001	20.008	100.532	20.099	10.807	0.518
263.000	192.039	80.001	20.008	100.532	20.098	10.911	0.503
263.500	192.262	80.001	20.008	100.534	20.101	10.618	0.484
264.000	192.519	80.002	20.007	100.536	20.100	10.664	0.475
264.500	192.815	80.001	20.008	100.537	20.098	10.859	0.517
265.000	193.065	80.001	20.008	100.534	20.101	10.549	0.550
265.500	193.300	80.001	20.008	100.532	20.102	10.476	0.515
266.000	193.557	80.000	20.008	100.530	20.101	10.574	0.488
266.500	193.805	80.002	20.008	100.537	20.098	10.879	0.499
267.000	194.040	80.001	20.008	100.542	20.098	10.933	0.494
267.500	194.335	80.001	20.008	100.550	20.097	11.037	0.506
268.000	194.568	79.999	20.008	100.551	20.097	10.992	0.529
268.500	194.812	80.001	20.008	100.549	20.098	10.888	0.503
269.000	195.068	80.002	20.008	100.537	20.100	10.642	0.488
269.500	195.296	80.001	20.008	100.531	20.100	10.708	0.492
270.000	195.589	80.000	20.008	100.525	20.098	10.871	0.503
270.500	195.845	80.001	20.008	100.528	20.096	11.072	0.535
271.000	196.063	80.001	20.008	100.534	20.099	10.842	0.512
271.500	196.344	80.001	20.008	100.539	20.098	10.886	0.487
272.000	196.622	80.001	20.008	100.539	20.099	10.793	0.529
272.500	196.888	80.001	20.008	100.534	20.098	10.892	0.551
273.000	197.128	80.000	20.008	100.528	20.099	10.781	0.525
273.500	197.391	80.002	20.008	100.519	20.099	10.813	0.505
274.000	197.619	80.002	20.008	100.520	20.100	10.642	0.497
274.500	197.840	80.001	20.008	100.525	20.101	10.589	0.470
275.000	198.121	80.001	20.008	100.538	20.102	10.437	0.475
275.500	198.379	80.000	20.008	100.548	20.102	10.428	0.521
276.000	198.644	80.002	20.008	100.556	20.102	10.517	0.532
276.500	198.906	80.000	20.008	100.555	20.100	10.708	0.525
277.000	199.135	80.001	20.008	100.549	20.100	10.695	0.509
277.500	199.413	80.002	20.008	100.541	20.101	10.541	0.499
278.000	199.676	80.000	20.007	100.540	20.100	10.667	0.524
278.500	199.901	80.000	20.008	100.546	20.101	10.604	0.514
279.000	200.207	80.002	20.008	100.555	20.102	10.480	0.509
279.500	200.463	80.001	20.008	100.563	20.101	10.628	0.546
280.000	200.695	80.000	20.008	100.570	20.102	10.524	0.525
280.500	200.951	80.003	20.008	100.572	20.101	10.550	0.488
281.000	201.187	80.000	20.008	100.568	20.102	10.520	0.490
281.500	201.456	80.003	20.008	100.559	20.102	10.429	0.499
282.000	201.690	80.000	20.008	100.551	20.103	10.396	0.504
282.500	201.977	80.002	20.008	100.549	20.100	10.677	0.511
283.000	202.175	80.000	20.008	100.549	20.103	10.350	0.503
283.500	202.443	80.002	20.008	100.551	20.102	10.532	0.476
284.000	202.690	80.000	20.008	100.549	20.103	10.404	0.490
284.500	202.939	80.001	20.008	100.549	20.101	10.579	0.505
285.000	203.149	80.002	20.008	100.544	20.104	10.280	0.478
285.500	203.459	80.000	20.008	100.537	20.104	10.296	0.489
286.000	203.668	80.001	20.008	100.533	20.102	10.471	0.519
286.500	203.979	80.002	20.008	100.538	20.103	10.355	0.519
287.000	204.191	80.000	20.008	100.544	20.103	10.329	0.522
287.500	204.456	80.002	20.008	100.547	20.101	10.613	0.500
288.000	204.697	80.001	20.008	100.547	20.099	10.759	0.491
288.500	204.988	80.002	20.008	100.544	20.102	10.525	0.519
289.000	205.262	80.002	20.008	100.537	20.102	10.459	0.549
289.500	205.470	80.002	20.008	100.531	20.098	10.864	0.524
290.000	205.752	80.002	20.008	100.528	20.101	10.616	0.486
290.501	206.021	80.002	20.008	100.531	20.101	10.625	0.520
291.000	206.289	80.002	20.008	100.537	20.099	10.788	0.544
291.500	206.551	80.000	20.008	100.541	20.102	10.450	0.534
292.000	206.784	80.002	20.008	100.542	20.103	10.382	0.513
292.500	207.025	80.002	20.008	100.542	20.102	10.434	0.484
293.000	207.291	80.001	20.008	100.538	20.100	10.676	0.490
293.500	207.503	80.001	20.008	100.537	20.100	10.726	0.493
294.000	207.768	80.002	20.008	100.543	20.098	10.942	0.477
294.500	208.036	80.001	20.008	100.551	20.099	10.762	0.505
295.000	208.264	80.002	20.008	100.558	20.099	10.830	0.515
295.500	208.521	80.001	20.008	100.564	20.098	10.875	0.491
296.000	208.790	80.002	20.008	100.560	20.099	10.793	0.506
296.500	209.053	80.001	20.008	100.553	20.101	10.632	0.529
297.000	209.319	80.002	20.008	100.544	20.100	10.670	0.531
297.500	209.576	80.001	20.008	100.537	20.103	10.351	0.526
298.000	209.807	80.002	20.008	100.538	20.102	10.470	0.505
298.500	210.068	80.001	20.008	100.546	20.100	10.638	0.489
299.000	210.277	80.001	20.008	100.554	20.102	10.441	0.481
299.500	210.581	80.002	20.008	100.562	20.104	10.242	0.492
300.000	210.849	80.001	20.008	100.567	20.101	10.535	0.542
300.500	211.088	80.001	20.008	100.562	20.102	10.520	0.539
301.000	211.324	80.002	20.008	100.555	20.104	10.314	0.491
301.500	211.604	80.001	20.008	100.548	20.103	10.343	0.495
302.000	211.801	80.002	20.008	100.546	20.103	10.376	0.497
302.500	212.055	80.002	20.007	100.549	20.104	10.233	0.464
303.000	212.321	80.001	20.008	100.556	20.104	10.269	0.486
303.500	212.566	80.001	20.008	100.558	20.103	10.420	0.516
304.000	212.833	80.002	20.008	100.553	20.103	10.404	0.511
304.500	213.098	80.003	20.008	100.541	20.102	10.479	0.522
305.000	213.341	79.999	20.008	100.529	20.104	10.299	0.520
305.500	213.568	80.003	20.008	100.520	20.104	10.309	0.489
306.000	213.785	80.001	20.008	100.521	20.104	10.301	0.457
306.500	214.081	80.000	20.008	100.527	20.102	10.473	0.478
307.000	214.338	80.002	20.008	100.536	20.104	10.251	0.533
307.500	214.622	80.001	20.008	100.541	20.105	10.186	0.547
308.000	214.857	80.003	20.008	100.539	20.104	10.250	0.530
308.500	215.105	80.000	20.008	100.529	20.102	10.508	0.501
309.000	215.373	80.001	20.008	100.522	20.104	10.255	0.500
309.500	215.577	80.001	20.008	100.519	20.102	10.430	0.494
310.000	215.896	80.001	20.008	100.520	20.102	10.495	0.498
310.500	216.111	80.002	20.008	100.522	20.103	10.422	0.529
311.000	216.389	80.001	20.008	100.530	20.104	10.314	0.513
311.500	216.613	80.000	20.008	100.533	20.101	10.620	0.498
312.000	216.858	80.001	20.007	100.527	20.102	10.529	0.486
312.500	217.147	80.001	20.008	100.519	20.101	10.568	0.501
313.000	217.448	80.001	20.008	100.511	20.101	10.620	0.562
313.500	217.654	80.000	20.008	100.503	20.101	10.592	0.548
314.000	217.907	80.001	20.007	100.503	20.104	10.269	0.483
314.500	218.175	80.002	20.008	100.510	20.102	10.441	0.490
315.001	218.449	80.002	20.008	100.515	20.100	10.727	0.531
315.500	218.691	80.001	20.008	100.516	20.102	10.519	0.529
316.000	218.972	80.001	20.008	100.516	20.101	10.587	0.519
316.500	219.204	80.001	20.008	100.509	20.104	10.252	0.518
317.000	219.502	80.000	20.008	100.502	20.105	10.149	0.521
317.500	219.689	80.001	20.008	100.503	20.103	10.339	0.507
318.000	220.011	80.001	20.007	100.511	20.102	10.448	0.497
318.500	220.258	80.002	20.008	100.520	20.104	10.325	0.539
319.000	220.480	80.000	20.008	100.529	20.105	10.199	0.519
319.500	220.745	80.000	20.008	100.536	20.105	10.218	0.478
320.000	220.988	80.001	20.008	100.538	20.105	10.158	0.498
320.500	221.252	80.000	20.008	100.531	20.105	10.208	0.508
321.000	221.505	80.002	20.008	100.528	20.105	10.211	0.512
321.500	221.778	79.999	20.008	100.527	20.105	10.209	0.521
322.000	222.042	80.002	20.008	100.532	20.106	10.055	0.531
322.500	222.241	80.001	20.008	100.540	20.104	10.323	0.500
323.000	222.500	80.002	20.008	100.551	20.106	10.094	0.461
323.500	222.808	80.000	20.008	100.553	20.102	10.441	0.513
324.000	223.051	80.001	20.008	100.554	20.104	10.224	0.559
324.500	223.302	80.000	20.008	100.546	20.105	10.135	0.522
325.000	223.551	80.002	20.008	100.538	20.104	10.241	0.497
325.500	223.818	80.000	20.008	100.539	20.106	10.059	0.508
326.000	224.053	80.003	20.008	100.546	20.105	10.156	0.509
326.500	224.298	80.001	20.008	100.553	20.104	10.224	0.491
327.000	224.554	80.001	20.008	100.562	20.105	10.168	0.491
327.500	224.796	80.001	20.008	100.568	20.110	9.664	0.500
328.000	225.057	80.001	20.008	100.562	20.110	9.637	0.500
328.500	225.323	80.001	20.008	100.555	20.108	9.830	0.515
329.000	225.526	80.002	20.008	100.550	20.109	9.740	0.498
329.500	225.787	80.001	20.008	100.550	20.109	9.773	0.467
330.000	226.026	80.002	20.007	100.552	20.112	9.408	0.482
330.500	226.319	80.001	20.008	100.560	20.109	9.776	0.515
331.000	226.577	80.001	20.008	100.567	20.110	9.616	0.541
331.500	226.798	80.001	20.008	100.572	20.110	9.670	0.515
332.000	227.059	80.002	20.008	100.563	20.109	9.720	0.481
332.500	227.273	80.001	20.008	100.556	20.109	9.731	0.478
333.000	227.588	80.001	20.008	100.554	20.111	9.503	0.502
333.500	227.821	80.001	20.008	100.551	20.109	9.742	0.539
334.000	228.109	80.000	20.007	100.551	20.110	9.653	0.534
334.500	228.333	80.002	20.008	100.559	20.111	9.538	0.516
335.000	228.566	80.001	20.008	100.561	20.111	9.591	0.484
335.500	228.837	80.002	20.008	100.555	20.109	9.766	0.481
336.000	229.066	80.002	20.008	100.550	20.109	9.789	0.502
336.500	229.342	80.001	20.008	100.542	20.108	9.903	0.503
337.000	229.593	80.001	20.008	100.536	20.109	9.765	0.516
337.500	229.843	80.001	20.008	100.540	20.105	10.157	0.513
338.000	230.087	80.002	20.008	100.548	20.105	10.199	0.497
338.500	230.348	80.001	20.007	100.556	20.105	10.127	0.500
339.000	230.608	80.002	20.007	100.559	20.106	10.105	0.514
339.500	230.837	80.001	20.007	100.557	20.105	10.205	0.505
340.000	231.066	80.001	20.008	100.540	20.102	10.454	0.473
340.500	231.358	80.001	20.008	100.525	20.102	10.480	0.489
341.000	231.586	80.001	20.008	100.515	20.102	10.504	0.521
341.500	231.839	80.001	20.008	100.512	20.102	10.514	0.501
342.000	232.125	80.001	20.008	100.518	20.098	10.863	0.510
342.500	232.341	80.000	20.007	100.532	20.099	10.804	0.520
343.000	232.592	80.003	20.008	100.540	20.099	10.787	0.485
343.500	232.856	80.001	20.008	100.542	20.100	10.651	0.491
344.000	233.122	80.001	20.007	100.534	20.097	10.958	0.522
344.500	233.323	80.001	20.008	100.523	20.099	10.786	0.498
345.000	233.608	80.001	20.008	100.515	20.103	10.409	0.476
345.500	233.884	80.000	20.008	100.514	20.103	10.324	0.524
346.000	234.152	80.002	20.007	100.522	20.103	10.338	0.553
346.500	234.342	80.001	20.008	100.536	20.102	10.429	0.501
347.000	234.608	80.001	20.007	100.545	20.101	10.627	0.457
347.500	234.871	80.002	20.008	100.548	20.102	10.433	0.493
348.000	235.118	80.002	20.007	100.545	20.103	10.406	0.519
348.500	235.397	80.002	20.007	100.533	20.103	10.368	0.518
349.000	235.586	80.001	20.008	100.520	20.103	10.348	0.497
349.500	235.885	80.001	20.008	100.517	20.102	10.511	0.478
350.000	236.123	80.001	20.007	100.517	20.103	10.348	0.513
350.500	236.392	80.002	20.007	100.520	20.102	10.472	0.522
351.000	236.655	80.000	20.007	100.528	20.103	10.396	0.519
351.500	236.904	80.001	20.007	100.533	20.103	10.361	0.522
352.000	237.132	80.001	20.008	100.531	20.102	10.513	0.494
352.500	237.420	80.002	20.007	100.523	20.103	10.330	0.496
353.000	237.660	80.001	20.008	100.519	20.104	10.311	0.522
353.500	237.888	80.000	20.008	100.516	20.101	10.555	0.498
354.000	238.145	80.002	20.008	100.518	20.103	10.337	0.476
354.500	238.448	80.002	20.008	100.526	20.104	10.269	0.523
355.000	238.623	80.001	20.007	100.539	20.105	10.143	0.520
355.500	238.895	80.001	20.007	100.544	20.104	10.241	0.463
356.000	239.174	80.002	20.007	100.541	20.104	10.310	0.499
356.500	239.389	80.002	20.007	100.534	20.105	10.199	0.522
357.000	239.633	80.002	20.008	100.522	20.102	10.445	0.477
357.500	239.851	80.001	20.008	100.513	20.103	10.400	0.461
358.000	240.131	80.001	20.008	100.512	20.100	10.643	0.480
358.500	240.395	80.001	20.007	100.517	20.101	10.602	0.520
359.000	240.642	80.001	20.007	100.524	20.099	10.778	0.527
359.500	240.904	80.000	20.007	100.531	20.101	10.545	0.510
360.000	241.126	80.001	20.007	100.534	20.103	10.422	0.496
360.500	241.441	80.002	20.008	100.532	20.100	10.706	0.511
361.000	241.681	80.001	20.008	100.525	20.101	10.543	0.546
361.500	242.003	80.002	20.008	100.516	20.101	10.606	0.558
362.000	242.251	80.000	20.008	100.514	20.100	10.654	0.566
362.500	242.468	80.000	20.007	100.514	20.101	10.574	0.518
363.000	242.717	80.000	20.008	100.516	20.104	10.286	0.465
363.500	242.992	80.002	20.008	100.526	20.102	10.434	0.495
364.000	243.287	80.002	20.007	100.534	20.103	10.389	0.547
364.500	243.570	80.000	20.007	100.537	20.103	10.341	0.574
365.000	243.800	80.003	20.007	100.536	20.104	10.315	0.545
365.500	244.110	80.002	20.008	100.531	20.103	10.378	0.526
366.000	244.314	80.000	20.007	100.520	20.102	10.506	0.527
366.500	244.590	80.000	20.007	100.515	20.102	10.485	0.497
367.000	244.825	80.002	20.008	100.515	20.103	10.330	0.495
367.500	245.051	80.000	20.008	100.519	20.106	10.052	0.486
368.000	245.345	80.000	20.007	100.532	20.102	10.510	0.491
368.500	245.600	80.002	20.007	100.547	20.105	10.138	0.535
369.000	245.856	80.000	20.007	100.552	20.106	10.014	0.530
369.500	246.112	80.002	20.008	100.551	20.103	10.372	0.512
370.000	246.401	80.000	20.007	100.542	20.104	10.315	0.529
370.500	246.701	80.001	20.008	100.528	20.102	10.437	0.567
371.000	246.951	80.002	20.008	100.522	20.103	10.383	0.569
371.500	247.163	80.000	20.008	100.520	20.104	10.262	0.506
372.000	247.452	80.001	20.008	100.521	20.103	10.387	0.482
372.500	247.670	80.001	20.008	100.527	20.101	10.623	0.504
373.000	247.892	80.002	20.008	100.533	20.101	10.553	0.474
373.500	248.175	80.001	20.007	100.534	20.102	10.503	0.473
374.000	248.420	80.001	20.008	100.527	20.100	10.725	0.516
374.500	248.647	80.002	20.007	100.520	20.102	10.491	0.500
375.000	248.877	80.002	20.008	100.514	20.103	10.412	0.465
375.500	249.203	80.001	20.008	100.513	20.103	10.347	0.507
376.000	249.418	80.000	20.008	100.513	20.101	10.580	0.549
376.500	249.698	80.001	20.008	100.523	20.102	10.456	0.518
377.000	249.933	80.001	20.008	100.530	20.103	10.331	0.505
377.500	250.211	80.002	20.007	100.536	20.099	10.756	0.514
378.000	250.443	80.001	20.007	100.537	20.096	11.080	0.511
378.500	250.691	80.002	20.007	100.529	20.094	11.281	0.495
379.000	250.953	80.001	20.008	100.513	20.090	11.741	0.495
379.500	251.233	80.001	20.008	100.497	20.090	11.774	0.526
380.000	251.475	80.001	20.008	100.489	20.087	12.007	0.532
380.500	251.742	80.001	20.008	100.484	20.084	12.348	0.515
381.000	252.029	80.001	20.008	100.492	20.085	12.290	0.531
381.500	252.243	80.002	20.008	100.505	20.081	12.665	0.528
382.000	252.497	80.001	20.007	100.525	20.078	12.944	0.484
382.500	252.751	80.000	20.007	100.534	20.077	13.090	0.488
383.000	252.994	80.001	20.007	100.537	20.078	13.018	0.503
383.500	253.303	80.001	20.007	100.528	20.078	12.991	0.524
384.000	253.536	80.002	20.008	100.520	20.079	12.876	0.547
384.500	253.796	80.000	20.008	100.512	20.076	13.159	0.518
385.000	254.071	80.001	20.008	100.511	20.075	13.241	0.514
385.500	254.284	80.001	20.007	100.514	20.076	13.171	0.511
386.000	254.560	80.001	20.008	100.522	20.078	13.021	0.488
386.500	254.784	80.001	20.007	100.528	20.078	12.929	0.495
387.000	255.030	80.002	20.007	100.524	20.080	12.788	0.485
387.500	255.305	80.000	20.007	100.515	20.081	12.637	0.495
388.000	255.533	80.000	20.008	100.499	20.083	12.465	0.512
388.500	255.778	80.003	20.008	100.486	20.083	12.494	0.488
389.000	256.047	80.001	20.008	100.479	20.084	12.347	0.494
389.500	256.273	80.001	20.008	100.478	20.084	12.348	0.504
390.000	256.538	80.001	20.008	100.478	20.081	12.667	0.493
390.500	256.813	80.001	20.007	100.485	20.082	12.608	0.516
391.000	257.099	80.001	20.008	100.490	20.083	12.450	0.550
391.500	257.323	80.001	20.008	100.492	20.082	12.610	0.535
392.000	257.589	80.000	20.007	100.490	20.078	12.959	0.500
392.500	257.826	80.000	20.007	100.489	20.080	12.800	0.497
393.000	258.086	80.001	20.008	100.489	20.082	12.576	0.500
393.500	258.352	80.000	20.008	100.489	20.080	12.792	0.512
394.000	258.598	80.001	20.008	100.497	20.082	12.525	0.520
394.500	258.817	80.001	20.007	100.509	20.081	12.627	0.489
395.000	259.093	80.001	20.007	100.519	20.081	12.626	0.479
395.500	259.325	80.001	20.007	100.527	20.081	12.633	0.501
396.000	259.590	80.001	20.007	100.529	20.081	12.624	0.503
396.500	259.877	80.002	20.007	100.521	20.085	12.256	0.525
397.000	260.112	80.001	20.007	100.504	20.086	12.174	0.537
397.500	260.372	80.000	20.008	100.495	20.086	12.105	0.509
398.000	260.590	80.002	20.008	100.486	20.086	12.191	0.486
398.500	260.777	80.000	20.008	100.489	20.086	12.182	0.442
399.000	261.062	80.001	20.008	100.502	20.087	12.052	0.439
399.500	261.334	80.002	20.007	100.523	20.086	12.106	0.514
400.000	261.625	80.001	20.007	100.540	20.089	11.797	0.560
400.500	261.869	80.001	20.007	100.548	20.087	12.010	0.549
401.000	262.096	80.002	20.008	100.545	20.089	11.823	0.503
401.500	262.382	80.000	20.007	100.533	20.091	11.579	0.492
402.000	262.616	80.000	20.007	100.519	20.091	11.639	0.517
402.500	262.873	80.001	20.007	100.504	20.089	11.796	0.505
403.000	263.129	80.001	20.007	100.502	20.090	11.774	0.502
403.500	263.420	80.001	20.008	100.507	20.089	11.831	0.530
404.000	263.676	80.001	20.007	100.514	20.092	11.546	0.547
404.500	263.911	80.001	20.007	100.523	20.091	11.632	0.519
405.000	264.202	80.000	20.007	100.530	20.091	11.606	0.508
405.500	264.426	80.001	20.007	100.533	20.091	11.584	0.521
406.000	264.668	80.002	20.007	100.532	20.089	11.877	0.491
406.500	264.931	80.000	20.008	100.533	20.089	11.801	0.486
407.000	265.163	80.001	20.008	100.532	20.089	11.830	0.500
407.500	265.432	80.001	20.007	100.533	20.087	12.028	0.498
408.000	265.644	80.000	20.007	100.532	20.090	11.730	0.491
408.500	265.930	80.002	20.007	100.533	20.087	12.028	0.489
409.000	266.223	80.000	20.008	100.533	20.088	11.931	0.539
409.500	266.437	80.000	20.007	100.532	20.086	12.099	0.543
410.000	266.683	80.001	20.007	100.526	20.086	12.189	0.484
410.500	266.951	80.000	20.008	100.518	20.084	12.334	0.487
411.000	267.200	80.002	20.007	100.515	20.082	12.575	0.515
411.500	267.454	80.000	20.008	100.515	20.082	12.516	0.510
412.000	267.700	80.002	20.008	100.516	20.084	12.381	0.502
412.500	267.965	80.001	20.008	100.524	20.085	12.230	0.505
413.000	268.261	80.002	20.007	100.540	20.084	12.363	0.536
413.500	268.492	80.002	20.007	100.551	20.083	12.435	0.544
414.000	268.765	80.000	20.008	100.554	20.083	12.476	0.516
414.500	268.996	80.002	20.007	100.554	20.080	12.744	0.504
415.000	269.235	80.000	20.007	100.542	20.079	12.851	0.487
415.500	269.525	80.001	20.008	100.526	20.077	13.068	0.499
416.000	269.761	80.001	20.008	100.512	20.079	12.829	0.528
416.500	270.019	80.000	20.008	100.506	20.079	12.900	0.510
417.000	270.289	80.001	20.008	100.503	20.080	12.758	0.511
417.500	270.525	80.001	20.008	100.504	20.077	13.032	0.517
418.000	270.804	80.001	20.008	100.505	20.076	13.196	0.510
418.500	271.096	80.000	20.008	100.502	20.077	13.132	0.543
419.000	271.286	80.000	20.008	100.492	20.079	12.893	0.527
419.500	271.569	80.002	20.008	100.481	20.079	12.908	0.477
420.000	271.836	80.000	20.008	100.481	20.075	13.329	0.511
420.500	272.091	80.001	20.008	100.481	20.075	13.337	0.536
421.000	272.298	80.001	20.008	100.490	20.077	13.097	0.492
421.500	272.566	80.000	20.008	100.503	20.073	13.457	0.468
422.000	272.822	80.001	20.008	100.518	20.075	13.275	0.500
422.500	273.068	80.001	20.008	100.525	20.074	13.361	0.514
423.000	273.280	80.002	20.008	100.524	20.073	13.522	0.480
423.500	273.575	80.000	20.008	100.516	20.071	13.703	0.483
424.000	273.779	80.000	20.008	100.505	20.072	13.556	0.503
424.500	274.071	80.002	20.008	100.495	20.073	13.511	0.498
425.000	274.277	80.000	20.008	100.487	20.070	13.788	0.497
425.500	274.500	80.001	20.008	100.495	20.070	13.828	0.463
426.000	274.795	80.001	20.008	100.504	20.068	14.021	0.474
426.500	275.029	80.001	20.008	100.517	20.068	14.051	0.523
427.001	275.253	80.001	20.008	100.524	20.067	14.112	0.493
427.501	275.456	80.001	20.008	100.524	20.066	14.194	0.443
428.001	275.746	80.001	20.008	100.515	20.068	14.060	0.460
428.500	276.080	80.000	20.008	100.507	20.066	14.198	0.559
429.000	276.312	80.000	20.008	100.499	20.065	14.291	0.595
429.500	276.534	80.001	20.008	100.502	20.065	14.330	0.510
430.000	276.788	80.002	20.008	100.511	20.064	14.423	0.465
430.500	277.042	80.000	20.008	100.520	20.063	14.524	0.492
431.000	277.300	80.000	20.008	100.526	20.063	14.561	0.510
431.500	277.449	80.002	20.008	100.527	20.060	14.905	0.459
432.000	277.786	80.000	20.008	100.519	20.057	15.197	0.447
432.500	278.054	80.002	20.008	100.509	20.060	14.896	0.546
433.000	278.252	80.002	20.008	100.501	20.060	14.895	0.535
433.500	278.511	80.001	20.008	100.496	20.055	15.393	0.461
434.000	278.769	80.001	20.008	100.496	20.057	15.213	0.487
434.500	279.078	80.002	20.008	100.504	20.055	15.339	0.542
435.000	279.325	80.000	20.008	100.511	20.056	15.316	0.561
435.500	279.544	80.001	20.008	100.511	20.057	15.150	0.511
436.000	279.805	80.002	20.008	100.509	20.055	15.335	0.473
436.500	280.010	80.001	20.008	100.500	20.054	15.471	0.473
437.000	280.246	80.000	20.008	100.486	20.055	15.423	0.453
437.500	280.494	80.001	20.008	100.476	20.053	15.542	0.463
438.000	280.784	80.001	20.008	100.476	20.052	15.720	0.511
438.500	281.000	80.001	20.008	100.478	20.053	15.624	0.522
439.000	281.269	80.001	20.008	100.487	20.052	15.648	0.496
439.500	281.506	80.000	20.008	100.502	20.052	15.678	0.495
440.000	281.776	80.001	20.008	100.513	20.052	15.697	0.506
440.500	282.000	80.001	20.008	100.515	20.052	15.653	0.501
441.000	282.250	80.001	20.008	100.516	20.051	15.794	0.484
441.500	282.468	80.000	20.008	100.515	20.049	16.037	0.471
442.000	282.741	80.002	20.008	100.514	20.048	16.065	0.479
442.500	282.962	80.000	20.008	100.514	20.048	16.105	0.493
443.000	283.184	80.003	20.008	100.527	20.045	16.419	0.468
443.500	283.456	80.001	20.008	100.542	20.048	16.103	0.468
444.000	283.669	80.000	20.008	100.556	20.047	16.254	0.490
444.500	283.972	80.002	20.008	100.559	20.046	16.358	0.501
445.000	284.175	80.001	20.008	100.555	20.047	16.190	0.510
445.500	284.399	80.000	20.008	100.540	20.042	16.775	0.466
446.000	284.670	80.001	20.008	100.524	20.040	16.950	0.461
446.500	284.881	80.002	20.008	100.507	20.042	16.740	0.489
447.000	285.193	80.001	20.008	100.497	20.040	16.938	0.502
447.500	285.350	80.000	20.008	100.500	20.042	16.769	0.496
448.000	285.618	80.001	20.008	100.507	20.035	17.471	0.447
448.500	285.842	80.001	20.008	100.515	20.035	17.482	0.458
449.000	286.085	80.001	20.008	100.516	20.033	17.668	0.480
449.500	286.357	80.002	20.008	100.512	20.033	17.617	0.492
450.000	286.558	80.001	20.008	100.501	20.032	17.732	0.494
450.500	286.856	80.001	20.008	100.493	20.029	18.050	0.485
451.000	287.088	80.000	20.008	100.489	20.028	18.226	0.514
451.500	287.319	80.000	20.008	100.496	20.028	18.180	0.497
452.000	287.579	80.002	20.008	100.507	20.028	18.199	0.477
452.500	287.797	80.000	20.008	100.518	20.028	18.163	0.485
453.000	288.066	80.000	20.008	100.524	20.028	18.235	0.483
453.500	288.336	80.002	20.008	100.521	20.029	18.109	0.513
454.000	288.557	80.000	20.008	100.512	20.029	18.078	0.515
454.500	288.803	80.001	20.008	100.504	20.027	18.294	0.479
455.000	289.048	80.000	20.008	100.499	20.024	18.641	0.479
455.500	289.303	80.001	20.008	100.499	20.026	18.373	0.496
456.000	289.522	80.000	20.008	100.506	20.027	18.334	0.487
456.500	289.786	80.001	20.008	100.515	20.025	18.480	0.478
457.000	289.995	80.001	20.008	100.524	20.026	18.345	0.478
457.500	290.267	80.001	20.008	100.527	20.024	18.607	0.477
458.000	290.523	80.001	20.008	100.523	20.022	18.852	0.505
458.500	290.788	80.000	20.008	100.517	20.022	18.850	0.525
459.000	291.025	80.001	20.008	100.510	20.024	18.641	0.512
459.500	291.287	80.000	20.008	100.505	20.024	18.640	0.501
460.000	291.485	80.002	20.008	100.508	20.021	18.927	0.479
460.500	291.763	80.000	20.008	100.511	20.019	19.119	0.468
461.000	291.989	80.001	20.008	100.518	20.021	18.944	0.491
461.500	292.247	79.999	20.008	100.521	20.021	18.924	0.494
462.000	292.503	80.001	20.008	100.516	20.020	19.071	0.498
462.500	292.770	80.001	20.008	100.501	20.021	18.917	0.518
463.001	293.034	80.000	20.008	100.489	20.022	18.768	0.527
463.500	293.271	80.001	20.008	100.481	20.020	19.043	0.516
464.000	293.491	80.002	20.008	100.481	20.021	18.888	0.479
464.500	293.713	79.999	20.008	100.494	20.022	18.766	0.449
465.000	293.992	80.001	20.008	100.513	20.022	18.809	0.472
465.500	294.229	80.000	20.008	100.525	20.020	19.041	0.508
466.000	294.504	80.000	20.008	100.530	20.020	19.040	0.513
466.500	294.691	80.002	20.008	100.528	20.019	19.129	0.487
467.000	294.962	80.001	20.008	100.517	20.020	18.982	0.460
467.500	295.178	80.001	20.008	100.506	20.017	19.290	0.473
468.000	295.433	80.000	20.008	100.502	20.016	19.472	0.479
468.500	295.684	80.000	20.008	100.504	20.013	19.759	0.489
469.000	295.966	80.001	20.008	100.509	20.012	19.814	0.519
469.500	296.203	80.001	20.008	100.510	20.011	19.943	0.526
470.000	296.491	80.001	20.008	100.510	20.011	19.976	0.522
470.500	296.721	80.001	20.008	100.506	20.012	19.825	0.521
471.000	296.968	80.000	20.008	100.497	20.009	20.155	0.497
471.500	297.213	80.002	20.008	100.491	20.008	20.217	0.484
472.000	297.438	80.000	20.008	100.491	20.008	20.287	0.482
472.500	297.732	80.000	20.008	100.493	20.009	20.213	0.494
473.000	297.979	80.000	20.008	100.501	20.007	20.395	0.530
473.500	298.201	80.001	20.008	100.512	20.007	20.389	0.505
474.000	298.472	80.000	20.008	100.519	20.010	20.097	0.481
474.500	298.714	80.000	20.008	100.519	20.005	20.532	0.503
475.000	298.978	80.002	20.008	100.516	20.006	20.521	0.510
475.500	299.216	80.000	20.008	100.508	20.005	20.623	0.504
476.000	299.474	80.000	20.008	100.500	20.006	20.520	0.499
476.500	299.694	80.001	20.008	100.495	20.004	20.714	0.487
477.000	299.986	80.000	20.008	100.502	20.006	20.435	0.495
477.500	300.200	80.001	20.008	100.510	20.006	20.445	0.509
478.000	300.488	80.000	20.008	100.516	20.007	20.407	0.504
478.500	300.712	80.000	20.008	100.519	20.004	20.683	0.507
479.000	301.006	80.000	20.008	100.517	20.004	20.732	0.515
479.500	301.236	80.002	20.008	100.510	20.002	20.860	0.521
480.000	301.520	80.000	20.008	100.501	20.000	21.084	0.519
480.500	301.786	80.001	20.008	100.500	20.003	20.835	0.532
481.000	302.071	79.999	20.008	100.504	20.002	20.904	0.550
481.500	302.298	80.001	20.008	100.511	20.000	21.130	0.531
482.000	302.561	80.000	20.008	100.519	19.999	21.187	0.501
482.500	302.794	80.001	20.008	100.528	20.001	21.035	0.493
483.000	303.067	80.000	20.008	100.526	19.999	21.188	0.501
483.500	303.285	80.001	20.008	100.519	20.000	21.063	0.498
484.000	303.486	80.000	20.008	100.511	19.999	21.251	0.455
484.500	303.735	80.000	20.008	100.503	19.997	21.393	0.435
485.000	304.004	80.000	20.008	100.497	19.996	21.504	0.484
485.500	304.227	80.001	20.008	100.502	19.995	21.632	0.505
486.000	304.518	80.001	20.008	100.510	19.996	21.488	0.502
486.500	304.747	80.000	20.008	100.513	19.992	21.916	0.517
487.000	305.020	80.000	20.008	100.515	19.988	22.336	0.512
487.500	305.255	80.001	20.008	100.512	19.989	22.258	0.505
488.000	305.463	80.000	20.008	100.499	19.989	22.281	0.475
488.500	305.731	80.001	20.008	100.484	19.987	22.405	0.459
489.000	305.976	80.001	20.008	100.477	19.987	22.429	0.495
489.500	306.234	80.001	20.008	100.478	19.985	22.643	0.508
490.000	306.521	80.000	20.008	100.479	19.985	22.674	0.524
490.500	306.680	80.001	20.007	100.485	19.984	22.768	0.496
491.000	306.984	80.000	20.008	100.492	19.980	23.164	0.455
491.500	307.222	80.001	20.008	100.496	19.979	23.275	0.503
492.000	307.488	80.002	20.008	100.490	19.980	23.226	0.523
492.500	307.727	80.000	20.008	100.488	19.979	23.295	0.504
493.000	307.999	80.001	20.008	100.489	19.977	23.478	0.508
493.500	308.245	80.000	20.008	100.496	19.975	23.723	0.515
494.000	308.497	80.001	20.008	100.499	19.973	23.941	0.508
494.500	308.744	80.001	20.008	100.507	19.973	23.890	0.498
495.000	308.968	80.000	20.007	100.507	19.974	23.808	0.485
495.500	309.259	80.002	20.008	100.507	19.968	24.450	0.493
496.000	309.503	80.000	20.008	100.493	19.966	24.644	0.525
496.500	309.769	80.001	20.008	100.482	19.965	24.723	0.522
497.000	309.984	80.000	20.008	100.474	19.962	25.109	0.495
497.500	310.211	80.001	20.008	100.473	19.962	25.052	0.462
498.000	310.488	80.001	20.008	100.475	19.961	25.207	0.473
498.500	310.752	80.000	20.008	100.489	19.959	25.356	0.522
499.000	311.000	80.001	20.008	100.503	19.957	25.602	0.527
499.500	311.250	80.001	20.008	100.508	19.954	25.852	0.505
500.000	311.498	80.001	20.008	100.506	19.952	26.139	0.498
500.500	311.757	80.002	20.008	100.500	19.952	26.130	0.502
501.000	312.041	80.001	20.008	100.494	19.951	26.217	0.526
501.500	312.282	80.000	20.008	100.488	19.950	26.311	0.534
502.000	312.510	80.001	20.008	100.491	19.947	26.560	0.496
502.500	312.784	80.000	20.007	100.500	19.943	26.983	0.485
503.000	312.971	80.001	20.008	100.512	19.944	26.886	0.482
503.500	313.252	80.001	20.008	100.519	19.941	27.223	0.465
504.000	313.505	80.001	20.008	100.524	19.936	27.777	0.501
504.500	313.756	80.002	20.008	100.520	19.937	27.666	0.519
505.000	314.004	79.999	20.008	100.511	19.932	28.203	0.502
505.500	314.257	80.001	20.008	100.502	19.927	28.656	0.501
506.000	314.498	80.000	20.008	100.495	19.924	29.011	0.497
506.500	314.730	80.000	20.008	100.496	19.922	29.239	0.483
507.000	315.008	80.001	20.008	100.507	19.916	29.822	0.491
507.500	315.260	80.001	20.007	100.515	19.914	30.016	0.520
508.000	315.488	79.999	20.008	100.523	19.912	30.313	0.506
508.500	315.760	80.002	20.008	100.526	19.910	30.518	0.490
509.000	316.049	80.001	20.008	100.519	19.907	30.793	0.530
509.500	316.313	80.001	20.008	100.510	19.906	30.911	0.557
510.000	316.525	80.003	20.008	100.504	19.900	31.541	0.514
510.500	316.764	80.000	20.008	100.502	19.896	31.929	0.463
511.000	317.026	80.000	20.008	100.506	19.894	32.169	0.476
511.500	317.323	80.001	20.008	100.512	19.891	32.493	0.530
512.000	317.515	80.002	20.008	100.512	19.887	32.846	0.524
512.500	317.727	79.999	20.008	100.507	19.886	32.972	0.446
513.000	318.027	80.001	20.008	100.492	19.882	33.447	0.457
513.500	318.263	80.001	20.008	100.476	19.878	33.823	0.524
514.000	318.587	80.000	20.008	100.463	19.876	33.980	0.549
514.500	318.846	80.001	20.008	100.459	19.868	34.811	0.571
515.001	319.082	80.001	20.008	100.463	19.867	34.987	0.539
515.500	319.283	80.000	20.008	100.472	19.859	35.784	0.466
516.000	319.597	80.002	20.008	100.481	19.856	36.136	0.476
516.500	319.834	80.001	20.008	100.488	19.851	36.660	0.533
517.000	320.092	80.000	20.008	100.486	19.849	36.849	0.523
517.500	320.349	80.000	20.008	100.482	19.847	37.101	0.505
518.000	320.605	80.001	20.009	100.483	19.844	37.410	0.514
518.500	320.879	80.000	20.008	100.483	19.839	37.872	0.522
519.000	321.135	80.001	20.008	100.491	19.837	38.070	0.530
519.500	321.378	80.000	20.008	100.505	19.833	38.534	0.515
520.000	321.578	80.001	20.008	100.517	19.826	39.281	0.471
520.500	321.835	80.001	20.008	100.525	19.820	39.836	0.450
521.000	322.129	80.001	20.008	100.531	19.816	40.308	0.503
521.500	322.393	80.000	20.009	100.524	19.811	40.801	0.554
522.000	322.549	80.001	20.008	100.516	19.808	41.060	0.489
522.500	322.846	80.001	20.009	100.514	19.804	41.508	0.437
523.000	323.090	80.001	20.008	100.514	19.799	42.077	0.497
523.500	323.333	79.999	20.008	100.516	19.793	42.624	0.514
524.000	323.541	80.001	20.008	100.523	19.786	43.393	0.469
524.500	323.811	80.001	20.008	100.530	19.778	44.193	0.465
525.000	324.106	80.000	20.008	100.528	19.777	44.366	0.522
525.500	324.343	80.000	20.008	100.520	19.772	44.866	0.548
526.000	324.607	80.001	20.008	100.514	19.766	45.467	0.516
526.500	324.806	79.999	20.008	100.507	19.761	45.954	0.482
527.000	325.090	80.001	20.008	100.506	19.755	46.659	0.473
527.500	325.349	80.000	20.008	100.511	19.749	47.239	0.513
528.000	325.563	80.001	20.008	100.523	19.742	48.001	0.508
528.500	325.876	80.000	20.008	100.536	19.738	48.463	0.500
529.000	326.085	80.002	20.008	100.547	19.731	49.189	0.525
529.500	326.337	80.000	20.008	100.547	19.721	50.146	0.491
530.000	326.583	80.002	20.008	100.546	19.718	50.504	0.479
530.500	326.821	79.999	20.008	100.542	19.713	51.030	0.491
531.000	327.050	80.001	20.008	100.536	19.702	52.122	0.475
531.500	327.307	80.000	20.008	100.531	19.698	52.576	0.477
532.000	327.556	79.999	20.008	100.534	19.690	53.350	0.496
532.500	327.789	80.002	20.008	100.541	19.683	54.154	0.494
533.000	328.067	80.000	20.008	100.541	19.675	54.997	0.497
533.500	328.329	80.002	20.008	100.535	19.669	55.620	0.525
534.000	328.550	80.000	20.008	100.527	19.664	56.088	0.511
534.500	328.834	80.000	20.008	100.516	19.655	57.042	0.494
535.000	329.109	80.001	20.008	100.502	19.649	57.701	0.532
535.500	329.362	80.000	20.008	100.494	19.642	58.403	0.543
536.000	329.580	80.001	20.008	100.501	19.634	59.275	0.499
536.500	329.787	80.001	20.007	100.509	19.630	59.690	0.448
537.000	330.079	80.000	20.008	100.517	19.623	60.424	0.462
537.500	330.359	80.001	20.008	100.518	19.614	61.338	0.536
538.001	330.612	80.001	20.008	100.516	19.605	62.276	0.552
538.500	330.849	80.000	20.008	100.507	19.597	63.039	0.512
539.000	331.124	80.000	20.008	100.502	19.589	63.934	0.501
539.500	331.366	80.001	20.007	100.502	19.580	64.889	0.514
540.000	331.618	80.001	20.008	100.513	19.572	65.668	0.506
540.500	331.843	80.001	20.008	100.529	19.563	66.606	0.486
541.000	332.097	80.001	20.007	100.540	19.554	67.527	0.478
541.500	332.347	79.999	20.007	100.546	19.549	68.142	0.491
542.000	332.607	80.000	20.008	100.545	19.539	69.193	0.507
542.500	332.830	80.001	20.007	100.535	19.530	70.132	0.497
543.000	333.079	80.000	20.007	100.520	19.519	71.200	0.478
543.500	333.398	80.000	20.007	100.510	19.511	72.022	0.520
544.000	333.559	80.001	20.008	100.506	19.502	73.002	0.524
544.500	333.826	80.002	20.008	100.507	19.495	73.717	0.454
545.000	334.074	79.999	20.008	100.515	19.486	74.604	0.471
545.500	334.289	80.001	20.007	100.523	19.475	75.763	0.489
546.000	334.557	79.999	20.008	100.530	19.466	76.774	0.473
546.500	334.859	80.002	20.007	100.530	19.459	77.500	0.527
547.000	335.067	80.000	20.007	100.520	19.449	78.562	0.540
547.500	335.311	80.001	20.008	100.505	19.442	79.295	0.481
548.000	335.600	80.001	20.008	100.496	19.431	80.420	0.493
548.500	335.799	80.001	20.008	100.489	19.421	81.390	0.511
549.000	336.024	80.001	20.008	100.493	19.411	82.496	0.456
549.500	336.289	80.000	20.007	100.503	19.400	83.602	0.457
550.000	336.524	80.001	20.007	100.518	19.391	84.530	0.495
550.500	336.740	80.002	20.008	100.526	19.379	85.798	0.476
551.000	337.014	80.000	20.007	100.526	19.370	86.789	0.470
551.500	337.309	80.002	20.007	100.510	19.361	87.767	0.529
552.000	337.569	80.001	20.008	100.495	19.350	88.875	0.562
552.500	337.795	80.001	20.008	100.483	19.339	89.986	0.520
553.000	338.048	80.001	20.008	100.480	19.330	90.920	0.482
553.500	338.262	80.000	20.008	100.487	19.320	92.004	0.473
554.000	338.548	80.001	20.007	100.503	19.309	93.096	0.484
554.500	338.796	80.002	20.007	100.519	19.296	94.479	0.517
555.000	339.011	80.000	20.007	100.530	19.287	95.464	0.499
555.500	339.282	80.001	20.007	100.529	19.277	96.424	0.475
556.000	339.584	80.001	20.008	100.522	19.265	97.671	0.530
556.500	339.804	80.001	20.008	100.514	19.254	98.843	0.548
557.000	340.027	80.001	20.007	100.505	19.246	99.680	0.483
557.500	340.257	80.001	20.008	100.502	19.233	100.955	0.448
558.000	340.497	80.001	20.008	100.508	19.224	101.958	0.461
558.500	340.797	80.001	20.007	100.518	19.212	103.178	0.504
559.000	341.000	80.001	20.008	100.527	19.198	104.641	0.522
559.500	341.215	80.002	20.007	100.535	19.184	106.061	0.461
560.000	341.472	80.001	20.007	100.538	19.169	107.695	0.445
560.500	341.778	80.002	20.008	100.532	19.154	109.178	0.517
561.000	342.031	80.001	20.008	100.521	19.142	110.429	0.561
561.500	342.267	80.001	20.008	100.517	19.124	112.323	0.524
562.000	342.437	80.000	20.007	100.517	19.109	113.918	0.447
562.500	342.735	80.001	20.007	100.522	19.092	115.635	0.437
563.000	342.977	80.001	20.007	100.536	19.074	117.510	0.504
563.500	343.238	80.001	20.007	100.550	19.058	119.170	0.522
564.000	343.483	80.001	20.008	100.561	19.043	120.825	0.504
564.500	343.724	80.002	20.008	100.568	19.029	122.184	0.495
565.000	343.948	80.001	20.008	100.568	19.014	123.816	0.476
565.500	344.189	80.000	20.008	100.562	18.999	125.326	0.466
566.000	344.433	80.001	20.008	100.560	18.985	126.900	0.475
566.500	344.658	80.001	20.008	100.560	18.969	128.579	0.477
567.000	344.921	80.001	20.008	100.559	18.958	129.739	0.478
567.500	345.163	80.001	20.008	100.557	18.943	131.318	0.496
568.000	345.436	80.000	20.008	100.555	18.931	132.564	0.510
568.500	345.652	80.001	20.008	100.543	18.918	133.910	0.502
569.000	345.922	80.001	20.008	100.526	18.907	135.005	0.488
569.500	346.164	80.000	20.008	100.510	18.896	136.191	0.499
570.000	346.434	80.000	20.008	100.500	18.884	137.443	0.513
570.500	346.666	80.002	20.007	100.494	18.874	138.469	0.507
571.000	346.885	80.001	20.008	100.500	18.862	139.808	0.476
571.500	347.129	79.999	20.007	100.506	18.855	140.565	0.457
572.000	347.360	80.000	20.007	100.508	18.846	141.458	0.469
572.500	347.616	80.002	20.008	100.501	18.841	141.976	0.481
573.000	347.880	80.001	20.007	100.491	18.830	143.121	0.503
573.500	348.130	80.000	20.008	100.475	18.821	144.064	0.517
574.000	348.393	80.002	20.008	100.462	18.813	144.914	0.514
574.500	348.621	80.001	20.007	100.455	18.805	145.773	0.502
575.000	348.866	79.999	20.008	100.461	18.795	146.783	0.482
575.500	349.071	80.002	20.008	100.471	18.785	147.829	0.461
576.000	349.306	80.000	20.007	100.480	18.779	148.491	0.445
576.500	349.606	80.001	20.007	100.488	18.766	149.754	0.487
577.000	349.905	80.000	20.008	100.492	18.757	150.701	0.567
577.500	350.107	80.002	20.008	100.485	18.748	151.661	0.550
578.000	350.371	80.001	20.008	100.486	18.739	152.545	0.484
578.500	350.665	80.001	20.008	100.498	18.730	153.532	0.512
579.000	350.887	80.001	20.007	100.514	18.720	154.558	0.537
579.500	351.127	80.001	20.008	100.532	18.709	155.716	0.489
580.000	351.373	80.001	20.008	100.554	18.699	156.766	0.474
580.500	351.645	80.001	20.007	100.564	18.690	157.670	0.502
581.000	351.866	80.000	20.008	100.563	18.680	158.690	0.505
581.500	352.136	80.002	20.008	100.560	18.668	160.025	0.492
582.000	352.376	80.000	20.008	100.561	18.658	161.100	0.501
582.500	352.622	80.002	20.008	100.561	18.647	162.245	0.498
583.000	352.862	80.001	20.008	100.572	18.634	163.597	0.486
583.500	353.158	80.001	20.008	100.584	18.625	164.593	0.511
584.000	353.353	80.001	20.007	100.595	18.614	165.745	0.513
584.500	353.586	80.000	20.007	100.602	18.603	166.872	0.460
585.000	353.829	80.000	20.008	100.607	18.595	167.686	0.453
585.500	354.020	80.002	20.008	100.607	18.582	169.007	0.455
586.000	354.300	80.002	20.008	100.608	18.576	169.660	0.452
586.500	354.562	80.001	20.008	100.615	18.569	170.420	0.506
587.000	354.726	80.002	20.008	100.624	18.563	170.999	0.484
587.500	355.038	80.001	20.008	100.636	18.554	171.975	0.451
588.000	355.301	80.001	20.008	100.641	18.544	172.913	0.525
588.500	355.461	80.001	20.007	100.634	18.537	173.659	0.499
589.000	355.720	80.001	20.008	100.618	18.528	174.657	0.421
589.500	356.060	80.001	20.008	100.601	18.519	175.613	0.509
590.000	356.338	80.001	20.008	100.586	18.513	176.281	0.608
590.500	356.604	80.002	20.008	100.582	18.500	177.637	0.581
591.000	356.735	80.000	20.007	100.587	18.494	178.257	0.471
591.500	357.128	80.002	20.008	100.597	18.487	178.984	0.461
592.000	357.269	80.001	20.008	100.601	18.477	179.998	0.529
592.500	357.460	80.000	20.007	100.598	18.468	181.014	0.433
593.000	357.727	80.001	20.008	100.586	18.456	182.191	0.395
593.500	357.989	80.000	20.008	100.579	18.448	183.023	0.493
594.000	358.267	80.001	20.008	100.577	18.441	183.782	0.535
594.500	358.491	80.002	20.008	100.587	18.432	184.670	0.521
595.000	358.785	80.000	20.008	100.603	18.423	185.573	0.510
595.500	358.976	80.000	20.008	100.623	18.412	186.690	0.501
596.000	359.276	80.002	20.008	100.639	18.404	187.552	0.488
596.500	359.467	80.002	20.008	100.640	18.393	188.667	0.491
597.000	359.777	80.001	20.008	100.636	18.386	189.391	0.496
597.500	360.006	80.001	20.009	100.631	18.375	190.546	0.520
598.000	360.256	80.001	20.007	100.631	18.362	191.834	0.509
598.500	360.476	80.002	20.008	100.631	18.353	192.814	0.474
599.000	360.740	80.000	20.007	100.634	18.347	193.445	0.477
599.500	361.037	80.000	20.007	100.632	18.336	194.588	0.523
600.000	361.257	80.001	20.007	100.626	18.326	195.657	0.539
600.500	361.527	80.001	20.007	100.613	18.311	197.156	0.504
601.000	361.699	80.000	20.008	100.600	18.303	198.097	0.466
601.500	361.963	80.000	20.007	100.597	18.292	199.198	0.439
602.000	362.261	80.002	20.008	100.602	18.277	200.774	0.499
602.500	362.502	80.000	20.008	100.615	18.268	201.685	0.551
603.000	362.766	80.001	20.007	100.629	18.256	202.910	0.522
603.500	362.984	80.001	20.008	100.641	18.246	203.979	0.493
604.000	363.231	80.000	20.008	100.649	18.240	204.661	0.473
604.500	363.486	80.002	20.008	100.653	18.232	205.446	0.483
605.000	363.723	80.001	20.008	100.652	18.229	205.807	0.497
605.500	363.931	80.000	20.008	100.651	18.226	206.045	0.469
606.000	364.193	80.001	20.008	100.651	18.223	206.327	0.458
606.500	364.413	80.000	20.007	100.647	18.221	206.537	0.476
607.000	364.679	80.002	20.008	100.637	18.218	206.819	0.484
607.500	364.952	80.001	20.008	100.623	18.215	207.151	0.512
608.000	365.188	80.001	20.007	100.604	18.213	207.337	0.524
608.500	365.495	80.000	20.008	100.588	18.210	207.728	0.526
609.000	365.680	80.001	20.008	100.576	18.206	208.257	0.518
609.500	365.951	80.000	20.007	100.571	18.200	208.864	0.474
610.000	366.229	80.002	20.008	100.571	18.197	209.249	0.502
610.500	366.503	80.001	20.008	100.574	18.193	209.692	0.550
611.000	366.720	80.001	20.008	100.575	18.189	210.104	0.521
611.500	366.967	80.001	20.008	100.573	18.188	210.169	0.478
612.000	367.228	80.002	20.008	100.572	18.189	210.094	0.487
612.500	367.471	80.001	20.008	100.573	18.189	210.170	0.506
613.000	367.731	80.002	20.007	100.576	18.188	210.297	0.503
613.500	367.995	80.003	20.008	100.577	18.188	210.334	0.513
614.000	368.179	79.999	20.007	100.586	18.189	210.269	0.486
614.500	368.510	80.001	20.007	100.588	18.195	209.659	0.481
615.000	368.689	80.001	20.008	100.586	18.201	208.994	0.513
615.500	368.981	80.000	20.007	100.591	18.209	208.174	0.491
616.000	369.319	80.001	20.008	100.591	18.220	207.011	0.551
616.500	369.523	80.002	20.008	100.587	18.232	205.750	0.586
617.000	369.801	80.002	20.008	100.596	18.237	205.166	0.512
617.500	370.057	80.000	20.007	100.605	18.245	204.266	0.508
618.000	370.271	80.002	20.007	100.594	18.247	204.045	0.502
618.500	370.555	80.001	20.008	100.580	18.251	203.579	0.484
619.000	370.800	80.001	20.008	100.562	18.255	203.171	0.513
619.500	371.010	80.002	20.008	100.542	18.256	203.017	0.492
620.000	371.305	80.001	20.008	100.530	18.260	202.615	0.480
620.500	371.544	80.001	20.008	100.534	18.264	202.228	0.519
621.000	371.818	80.000	20.008	100.559	18.266	201.987	0.523
621.500	372.043	80.001	20.007	100.594	18.271	201.474	0.507
622.000	372.331	80.001	20.008	100.618	18.272	201.257	0.506
622.500	372.557	80.001	20.007	100.637	18.277	200.801	0.514
623.000	372.827	80.000	20.008	100.650	18.279	200.530	0.505
623.500	373.037	80.002	20.009	100.659	18.283	200.154	0.488
624.000	373.356	80.001	20.008	100.664	18.282	200.240	0.504
624.500	373.580	80.002	20.007	100.671	18.284	200.063	0.536
625.000	373.843	80.002	20.009	100.680	18.286	199.826	0.515
625.500	374.080	80.001	20.007	100.696	18.290	199.414	0.493
626.000	374.340	80.002	20.008	100.703	18.293	199.121	0.499
626.500	374.580	80.001	20.008	100.710	18.299	198.506	0.499
627.000	374.818	80.001	20.008	100.723	18.303	198.074	0.489
627.500	375.103	80.001	20.010	100.735	18.308	197.527	0.501
628.000	375.373	80.002	20.007	100.747	18.313	197.086	0.539
628.500	375.666	80.000	20.008	100.746	18.320	196.364	0.559
629.000	375.860	80.001	20.008	100.737	18.329	195.426	0.525
629.501	376.122	80.001	20.008	100.725	18.336	194.695	0.472
630.000	376.382	80.000	20.008	100.702	18.345	193.741	0.489
630.500	376.623	80.001	20.009	100.664	18.353	192.886	0.511
631.000	376.887	80.001	20.009	100.645	18.359	192.290	0.503
631.500	377.116	80.001	20.007	100.636	18.369	191.280	0.499
632.001	377.407	80.001	20.010	100.621	18.382	189.999	0.507
632.500	377.660	80.000	20.008	100.626	18.395	188.619	0.532
633.000	377.941	80.002	20.007	100.628	18.408	187.284	0.538
633.500	378.197	80.001	20.009	100.622	18.422	185.739	0.536
634.000	378.432	80.001	20.008	100.616	18.437	184.199	0.515
634.500	378.718	80.002	20.009	100.610	18.450	182.945	0.506
635.000	378.919	80.001	20.008	100.595	18.465	181.381	0.504
635.500	379.199	80.001	20.007	100.584	18.483	179.504	0.484
636.000	379.444	80.002	20.010	100.572	18.497	178.041	0.503
636.500	379.734	80.000	20.008	100.580	18.517	176.011	0.530
637.000	380.018	80.003	20.008	100.595	18.533	174.237	0.555
637.500	380.258	80.001	20.008	100.595	18.551	172.410	0.549
638.000	380.530	80.001	20.007	100.593	18.569	170.469	0.517
638.500	380.819	80.001	20.010	100.596	18.585	168.812	0.536
639.000	380.996	80.000	20.008	100.593	18.603	166.966	0.514
639.500	381.281	80.000	20.008	100.590	18.620	165.197	0.464
640.000	381.503	80.000	20.009	100.592	18.639	163.273	0.484
640.500	381.820	80.003	20.007	100.611	18.658	161.250	0.523
641.000	382.053	80.001	20.007	100.631	18.672	159.816	0.544
641.500	382.326	80.001	20.007	100.622	18.690	157.920	0.528
642.000	382.593	80.002	20.008	100.610	18.708	155.968	0.523
642.500	382.875	80.001	20.008	100.611	18.723	154.347	0.545
643.000	383.062	80.001	20.008	100.613	18.737	152.933	0.509
643.500	383.365	80.002	20.007	100.617	18.750	151.521	0.479
644.000	383.564	80.001	20.008	100.633	18.765	149.921	0.496
644.500	383.847	80.001	20.007	100.653	18.779	148.519	0.492
645.000	384.149	80.002	20.008	100.661	18.793	147.006	0.533
645.500	384.380	80.000	20.007	100.665	18.806	145.647	0.559
646.000	384.654	80.003	20.008	100.665	18.819	144.270	0.519
646.500	384.935	80.002	20.008	100.666	18.833	142.880	0.530
647.000	385.156	80.001	20.008	100.670	18.847	141.410	0.528
647.500	385.413	80.001	20.008	100.684	18.859	140.099	0.490
648.000	385.676	80.001	20.007	100.697	18.873	138.660	0.499
648.500	385.912	80.001	20.007	100.712	18.884	137.538	0.510
649.000	386.168	80.001	20.008	100.718	18.900	135.852	0.496
649.500	386.535	80.001	20.007	100.716	18.911	134.750	0.557
650.000	386.802	80.001	20.007	100.708	18.923	133.487	0.628
650.500	387.030	80.002	20.008	100.700	18.935	132.242	0.565
651.000	387.289	80.001	20.008	100.694	18.951	130.592	0.491
651.500	387.543	80.000	20.008	100.699	18.962	129.379	0.500
652.000	387.791	80.002	20.008	100.707	18.978	127.792	0.507
652.500	388.094	80.002	20.008	100.714	18.988	126.747	0.526
653.000	388.301	80.001	20.008	100.722	19.003	125.194	0.531
653.500	388.570	79.999	20.008	100.724	19.015	123.897	0.493
654.001	388.826	80.002	20.007	100.715	19.027	122.600	0.501
654.500	389.112	80.000	20.008	100.699	19.041	121.165	0.533
655.000	389.357	80.001	20.008	100.685	19.054	119.833	0.536
655.500	389.569	80.001	20.008	100.669	19.065	118.610	0.494
656.000	389.835	80.000	20.008	100.658	19.076	117.469	0.468
656.500	390.110	80.001	20.007	100.652	19.091	115.905	0.509
657.000	390.342	80.000	20.007	100.647	19.103	114.706	0.524
657.500	390.605	80.000	20.007	100.638	19.117	113.235	0.501
658.000	390.880	80.001	20.008	100.631	19.127	112.119	0.516
658.500	391.143	80.001	20.008	100.622	19.141	110.662	0.538
659.000	391.364	80.002	20.008	100.615	19.151	109.606	0.511
659.500	391.637	80.001	20.008	100.615	19.163	108.459	0.489
660.000	391.916	80.000	20.008	100.623	19.177	107.035	0.523
660.500	392.088	80.002	20.007	100.632	19.185	106.154	0.501
661.000	392.411	80.001	20.007	100.639	19.201	104.474	0.473
661.500	392.608	80.000	20.008	100.642	19.215	103.014	0.508
662.000	392.881	80.003	20.008	100.640	19.227	101.797	0.495
662.500	393.168	80.002	20.008	100.633	19.240	100.367	0.515
663.000	393.353	80.001	20.008	100.625	19.252	99.090	0.516
663.500	393.602	80.002	20.008	100.624	19.265	97.764	0.453
664.000	393.911	80.001	20.008	100.628	19.278	96.409	0.496
664.500	394.112	80.001	20.008	100.635	19.290	95.117	0.534
665.000	394.373	80.002	20.008	100.643	19.302	93.942	0.486
665.500	394.595	80.002	20.008	100.650	19.317	92.321	0.473
666.000	394.849	80.000	20.008	100.647	19.331	90.856	0.480
666.500	395.135	80.000	20.008	100.640	19.346	89.289	0.508
667.000	395.345	80.001	20.008	100.631	19.358	88.094	0.517
667.500	395.572	80.003	20.008	100.624	19.373	86.543	0.466
668.000	395.881	80.000	20.008	100.621	19.385	85.227	0.487
668.500	396.155	80.001	20.008	100.625	19.400	83.689	0.560
669.000	396.400	80.002	20.007	100.629	19.416	82.061	0.551
669.500	396.690	80.000	20.007	100.629	19.426	80.944	0.526
670.000	396.950	80.001	20.008	100.623	19.442	79.296	0.542
670.500	397.172	80.002	20.008	100.610	19.456	77.859	0.516
671.000	397.436	80.002	20.008	100.597	19.469	76.502	0.484
671.500	397.674	80.000	20.008	100.595	19.482	75.120	0.494
672.000	397.945	80.002	20.008	100.603	19.493	73.941	0.506
672.500	398.166	80.001	20.008	100.621	19.505	72.714	0.501
673.000	398.402	80.001	20.008	100.641	19.523	70.869	0.475
673.500	398.692	80.001	20.007	100.654	19.533	69.817	0.492
674.000	398.935	80.002	20.007	100.652	19.542	68.831	0.530
674.500	399.175	80.001	20.007	100.638	19.558	67.175	0.508
675.000	399.453	80.002	20.008	100.618	19.572	65.776	0.501
675.500	399.672	80.000	20.008	100.599	19.581	64.816	0.507
676.000	399.937	80.000	20.008	100.591	19.596	63.257	0.490
676.500	400.136	80.001	20.008	100.591	19.606	62.232	0.474
677.000	400.426	80.000	20.007	100.598	19.616	61.110	0.477
677.500	400.659	80.003	20.008	100.607	19.628	59.860	0.506
678.000	400.895	80.001	20.007	100.613	19.640	58.648	0.496
678.500	401.162	80.001	20.008	100.610	19.648	57.839	0.486
679.000	401.406	80.002	20.007	100.601	19.661	56.409	0.507
679.500	401.643	80.001	20.008	100.593	19.671	55.427	0.496
680.000	401.899	80.000	20.008	100.587	19.680	54.459	0.487
680.500	402.176	80.002	20.008	100.587	19.691	53.300	0.513
681.000	402.399	80.002	20.008	100.592	19.702	52.173	0.517
681.500	402.652	80.000	20.008	100.600	19.713	51.072	0.488
682.000	402.899	80.002	20.008	100.605	19.721	50.194	0.488
682.500	403.219	80.001	20.008	100.602	19.729	49.347	0.534
683.000	403.432	80.000	20.008	100.595	19.741	48.083	0.550
683.500	403.682	80.002	20.008	100.586	19.751	47.113	0.498
684.000	403.887	80.001	20.008	100.577	19.759	46.250	0.459
684.500	404.121	80.001	20.007	100.574	19.768	45.252	0.447
685.000	404.347	80.002	20.008	100.579	19.776	44.483	0.449
685.500	404.585	80.001	20.008	100.586	19.786	43.437	0.462
686.000	404.853	80.000	20.007	100.590	19.794	42.552	0.485
686.500	405.071	80.002	20.008	100.591	19.802	41.790	0.496
687.000	405.304	80.001	20.007	100.583	19.812	40.743	0.469
687.500	405.572	80.001	20.008	100.572	19.818	40.108	0.476
688.000	405.799	80.001	20.008	100.564	19.823	39.532	0.498
688.500	406.035	80.002	20.008	100.562	19.832	38.618	0.479
689.000	406.315	80.000	20.008	100.570	19.843	37.482	0.489
689.500	406.543	80.001	20.007	100.582	19.850	36.803	0.512
690.000	406.780	80.000	20.007	100.596	19.856	36.144	0.487
690.500	407.041	80.002	20.008	100.599	19.862	35.509	0.482
691.000	407.280	80.001	20.008	100.595	19.868	34.868	0.499
691.500	407.519	80.000	20.008	100.583	19.876	33.989	0.489
692.000	407.783	80.002	20.008	100.574	19.883	33.285	0.491
692.500	408.017	80.001	20.008	100.567	19.891	32.439	0.500
693.000	408.242	80.001	20.008	100.573	19.897	31.851	0.478
693.500	408.484	80.000	20.008	100.581	19.901	31.433	0.463
694.000	408.776	80.000	20.008	100.591	19.906	30.905	0.501
694.500	408.984	80.001	20.007	100.593	19.914	30.032	0.517
695.000	409.229	80.000	20.008	100.591	19.922	29.296	0.477
695.500	409.507	80.002	20.008	100.581	19.927	28.771	0.488
696.000	409.733	80.002	20.008	100.573	19.932	28.234	0.514
696.500	410.000	80.001	20.008	100.567	19.938	27.597	0.499
697.000	410.229	80.001	20.008	100.571	19.943	27.083	0.495
697.500	410.478	80.001	20.008	100.572	19.950	26.333	0.487
698.000	410.749	80.002	20.008	100.576	19.954	25.867	0.499
698.500	410.983	80.002	20.008	100.578	19.959	25.412	0.513
699.000	411.214	80.002	20.008	100.578	19.965	24.710	0.485
699.500	411.437	80.000	20.008	100.574	19.970	24.214	0.460
700.000	411.708	80.001	20.008	100.574	19.975	23.713	0.474
700.500	411.979	80.001	20.008	100.571	19.980	23.173	0.518
701.000	412.175	80.003	20.008	100.570	19.983	22.841	0.505
701.500	412.498	80.002	20.008	100.569	19.988	22.345	0.493
702.000	412.736	80.001	20.008	100.570	19.991	22.003	0.540
702.500	412.972	80.001	20.008	100.568	19.996	21.511	0.517
703.000	413.200	80.000	20.008	100.562	20.003	20.822	0.469
703.500	413.458	80.002	20.008	100.555	20.007	20.352	0.475
704.000	413.688	80.000	20.008	100.547	20.016	19.477	0.487
704.500	413.858	80.002	20.008	100.539	20.016	19.468	0.444
705.000	414.145	80.001	20.008	100.536	20.020	18.970	0.428
705.500	414.419	80.000	20.008	100.542	20.024	18.632	0.509
706.000	414.634	80.003	20.008	100.550	20.034	17.584	0.525
706.500	414.896	80.000	20.008	100.556	20.034	17.564	0.483
707.000	415.135	80.001	20.008	100.558	20.037	17.234	0.489
707.500	415.357	80.001	20.008	100.563	20.043	16.645	0.481
708.000	415.590	80.000	20.008	100.563	20.045	16.369	0.458
708.500	415.873	80.002	20.008	100.568	20.049	15.956	0.485
709.000	416.087	80.001	20.008	100.578	20.052	15.654	0.507
709.500	416.337	80.001	20.008	100.592	20.052	15.700	0.481
710.001	416.552	80.001	20.008	100.598	20.056	15.303	0.464
710.500	416.798	80.002	20.008	100.597	20.058	15.072	0.462
711.000	417.066	80.001	20.008	100.584	20.060	14.822	0.487
711.500	417.291	80.002	20.008	100.567	20.062	14.629	0.503
712.000	417.571	80.000	20.008	100.544	20.064	14.449	0.499
712.500	417.816	80.001	20.008	100.526	20.067	14.125	0.515
713.000	418.025	80.001	20.008	100.519	20.068	13.999	0.490
713.500	418.284	80.000	20.008	100.519	20.070	13.779	0.461
714.000	418.564	80.002	20.008	100.521	20.072	13.596	0.504
714.500	418.782	80.001	20.008	100.528	20.074	13.443	0.518
715.000	419.008	80.001	20.008	100.524	20.075	13.293	0.471
715.500	419.270	80.001	20.008	100.518	20.077	13.081	0.467
716.000	419.508	80.003	20.008	100.510	20.077	13.058	0.494
716.500	419.780	80.000	20.008	100.502	20.079	12.839	0.505
717.000	419.977	80.001	20.008	100.496	20.080	12.750	0.489
717.500	420.172	80.001	20.008	100.499	20.083	12.493	0.430
718.000	420.435	80.002	20.008	100.506	20.085	12.235	0.425
718.500	420.657	80.001	20.008	100.511	20.088	11.974	0.472
719.000	420.948	80.002	20.008	100.511	20.086	12.103	0.499
719.500	421.179	80.001	20.008	100.509	20.087	12.010	0.517
720.000	421.471	80.000	20.008	100.500	20.087	11.989	0.522
720.500	421.669	80.001	20.008	100.491	20.094	11.338	0.507
721.000	421.908	80.002	20.008	100.487	20.095	11.232	0.463
721.500	422.189	80.002	20.008	100.493	20.095	11.229	0.478
722.000	422.420	80.001	20.008	100.503	20.095	11.215	0.516
722.500	422.648	80.001	20.008	100.516	20.098	10.848	0.486
723.000	422.863	80.001	20.008	100.524	20.100	10.710	0.450
723.500	423.150	80.001	20.008	100.523	20.104	10.280	0.472
724.000	423.414	80.001	20.008	100.517	20.105	10.140	0.527
724.500	423.624	80.001	20.008	100.509	20.104	10.260	0.513
725.000	423.890	80.000	20.008	100.499	20.105	10.143	0.475
725.500	424.122	80.002	20.008	100.492	20.110	9.647	0.487
726.000	424.369	80.001	20.008	100.492	20.111	9.574	0.488
726.500	424.595	80.001	20.008	100.491	20.108	9.828	0.476
727.000	424.853	80.001	20.008	100.492	20.112	9.468	0.479
727.500	425.113	80.000	20.008	100.494	20.113	9.292	0.501
728.000	425.309	80.001	20.008	100.494	20.111	9.560	0.487
728.500	425.536	80.001	20.008	100.486	20.115	9.097	0.439
729.000	425.808	80.001	20.008	100.478	20.116	8.999	0.461
729.500	426.074	80.001	20.008	100.471	20.117	8.946	0.519
730.000	426.267	80.000	20.008	100.467	20.119	8.695	0.498
730.500	426.462	80.001	20.007	100.468	20.122	8.434	0.423
731.000	426.744	80.001	20.008	100.480	20.121	8.483	0.433
731.500	427.002	80.000	20.008	100.490	20.121	8.527	0.509
732.000	427.197	80.002	20.007	100.498	20.122	8.435	0.496
732.500	427.459	80.002	20.007	100.494	20.124	8.204	0.455
733.000	427.716	80.001	20.008	100.486	20.122	8.392	0.489
733.500	427.952	80.001	20.008	100.474	20.124	8.167	0.506
734.000	428.228	80.001	20.008	100.465	20.127	7.836	0.502
734.500	428.423	80.000	20.008	100.463	20.129	7.665	0.491
735.000	428.712	80.003	20.008	100.471	20.129	7.678	0.478
735.500	428.961	80.002	20.007	100.480	20.130	7.551	0.511
736.000	429.186	80.000	20.007	100.489	20.134	7.179	0.507
736.500	429.448	80.000	20.008	100.494	20.132	7.313	0.481
737.000	429.687	80.001	20.007	100.488	20.134	7.174	0.494
737.500	429.935	80.001	20.008	100.479	20.134	7.123	0.494
738.000	430.140	80.002	20.008	100.470	20.134	7.122	0.470
738.500	430.396	80.002	20.008	100.462	20.136	6.936	0.457
739.000	430.642	80.002	20.008	100.462	20.135	7.013	0.482
739.500	430.904	80.002	20.008	100.469	20.134	7.115	0.505
740.000	431.159	80.002	20.008	100.475	20.137	6.841	0.512
740.500	431.375	80.001	20.008	100.475	20.136	6.896	0.494
741.000	431.629	80.001	20.008	100.474	20.139	6.655	0.471
741.500	431.875	80.001	20.008	100.462	20.138	6.681	0.485
742.000	432.135	80.001	20.008	100.450	20.140	6.518	0.503
742.500	432.380	80.002	20.008	100.443	20.140	6.490	0.506
743.000	432.606	80.002	20.008	100.445	20.145	5.993	0.488
743.500	432.876	80.000	20.008	100.452	20.144	6.062	0.483
744.000	433.074	80.002	20.008	100.467	20.148	5.684	0.482
744.500	433.395	80.001	20.008	100.485	20.147	5.781	0.494
745.000	433.575	80.002	20.008	100.493	20.147	5.787	0.511
745.500	433.855	80.001	20.008	100.491	20.150	5.429	0.481
746.000	434.095	80.001	20.008	100.484	20.149	5.535	0.490
746.500	434.360	80.001	20.008	100.474	20.151	5.407	0.512
747.000	434.607	80.002	20.008	100.465	20.152	5.309	0.508
747.500	434.847	80.001	20.008	100.465	20.149	5.571	0.499
748.000	435.080	80.001	20.008	100.473	20.153	5.208	0.480
748.500	435.315	80.000	20.008	100.480	20.152	5.262	0.471
749.000	435.561	80.002	20.008	100.481	20.153	5.207	0.475
749.500	435.783	80.002	20.008	100.476	20.153	5.165	0.475
750.000	436.074	80.001	20.008	100.468	20.154	5.068	0.490
750.500	436.347	80.000	20.007	100.458	20.155	4.950	0.538
751.000	436.595	80.001	20.008	100.451	20.155	4.981	0.542
751.500	436.814	80.000	20.008	100.458	20.155	4.939	0.494
752.000	437.100	80.001	20.008	100.467	20.158	4.618	0.486
752.500	437.322	80.002	20.008	100.476	20.157	4.717	0.507
753.001	437.549	80.001	20.008	100.485	20.160	4.408	0.479
753.500	437.763	80.001	20.008	100.484	20.162	4.179	0.445
754.000	438.021	80.001	20.008	100.477	20.163	4.118	0.456
754.500	438.313	80.002	20.008	100.468	20.162	4.232	0.511
755.000	438.560	80.001	20.008	100.465	20.164	4.021	0.545
755.500	438.810	80.001	20.008	100.471	20.165	3.936	0.518
756.000	439.045	80.002	20.008	100.486	20.165	3.878	0.491
756.500	439.308	80.001	20.007	100.495	20.166	3.812	0.491
757.000	439.556	80.002	20.008	100.503	20.165	3.880	0.504
757.500	439.815	80.000	20.008	100.501	20.166	3.759	0.509
758.001	439.987	80.002	20.008	100.489	20.167	3.713	0.469
758.500	440.270	80.001	20.008	100.476	20.169	3.521	0.443
759.000	440.559	80.000	20.008	100.476	20.166	3.784	0.513
759.500	440.803	80.001	20.008	100.477	20.171	3.288	0.552
760.000	441.069	80.002	20.008	100.484	20.171	3.249	0.521
760.500	441.294	80.001	20.008	100.491	20.175	2.900	0.501
761.000	441.563	80.002	20.008	100.489	20.170	3.433	0.493
761.500	441.796	80.003	20.008	100.481	20.171	3.311	0.498
762.000	442.035	80.001	20.008	100.472	20.171	3.274	0.487
762.500	442.285	80.001	20.008	100.468	20.174	3.021	0.481
763.000	442.498	80.001	20.008	100.469	20.171	3.251	0.476
763.500	442.741	80.001	20.008	100.479	20.172	3.154	0.459
764.000	443.008	80.000	20.008	100.487	20.170	3.350	0.483
764.500	443.254	80.002	20.008	100.494	20.173	3.048	0.512
765.000	443.487	80.001	20.008	100.493	20.173	3.087	0.496
765.500	443.749	80.002	20.008	100.485	20.173	3.025	0.487
766.000	443.947	80.002	20.008	100.475	20.174	2.955	0.477
766.500	444.201	80.001	20.008	100.472	20.174	2.933	0.456
767.000	444.487	80.001	20.008	100.473	20.174	2.938	0.496
767.500	444.740	80.002	20.008	100.476	20.174	2.960	0.540
768.000	444.937	80.000	20.008	100.482	20.174	2.951	0.494
768.500	445.228	80.001	20.008	100.488	20.175	2.849	0.469
769.000	445.466	80.001	20.008	100.488	20.177	2.689	0.509
769.500	445.747	80.002	20.008	100.481	20.177	2.700	0.524
770.000	445.968	80.001	20.008	100.472	20.177	2.695	0.510
770.500	446.230	80.002	20.008	100.470	20.175	2.878	0.493
771.000	446.513	80.000	20.007	100.474	20.173	3.030	0.514
771.500	446.769	80.001	20.008	100.479	20.175	2.868	0.542
772.000	447.005	80.001	20.008	100.486	20.175	2.859	0.515
772.500	447.228	80.002	20.008	100.490	20.173	3.052	0.476
773.000	447.478	80.000	20.008	100.483	20.174	2.997	0.466
773.500	447.733	80.002	20.008	100.468	20.173	3.045	0.489
774.000	447.976	80.002	20.008	100.459	20.174	2.938	0.501
774.500	448.222	80.001	20.008	100.451	20.174	2.987	0.494
775.000	448.511	80.000	20.007	100.456	20.173	3.119	0.512
775.500	448.773	80.000	20.008	100.466	20.173	3.072	0.543
776.000	449.031	80.003	20.008	100.476	20.176	2.802	0.536
776.501	449.300	80.001	20.008	100.476	20.176	2.790	0.523
777.000	449.529	80.001	20.008	100.476	20.175	2.848	0.512
777.500	449.790	80.000	20.008	100.467	20.174	2.993	0.494
778.001	450.040	80.002	20.008	100.460	20.175	2.828	0.501
778.500	450.300	80.002	20.008	100.455	20.176	2.769	0.511
779.000	450.569	80.002	20.008	100.459	20.176	2.816	0.519
779.500	450.812	80.001	20.008	100.463	20.174	2.972	0.520
780.000	451.039	80.001	20.008	100.464	20.176	2.758	0.491
780.500	451.323	80.001	20.008	100.462	20.178	2.593	0.491
781.000	451.572	80.001	20.008	100.457	20.175	2.865	0.522
781.500	451.814	80.001	20.008	100.449	20.176	2.747	0.512
782.000	452.117	80.002	20.007	100.445	20.176	2.771	0.518
782.500	452.362	80.002	20.008	100.446	20.176	2.719	0.547
783.000	452.602	80.001	20.008	100.455	20.177	2.704	0.516
783.500	452.865	80.001	20.008	100.465	20.179	2.457	0.494
784.000	453.131	80.000	20.008	100.472	20.178	2.598	0.516
784.500	453.370	80.003	20.008	100.473	20.180	2.393	0.517
785.000	453.674	80.001	20.008	100.469	20.180	2.373	0.524
785.500	453.895	80.001	20.008	100.462	20.180	2.318	0.534
786.000	454.142	80.001	20.008	100.455	20.180	2.303	0.497
786.500	454.384	80.001	20.008	100.462	20.180	2.309	0.479
787.000	454.620	80.001	20.008	100.470	20.182	2.124	0.484
787.500	454.855	80.002	20.008	100.479	20.180	2.364	0.474
788.000	455.105	80.001	20.008	100.482	20.180	2.381	0.478
788.500	455.356	80.001	20.008	100.481	20.184	1.950	0.493
789.000	455.593	80.002	20.008	100.472	20.183	2.003	0.495
789.500	455.865	80.001	20.008	100.466	20.184	1.959	0.499
790.000	456.145	80.003	20.008	100.466	20.186	1.770	0.530
790.500	456.415	80.001	20.008	100.476	20.188	1.563	0.551
791.000	456.610	80.001	20.008	100.490	20.184	1.974	0.507
791.500	456.849	80.002	20.007	100.501	20.182	2.106	0.449
792.000	457.106	80.001	20.008	100.506	20.186	1.683	0.465
792.500	457.351	80.001	20.008	100.499	20.189	1.386	0.500
793.000	457.602	80.001	20.008	100.488	20.189	1.430	0.499
793.500	457.899	80.001	20.008	100.479	20.190	1.292	0.522
794.000	458.115	80.002	20.008	100.477	20.189	1.362	0.531
794.500	458.380	80.001	20.008	100.484	20.193	1.036	0.497
795.000	458.632	80.002	20.008	100.500	20.193	1.043	0.499
795.500	458.888	80.003	20.008	100.514	20.188	1.503	0.512
796.000	459.124	80.000	20.008	100.517	20.189	1.380	0.500
796.500	459.384	80.002	20.008	100.517	20.189	1.432	0.494
797.000	459.580	80.001	20.008	100.511	20.190	1.355	0.476
797.500	459.810	80.002	20.008	100.504	20.191	1.171	0.441
798.000	460.046	80.002	20.008	100.498	20.189	1.406	0.446
798.500	460.334	80.001	20.008	100.500	20.189	1.439	0.495
799.000	460.602	80.001	20.008	100.503	20.190	1.332	0.540
799.500	460.839	80.001	20.008	100.504	20.190	1.303	0.530
800.000	461.039	80.001	20.008	100.500	20.189	1.380	0.471
800.500	461.260	80.002	20.008	100.493	20.189	1.393	0.429
801.000	461.490	80.001	20.008	100.480	20.188	1.477	0.436
801.500	461.773	80.001	20.008	100.474	20.190	1.298	0.482
802.000	462.008	80.002	20.008	100.474	20.188	1.523	0.516
802.500	462.218	80.000	20.008	100.476	20.189	1.380	0.482
803.000	462.469	80.002	20.008	100.486	20.191	1.215	0.453
803.500	462.724	80.000	20.008	100.492	20.191	1.239	0.483
804.000	462.959	80.001	20.008	100.486	20.189	1.430	0.498
804.500	463.194	80.003	20.008	100.476	20.187	1.635	0.480
805.000	463.445	80.001	20.008	100.466	20.189	1.463	0.478
805.500	463.638	80.003	20.008	100.455	20.187	1.615	0.465
806.000	463.924	80.001	20.008	100.452	20.187	1.670	0.461
806.500	464.160	80.002	20.007	100.454	20.186	1.767	0.500
807.000	464.355	80.000	20.008	100.456	20.185	1.846	0.477
807.500	464.592	80.002	20.008	100.458	20.187	1.646	0.431
808.000	464.847	80.000	20.007	100.456	20.186	1.752	0.462
808.500	465.082	80.001	20.008	100.453	20.187	1.627	0.491
809.000	465.295	80.001	20.008	100.451	20.184	1.913	0.469
809.500	465.564	80.002	20.008	100.453	20.185	1.823	0.465
810.000	465.801	80.001	20.008	100.460	20.185	1.801	0.494
810.500	466.060	80.002	20.008	100.470	20.182	2.094	0.501
811.000	466.258	80.002	20.008	100.479	20.181	2.215	0.477
811.500	466.522	80.001	20.007	100.482	20.183	2.056	0.460
812.001	466.717	80.001	20.008	100.480	20.185	1.866	0.461
812.500	466.928	80.002	20.008	100.472	20.184	1.899	0.432
813.000	467.248	80.001	20.008	100.464	20.185	1.813	0.468
813.500	467.479	80.001	20.008	100.457	20.182	2.119	0.541
814.000	467.700	80.002	20.008	100.461	20.181	2.223	0.502
814.500	467.949	80.001	20.008	100.467	20.183	1.985	0.461
815.000	468.183	80.003	20.008	100.468	20.181	2.216	0.476
815.500	468.441	80.002	20.008	100.469	20.186	1.719	0.488
816.000	468.673	80.002	20.008	100.467	20.181	2.247	0.491
816.500	468.876	80.001	20.008	100.460	20.183	2.049	0.462
817.000	469.166	80.001	20.008	100.458	20.182	2.157	0.463
817.500	469.392	80.000	20.008	100.463	20.184	1.974	0.504
818.000	469.636	80.002	20.008	100.464	20.184	1.970	0.493
818.500	469.877	80.000	20.008	100.463	20.185	1.816	0.478
819.000	470.135	80.002	20.008	100.463	20.185	1.857	0.492
819.500	470.400	80.002	20.008	100.459	20.185	1.831	0.511
820.000	470.647	80.000	20.008	100.455	20.187	1.589	0.518
820.500	470.812	80.001	20.008	100.461	20.186	1.683	0.462
821.000	471.111	80.002	20.008	100.474	20.189	1.439	0.437
821.500	471.348	80.001	20.008	100.488	20.189	1.410	0.500
822.000	471.605	80.001	20.008	100.505	20.190	1.272	0.515
822.500	471.848	80.002	20.008	100.518	20.188	1.465	0.497
823.000	472.098	80.002	20.008	100.519	20.186	1.703	0.497
823.500	472.297	80.001	20.008	100.514	20.186	1.744	0.471
824.000	472.566	80.002	20.008	100.501	20.187	1.582	0.458
824.500	472.801	80.000	20.008	100.485	20.189	1.413	0.485
825.000	473.042	80.002	20.008	100.472	20.190	1.257	0.490
825.500	473.258	80.001	20.008	100.472	20.189	1.459	0.467
826.000	473.558	80.001	20.008	100.473	20.188	1.512	0.487
826.500	473.784	80.000	20.008	100.480	20.185	1.818	0.521
827.000	473.997	80.001	20.008	100.481	20.186	1.703	0.482
827.500	474.253	80.001	20.008	100.478	20.186	1.692	0.454
828.000	474.488	80.001	20.008	100.468	20.186	1.699	0.480
828.500	474.718	80.003	20.008	100.462	20.186	1.714	0.478
829.000	474.960	80.001	20.008	100.458	20.186	1.694	0.468
829.500	475.197	80.001	20.008	100.463	20.188	1.534	0.475
830.000	475.455	80.001	20.008	100.466	20.188	1.472	0.487
830.500	475.735	80.003	20.008	100.472	20.186	1.736	0.517
831.000	475.946	80.000	20.008	100.472	20.184	1.939	0.515
831.500	476.184	80.002	20.008	100.468	20.187	1.571	0.470
832.001	476.426	80.002	20.008	100.458	20.183	2.013	0.464
832.501	476.668	80.002	20.008	100.453	20.187	1.589	0.482
833.000	476.908	80.001	20.008	100.450	20.186	1.719	0.483
833.500	477.184	80.000	20.008	100.450	20.189	1.457	0.499
834.000	477.405	80.003	20.008	100.453	20.188	1.551	0.507
834.500	477.634	80.000	20.008	100.457	20.189	1.397	0.474
835.000	477.916	80.003	20.008	100.453	20.189	1.454	0.481
835.500	478.112	80.001	20.008	100.445	20.189	1.435	0.494
836.000	478.442	80.002	20.008	100.437	20.187	1.615	0.502
836.500	478.674	80.002	20.008	100.433	20.187	1.659	0.544
837.000	478.926	80.002	20.008	100.437	20.188	1.538	0.523
837.500	479.175	80.001	20.008	100.449	20.186	1.679	0.492
838.000	479.417	80.000	20.008	100.464	20.184	1.892	0.496
838.500	479.668	80.002	20.008	100.473	20.186	1.776	0.492
839.000	479.890	80.002	20.008	100.477	20.185	1.842	0.483
839.500	480.123	80.001	20.008	100.470	20.185	1.813	0.463
840.000	480.390	80.002	20.008	100.460	20.184	1.910	0.477
840.500	480.648	80.001	20.008	100.454	20.182	2.101	0.512
841.000	480.903	80.002	20.008	100.452	20.182	2.099	0.519
841.500	481.158	80.002	20.008	100.455	20.184	1.952	0.512
842.000	481.383	80.002	20.008	100.464	20.184	1.921	0.495
842.500	481.601	80.001	20.008	100.471	20.185	1.793	0.462
843.000	481.895	80.002	20.008	100.473	20.183	2.011	0.477
843.500	482.080	80.001	20.008	100.473	20.184	1.971	0.495
844.000	482.374	80.001	20.008	100.470	20.184	1.971	0.479
844.501	482.602	80.001	20.008	100.464	20.182	2.137	0.501
845.001	482.892	80.001	20.008	100.460	20.182	2.146	0.520
845.500	483.150	80.002	20.008	100.459	20.184	1.893	0.533
846.000	483.429	80.000	20.008	100.463	20.182	2.179	0.542
846.500	483.682	80.001	20.008	100.465	20.182	2.104	0.535
847.000	483.910	80.002	20.008	100.463	20.182	2.119	0.507
847.500	484.179	80.000	20.008	100.456	20.182	2.152	0.489
848.000	484.443	80.003	20.008	100.453	20.184	1.974	0.515
848.500	484.693	80.001	20.008	100.449	20.183	2.007	0.523
849.000	484.949	80.001	20.008	100.448	20.185	1.824	0.510
849.500	485.228	80.002	20.008	100.454	20.186	1.749	0.521
850.000	485.433	79.999	20.008	100.463	20.185	1.877	0.509
850.500	485.681	80.002	20.008	100.464	20.185	1.861	0.468
851.000	485.956	80.002	20.008	100.464	20.186	1.749	0.488
851.500	486.241	80.000	20.008	100.461	20.181	2.244	0.542
852.000	486.461	80.002	20.008	100.456	20.184	1.921	0.533
852.500	486.695	80.000	20.008	100.455	20.185	1.868	0.479
853.000	486.982	80.002	20.008	100.455	20.181	2.231	0.487
853.500	487.249	80.000	20.008	100.458	20.184	1.941	0.538
854.000	487.455	80.001	20.008	100.462	20.182	2.152	0.514
854.500	487.685	80.002	20.008	100.462	20.181	2.202	0.455
855.000	487.956	80.000	20.008	100.461	20.181	2.253	0.468
855.500	488.235	80.001	20.008	100.453	20.183	2.066	0.525
856.000	488.454	80.002	20.008	100.448	20.180	2.337	0.524
856.500	488.725	80.002	20.008	100.447	20.180	2.328	0.494
857.000	489.004	80.000	20.008	100.451	20.180	2.304	0.520
857.500	489.229	80.001	20.008	100.458	20.181	2.262	0.528
858.000	489.521	80.001	20.008	100.469	20.181	2.268	0.511
858.500	489.782	80.002	20.008	100.474	20.182	2.114	0.535
859.000	490.035	80.001	20.008	100.467	20.182	2.134	0.534
859.500	490.258	79.999	20.008	100.454	20.184	1.976	0.495
860.000	490.548	80.002	20.008	100.445	20.184	1.899	0.494
860.500	490.788	80.002	20.008	100.442	20.185	1.787	0.521
861.000	491.044	80.001	20.008	100.446	20.185	1.860	0.513
861.500	491.318	80.000	20.008	100.456	20.185	1.811	0.513
862.000	491.598	80.002	20.008	100.464	20.187	1.644	0.542
862.500	491.823	80.001	20.008	100.464	20.186	1.696	0.529
863.000	492.106	80.002	20.008	100.455	20.186	1.769	0.507
863.500	492.327	80.002	20.008	100.442	20.187	1.582	0.506
864.000	492.571	80.000	20.008	100.437	20.184	1.908	0.484
864.500	492.871	80.001	20.008	100.439	20.183	2.051	0.504
865.000	493.095	80.002	20.008	100.448	20.182	2.126	0.534
865.500	493.396	80.001	20.008	100.460	20.182	2.160	0.525
866.000	493.630	80.000	20.008	100.467	20.183	2.078	0.530
866.500	493.858	80.001	20.008	100.465	20.182	2.120	0.498
867.000	494.128	80.000	20.008	100.456	20.184	1.963	0.479
867.500	494.355	80.002	20.008	100.446	20.184	1.882	0.497
868.000	494.613	80.001	20.008	100.441	20.183	2.065	0.491
868.500	494.887	80.001	20.008	100.444	20.183	2.080	0.509
869.000	495.127	80.002	20.008	100.454	20.180	2.320	0.524
869.500	495.367	80.000	20.008	100.462	20.181	2.248	0.497
870.000	495.596	80.002	20.008	100.465	20.182	2.117	0.474
870.500	495.872	80.001	20.008	100.461	20.183	2.075	0.486
871.000	496.078	80.003	20.008	100.452	20.184	1.954	0.494
871.500	496.322	80.000	20.008	100.439	20.183	2.007	0.467
872.000	496.581	80.002	20.008	100.438	20.181	2.232	0.476
872.500	496.813	80.001	20.008	100.442	20.182	2.102	0.497
873.000	497.112	80.001	20.008	100.451	20.183	2.082	0.511
873.500	497.350	80.001	20.008	100.461	20.183	2.088	0.534
874.000	497.625	80.000	20.008	100.468	20.181	2.264	0.525
874.500	497.901	80.002	20.008	100.462	20.182	2.099	0.532
875.000	498.150	80.003	20.008	100.451	20.185	1.874	0.538
875.500	498.427	80.002	20.008	100.440	20.184	1.916	0.526
876.000	498.657	80.002	20.008	100.436	20.185	1.820	0.516
876.500	498.932	80.001	20.008	100.442	20.186	1.741	0.505
877.000	499.128	80.002	20.008	100.461	20.186	1.776	0.488
877.500	499.399	80.001	20.008	100.484	20.187	1.635	0.469
878.000	499.665	80.001	20.008	100.496	20.187	1.571	0.502
878.500	499.913	80.002	20.008	100.501	20.187	1.609	0.525
879.000	500.159	80.001	20.008	100.496	20.187	1.648	0.504
879.500	500.406	80.001	20.008	100.485	20.191	1.169	0.493
880.000	500.661	80.002	20.008	100.476	20.190	1.296	0.497
880.500	500.863	80.002	20.008	100.478	20.191	1.175	0.480
881.000	501.114	80.002	20.008	100.488	20.192	1.149	0.455
881.500	501.297	80.000	20.007	100.498	20.190	1.345	0.444
882.000	501.603	80.002	20.008	100.505	20.192	1.109	0.461
882.500	501.804	80.001	20.008	100.499	20.192	1.146	0.498
883.000	502.046	80.001	20.008	100.491	20.191	1.217	0.475
883.500	502.299	80.002	20.008	100.479	20.189	1.362	0.469
884.000	502.524	80.002	20.008	100.476	20.191	1.204	0.486
884.500	502.773	80.000	20.008	100.477	20.190	1.343	0.476
885.000	502.989	80.002	20.008	100.483	20.189	1.435	0.470
885.500	503.221	80.002	20.008	100.489	20.189	1.393	0.457
886.000	503.466	80.001	20.008	100.482	20.186	1.699	0.463
886.500	503.705	80.001	20.008	100.467	20.188	1.525	0.481
887.000	503.965	80.002	20.008	100.450	20.186	1.719	0.492
887.500	504.177	80.001	20.008	100.437	20.189	1.424	0.485
888.000	504.385	80.002	20.008	100.430	20.185	1.794	0.445
888.500	504.684	80.002	20.008	100.436	20.185	1.794	0.463
889.000	504.948	80.001	20.008	100.447	20.186	1.770	0.535
889.500	505.172	80.000	20.008	100.460	20.187	1.615	0.525
890.000	505.415	80.003	20.008	100.467	20.187	1.644	0.477
890.500	505.636	80.001	20.008	100.466	20.188	1.554	0.465
891.000	505.847	80.001	20.008	100.462	20.187	1.657	0.448
891.500	506.100	80.002	20.008	100.461	20.188	1.503	0.448
892.000	506.330	80.002	20.008	100.464	20.187	1.624	0.474
892.500	506.577	80.002	20.008	100.470	20.187	1.653	0.480
893.000	506.796	80.002	20.008	100.480	20.188	1.472	0.471
893.500	507.088	80.001	20.007	100.487	20.188	1.483	0.488
894.000	507.323	80.002	20.008	100.487	20.185	1.822	0.520
894.500	507.549	80.001	20.008	100.479	20.187	1.666	0.494
895.000	507.795	80.001	20.008	100.469	20.188	1.474	0.466
895.500	508.073	80.002	20.008	100.462	20.189	1.417	0.498
896.000	508.288	80.002	20.008	100.465	20.189	1.384	0.508
896.500	508.539	80.001	20.008	100.471	20.191	1.186	0.480
897.000	508.780	80.001	20.007	100.480	20.189	1.384	0.480
897.500	508.999	80.000	20.008	100.486	20.189	1.375	0.476
898.000	509.296	80.002	20.008	100.486	20.189	1.450	0.487
898.500	509.484	80.001	20.008	100.478	20.191	1.201	0.500
899.000	509.794	80.001	20.008	100.472	20.189	1.373	0.492
899.500	510.023	80.000	20.008	100.471	20.189	1.428	0.519
900.000	510.254	80.002	20.008	100.474	20.191	1.241	0.499
900.500	510.515	80.002	20.008	100.482	20.190	1.353	0.476
901.000	510.717	80.001	20.008	100.490	20.190	1.283	0.478
901.500	511.000	80.001	20.008	100.488	20.191	1.250	0.474
902.000	511.226	80.001	20.008	100.482	20.188	1.527	0.497
902.500	511.465	80.001	20.008	100.473	20.187	1.624	0.487
903.000	511.690	80.002	20.008	100.466	20.188	1.490	0.464
903.500	511.954	80.001	20.008	100.464	20.189	1.426	0.476
904.000	512.185	80.001	20.008	100.471	20.186	1.721	0.492
904.500	512.434	80.001	20.007	100.476	20.185	1.781	0.488
905.000	512.666	80.000	20.008	100.477	20.187	1.651	0.480
905.500	512.913	80.001	20.008	100.473	20.188	1.517	0.480
906.000	513.120	80.002	20.008	100.460	20.186	1.708	0.467
906.500	513.383	80.001	20.008	100.449	20.185	1.779	0.462
907.000	513.635	80.001	20.008	100.444	20.187	1.671	0.492
907.500	513.891	80.001	20.008	100.451	20.186	1.695	0.512
908.000	514.143	80.002	20.008	100.461	20.183	2.088	0.508
908.500	514.387	80.001	20.008	100.472	20.185	1.862	0.502
909.000	514.647	80.000	20.008	100.476	20.188	1.476	0.500
909.500	514.864	80.002	20.007	100.476	20.189	1.437	0.491
910.000	515.095	80.001	20.008	100.468	20.187	1.589	0.463
910.500	515.359	80.001	20.008	100.461	20.186	1.710	0.471
911.000	515.601	80.002	20.008	100.459	20.188	1.541	0.500
911.500	515.857	80.001	20.008	100.459	20.186	1.684	0.502
912.000	516.127	80.000	20.008	100.459	20.186	1.672	0.512
912.500	516.395	80.001	20.008	100.460	20.184	1.956	0.532
913.000	516.603	80.002	20.008	100.460	20.184	1.892	0.507
913.500	516.884	80.000	20.009	100.456	20.190	1.285	0.482
914.000	517.108	80.001	20.008	100.457	20.189	1.404	0.497
914.500	517.378	80.002	20.008	100.458	20.189	1.450	0.500
915.000	517.620	80.001	20.008	100.464	20.190	1.338	0.503
915.500	517.856	80.000	20.008	100.472	20.190	1.331	0.495
916.000	518.119	80.002	20.008	100.479	20.188	1.466	0.489
916.500	518.357	80.002	20.008	100.486	20.188	1.560	0.500
917.000	518.580	80.002	20.008	100.491	20.191	1.164	0.481
917.500	518.844	80.002	20.008	100.492	20.190	1.349	0.474
918.000	519.104	80.001	20.008	100.492	20.192	1.114	0.506
918.500	519.334	80.001	20.008	100.497	20.191	1.191	0.507
919.000	519.563	80.001	20.008	100.498	20.190	1.270	0.474
919.500	519.847	80.001	20.008	100.499	20.190	1.299	0.486
920.000	520.063	80.002	20.008	100.496	20.193	0.944	0.507
920.500	520.280	80.000	20.007	100.488	20.191	1.228	0.467
921.000	520.566	80.003	20.008	100.472	20.192	1.151	0.468
921.500	520.870	80.001	20.008	100.459	20.190	1.338	0.546
922.000	521.078	80.001	20.008	100.451	20.189	1.450	0.551
922.500	521.363	80.002	20.008	100.451	20.187	1.613	0.503
923.000	521.569	80.001	20.008	100.460	20.185	1.855	0.492
923.500	521.848	80.001	20.008	100.472	20.185	1.873	0.488
924.000	522.078	80.001	20.008	100.478	20.184	1.881	0.497
924.500	522.299	80.003	20.008	100.476	20.187	1.655	0.480
925.000	522.580	80.002	20.008	100.464	20.187	1.646	0.476
925.500	522.856	80.001	20.008	100.453	20.186	1.690	0.529
926.000	523.092	80.002	20.008	100.446	20.187	1.604	0.535
926.500	523.282	80.003	20.008	100.450	20.189	1.374	0.469
927.000	523.595	79.999	20.008	100.460	20.189	1.396	0.465
927.500	523.821	80.000	20.007	100.474	20.188	1.475	0.521
928.000	523.999	80.002	20.008	100.478	20.188	1.543	0.471
928.500	524.274	80.002	20.008	100.476	20.189	1.387	0.429
929.000	524.527	80.001	20.008	100.471	20.187	1.651	0.491
929.500	524.773	80.001	20.008	100.463	20.186	1.701	0.514
930.000	525.020	80.001	20.008	100.460	20.189	1.457	0.496
930.500	525.236	80.000	20.008	100.467	20.187	1.638	0.477
931.000	525.551	80.002	20.008	100.475	20.187	1.627	0.497
931.500	525.788	80.001	20.008	100.483	20.190	1.332	0.542
932.000	525.975	80.001	20.008	100.488	20.190	1.294	0.488
932.500	526.226	80.001	20.008	100.483	20.189	1.386	0.431
933.000	526.466	80.001	20.008	100.475	20.189	1.411	0.465
933.500	526.754	80.002	20.008	100.472	20.187	1.622	0.510
934.000	526.967	80.000	20.008	100.471	20.187	1.598	0.514
934.500	527.229	80.002	20.008	100.475	20.190	1.277	0.488
935.000	527.460	80.001	20.008	100.483	20.189	1.413	0.484
935.500	527.694	80.001	20.007	100.489	20.189	1.454	0.479
936.000	527.964	80.001	20.008	100.485	20.191	1.186	0.485
936.500	528.258	80.001	20.008	100.471	20.191	1.241	0.534
937.000	528.514	80.002	20.008	100.460	20.188	1.478	0.557
937.500	528.716	80.002	20.008	100.453	20.190	1.305	0.504
938.000	528.982	80.002	20.008	100.453	20.192	1.124	0.463
938.500	529.211	80.001	20.008	100.463	20.193	1.010	0.482
939.000	529.453	80.001	20.007	100.481	20.191	1.186	0.483
939.500	529.655	79.999	20.008	100.492	20.192	1.091	0.457
940.000	529.889	80.001	20.008	100.496	20.190	1.280	0.440
940.500	530.195	80.001	20.008	100.491	20.190	1.287	0.489
941.000	530.393	80.003	20.008	100.482	20.191	1.230	0.522
941.500	530.683	80.002	20.008	100.476	20.191	1.162	0.495
942.000	530.876	80.001	20.008	100.476	20.190	1.296	0.485
942.500	531.186	80.001	20.008	100.479	20.189	1.380	0.493
943.000	531.441	80.002	20.008	100.487	20.192	1.089	0.534
943.500	531.651	80.001	20.008	100.492	20.190	1.305	0.515
944.000	531.923	80.002	20.008	100.486	20.188	1.560	0.474
944.500	532.145	80.003	20.008	100.478	20.191	1.217	0.488
945.000	532.390	80.000	20.008	100.470	20.187	1.591	0.481
945.500	532.625	80.002	20.008	100.466	20.190	1.345	0.474
946.000	532.885	80.001	20.008	100.467	20.190	1.327	0.487
946.500	533.126	80.001	20.008	100.475	20.189	1.369	0.498
947.000	533.402	80.002	20.007	100.481	20.187	1.583	0.509
947.500	533.645	80.003	20.008	100.482	20.189	1.384	0.518
948.000	533.887	80.000	20.008	100.474	20.190	1.329	0.502
948.500	534.097	80.001	20.008	100.460	20.187	1.661	0.469
949.000	534.372	80.001	20.008	100.449	20.186	1.697	0.469
949.500	534.578	80.001	20.008	100.443	20.185	1.778	0.483
950.000	534.873	80.002	20.008	100.442	20.187	1.646	0.491
950.500	535.087	80.002	20.008	100.446	20.186	1.697	0.505
951.000	535.324	80.001	20.008	100.447	20.184	1.937	0.480
951.500	535.594	80.002	20.007	100.438	20.186	1.756	0.479
952.000	535.833	80.002	20.008	100.424	20.184	1.884	0.508
952.500	536.064	80.002	20.008	100.410	20.184	1.932	0.490
953.000	536.275	80.001	20.008	100.403	20.184	1.897	0.456
953.500	536.558	80.002	20.008	100.406	20.183	2.038	0.468
954.000	536.807	80.003	20.008	100.418	20.183	1.985	0.513
954.500	537.027	80.000	20.008	100.433	20.185	1.789	0.500
955.000	537.260	80.002	20.008	100.448	20.187	1.618	0.461
955.500	537.496	80.002	20.008	100.451	20.186	1.756	0.461
956.000	537.769	80.002	20.008	100.445	20.187	1.650	0.489
956.500	537.963	80.001	20.008	100.437	20.186	1.745	0.488
957.001	538.257	80.001	20.008	100.432	20.187	1.589	0.478
957.500	538.546	80.003	20.008	100.435	20.190	1.270	0.536
958.000	538.675	80.001	20.008	100.449	20.189	1.428	0.501
958.500	538.966	80.001	20.007	100.467	20.189	1.443	0.419
959.000	539.179	80.001	20.007	100.483	20.189	1.445	0.462
959.500	539.436	80.001	20.008	100.491	20.188	1.489	0.487
960.000	539.683	80.000	20.008	100.488	20.187	1.608	0.487
960.500	539.894	80.002	20.008	100.478	20.189	1.463	0.481
961.000	540.109	80.001	20.008	100.469	20.187	1.580	0.442
961.500	540.423	80.001	20.008	100.465	20.185	1.855	0.477
962.000	540.642	80.001	20.008	100.466	20.187	1.589	0.531
962.500	540.858	80.002	20.008	100.468	20.186	1.719	0.484
963.000	541.077	80.002	20.008	100.472	20.187	1.622	0.435
963.500	541.338	80.002	20.008	100.472	20.189	1.446	0.458
964.000	541.624	80.001	20.007	100.468	20.187	1.615	0.514
964.500	541.845	80.002	20.008	100.463	20.188	1.486	0.527
965.000	542.084	80.000	20.008	100.462	20.187	1.596	0.483
965.500	542.331	80.002	20.008	100.465	20.187	1.622	0.473
966.000	542.622	80.002	20.008	100.474	20.184	1.937	0.512
966.500	542.852	80.002	20.007	100.482	20.186	1.752	0.530
967.000	543.118	80.002	20.008	100.486	20.187	1.637	0.509
967.500	543.366	80.002	20.008	100.484	20.185	1.824	0.505
968.000	543.551	80.002	20.008	100.475	20.185	1.789	0.473
968.500	543.830	80.003	20.008	100.468	20.186	1.765	0.449
969.000	544.081	80.002	20.008	100.466	20.186	1.719	0.497
969.500	544.296	80.001	20.008	100.466	20.183	2.005	0.498
970.000	544.584	80.003	20.007	100.467	20.185	1.802	0.485
970.500	544.860	80.002	20.008	100.467	20.185	1.796	0.534
971.000	545.097	80.002	20.008	100.463	20.184	1.890	0.538
971.500	545.348	80.001	20.008	100.450	20.183	2.060	0.500
972.000	545.582	80.003	20.008	100.437	20.185	1.864	0.486
972.500	545.835	80.001	20.008	100.432	20.184	1.979	0.486
973.000	546.041	80.002	20.008	100.433	20.186	1.711	0.473
973.500	546.327	80.001	20.008	100.438	20.185	1.830	0.475
974.000	546.551	80.002	20.007	100.448	20.186	1.726	0.501
974.500	546.839	80.001	20.008	100.456	20.186	1.713	0.511
975.000	547.023	80.002	20.008	100.461	20.184	1.939	0.492
975.500	547.286	80.002	20.008	100.460	20.186	1.708	0.460
976.000	547.539	80.001	20.008	100.461	20.187	1.662	0.481
976.500	547.789	80.002	20.008	100.466	20.184	1.955	0.509
977.000	547.963	80.002	20.008	100.474	20.184	1.958	0.463
977.500	548.228	80.002	20.008	100.482	20.185	1.817	0.431
978.000	548.495	80.002	20.008	100.484	20.187	1.625	0.486
978.500	548.721	80.002	20.008	100.482	20.186	1.761	0.513
979.000	548.938	80.002	20.008	100.474	20.187	1.609	0.468
979.500	549.199	80.002	20.008	100.465	20.184	1.981	0.460
980.000	549.433	80.002	20.008	100.461	20.184	1.900	0.487
980.500	549.718	80.002	20.008	100.466	20.186	1.728	0.507
981.000	549.970	80.002	20.008	100.474	20.184	1.907	0.528
981.500	550.179	80.001	20.008	100.482	20.185	1.816	0.498
982.000	550.415	80.001	20.007	100.486	20.186	1.706	0.453
982.500	550.663	80.002	20.008	100.481	20.187	1.580	0.465
983.000	550.887	80.002	20.008	100.474	20.187	1.584	0.478
983.500	551.171	80.001	20.008	100.468	20.188	1.529	0.490
984.000	551.395	80.002	20.008	100.468	20.190	1.327	0.508
984.500	551.693	80.001	20.008	100.475	20.191	1.243	0.515
985.000	551.888	80.002	20.008	100.489	20.188	1.519	0.508
985.500	552.141	80.001	20.008	100.505	20.192	1.109	0.471
986.000	552.385	80.002	20.007	100.519	20.193	0.979	0.472
986.500	552.618	80.002	20.008	100.521	20.195	0.814	0.487
987.000	552.861	80.002	20.008	100.519	20.198	0.508	0.477
987.500	553.065	80.000	20.008	100.513	20.196	0.709	0.462
988.000	553.325	80.001	20.008	100.507	20.197	0.605	0.456
988.500	553.562	80.003	20.008	100.507	20.197	0.552	0.481
989.000	553.804	80.001	20.008	100.516	20.197	0.581	0.488
989.500	554.053	80.002	20.008	100.524	20.194	0.865	0.485
990.001	554.329	80.002	20.008	100.530	20.199	0.385	0.508
990.500	554.512	80.002	20.007	100.531	20.197	0.563	0.492
991.000	554.763	80.002	20.008	100.522	20.197	0.601	0.446
991.500	555.030	80.001	20.008	100.513	20.197	0.548	0.476
992.000	555.272	80.003	20.008	100.512	20.195	0.823	0.514
992.500	555.496	80.001	20.008	100.514	20.194	0.896	0.488
993.000	555.789	80.003	20.008	100.519	20.195	0.775	0.492
993.500	555.990	80.001	20.008	100.523	20.191	1.208	0.506
994.000	556.250	80.003	20.008	100.520	20.192	1.061	0.478
994.500	556.529	80.003	20.008	100.506	20.192	1.076	0.500
995.000	556.753	80.002	20.008	100.490	20.190	1.274	0.521
995.500	556.974	80.001	20.008	100.473	20.190	1.318	0.474
996.000	557.216	80.001	20.008	100.460	20.190	1.265	0.454
996.500	557.486	80.002	20.008	100.455	20.186	1.719	0.487
997.000	557.709	80.001	20.008	100.463	20.187	1.633	0.502
997.500	557.976	80.002	20.007	100.469	20.188	1.565	0.491
998.000	558.192	80.002	20.007	100.474	20.185	1.798	0.487
998.500	558.448	80.002	20.007	100.477	20.187	1.664	0.478
999.000	558.672	80.002	20.008	100.475	20.186	1.679	0.476
999.500	558.950	80.001	20.008	100.467	20.184	1.888	0.491
1000.000	559.202	80.003	20.008	100.461	20.185	1.816	0.516
1000.500	559.458	80.002	20.007	100.464	20.186	1.719	0.519
1001.000	559.701	80.002	20.008	100.468	20.185	1.809	0.503
1001.500	559.944	80.002	20.007	100.476	20.185	1.873	0.493
1002.001	560.252	80.001	20.007	100.484	20.184	1.930	0.519
1002.500	560.497	80.002	20.007	100.485	20.183	1.990	0.552
1003.000	560.786	80.001	20.008	100.478	20.185	1.871	0.543
1003.500	560.997	80.002	20.008	100.471	20.186	1.725	0.517
1004.000	561.252	80.001	20.008	100.464	20.184	1.981	0.483
1004.500	561.496	80.003	20.008	100.463	20.183	2.016	0.482
1005.000	561.771	80.001	20.008	100.469	20.184	1.939	0.510
1005.500	562.021	80.001	20.007	100.477	20.183	2.034	0.523
1006.000	562.307	80.002	20.008	100.483	20.186	1.682	0.530
1006.500	562.557	80.003	20.008	100.482	20.186	1.730	0.536
1007.000	562.828	80.000	20.007	100.476	20.187	1.629	0.528
1007.500	563.106	80.002	20.008	100.467	20.186	1.732	0.535
1008.000	563.333	80.001	20.008	100.462	20.184	1.933	0.527
1008.500	563.588	80.003	20.008	100.465	20.184	1.935	0.493
1009.000	563.894	80.001	20.008	100.477	20.184	1.968	0.521
1009.500	564.097	80.002	20.007	100.489	20.183	2.032	0.535
1010.000	564.376	80.001	20.008	100.498	20.187	1.631	0.496
1010.500	564.605	80.002	20.008	100.496	20.186	1.708	0.495
1011.000	564.877	80.001	20.007	100.488	20.186	1.677	0.504
1011.500	565.149	80.004	20.007	100.476	20.185	1.816	0.523
1012.000	565.417	80.001	20.008	100.469	20.186	1.735	0.543
1012.500	565.641	80.000	20.007	100.469	20.184	1.940	0.516
1013.000	565.877	80.003	20.007	100.476	20.185	1.860	0.475
1013.500	566.124	80.002	20.008	100.484	20.183	2.069	0.472
1014.000	566.408	80.002	20.008	100.490	20.183	2.045	0.508
1014.500	566.672	80.003	20.008	100.492	20.188	1.488	0.539
1015.000	566.911	80.001	20.008	100.485	20.187	1.609	0.525
1015.500	567.185	80.003	20.008	100.477	20.187	1.620	0.508
1016.000	567.443	80.001	20.008	100.472	20.188	1.514	0.522
1016.500	567.709	80.002	20.008	100.474	20.189	1.457	0.528
1017.000	567.966	80.002	20.008	100.478	20.189	1.444	0.524
1017.500	568.239	80.002	20.007	100.487	20.190	1.352	0.526
1018.000	568.483	80.002	20.008	100.494	20.190	1.341	0.523
1018.500	568.728	80.003	20.008	100.492	20.189	1.400	0.503
1019.000	568.956	80.002	20.008	100.483	20.188	1.552	0.482
1019.500	569.206	80.003	20.008	100.475	20.187	1.620	0.475
1020.000	569.438	80.001	20.008	100.474	20.187	1.643	0.480
1020.500	569.678	80.001	20.007	100.476	20.188	1.526	0.477
1021.000	569.929	80.001	20.008	100.489	20.188	1.546	0.482
1021.500	570.201	80.002	20.008	100.499	20.191	1.255	0.507
1022.000	570.444	80.002	20.007	100.505	20.191	1.211	0.519
1022.500	570.691	80.002	20.008	100.502	20.192	1.107	0.502
1023.000	570.950	80.001	20.008	100.496	20.191	1.228	0.498
1023.500	571.214	80.001	20.008	100.489	20.192	1.111	0.515
1024.000	571.454	80.002	20.008	100.486	20.191	1.197	0.514
1024.500	571.695	80.001	20.007	100.488	20.191	1.226	0.493
1025.000	571.929	80.001	20.007	100.498	20.189	1.389	0.478
1025.500	572.197	80.003	20.008	100.510	20.193	0.955	0.488
1026.000	572.447	80.003	20.008	100.512	20.193	0.959	0.509
1026.500	572.702	80.002	20.008	100.509	20.194	0.878	0.512
1027.000	572.897	80.002	20.008	100.501	20.194	0.845	0.478
1027.500	573.217	80.003	20.008	100.488	20.195	0.777	0.482
1028.000	573.482	80.002	20.008	100.482	20.193	0.982	0.549
1028.500	573.680	80.002	20.008	100.488	20.197	0.623	0.524
1029.000	573.935	80.003	20.008	100.499	20.196	0.689	0.458
1029.500	574.140	80.002	20.008	100.514	20.196	0.689	0.457
1030.000	574.426	80.001	20.008	100.521	20.197	0.557	0.476
1030.500	574.668	80.003	20.008	100.520	20.197	0.539	0.510
1031.000	574.960	80.001	20.008	100.514	20.198	0.510	0.531
1031.500	575.212	80.004	20.008	100.511	20.197	0.544	0.538
1032.000	575.453	80.002	20.007	100.511	20.198	0.495	0.519
1032.500	575.719	80.002	20.007	100.517	20.198	0.460	0.500
1033.000	575.944	80.001	20.008	100.525	20.194	0.865	0.499
1033.500	576.193	80.003	20.008	100.528	20.196	0.722	0.483
1034.000	576.445	80.002	20.008	100.522	20.197	0.590	0.487
1034.500	576.677	80.003	20.008	100.510	20.195	0.779	0.492
1035.000	576.944	80.002	20.008	100.496	20.195	0.746	0.492
1035.500	577.173	80.002	20.007	100.486	20.195	0.801	0.498
1036.000	577.401	80.002	20.008	100.482	20.194	0.848	0.476
1036.500	577.672	80.001	20.008	100.482	20.194	0.940	0.478
1037.000	577.917	80.001	20.008	100.486	20.195	0.757	0.507
1037.500	578.191	80.002	20.007	100.486	20.192	1.118	0.517
1038.000	578.432	80.001	20.008	100.479	20.195	0.735	0.517
1038.500	578.708	80.002	20.008	100.471	20.193	0.973	0.516
1039.000	578.905	80.001	20.008	100.471	20.193	1.008	0.495
1039.500	579.193	80.002	20.007	100.471	20.189	1.413	0.479
1040.001	579.413	80.002	20.008	100.478	20.190	1.281	0.497
1040.501	579.652	80.002	20.007	100.485	20.187	1.640	0.484
1041.000	579.882	80.002	20.007	100.490	20.191	1.255	0.464
1041.500	580.189	80.001	20.007	100.482	20.189	1.457	0.503
1042.000	580.376	80.002	20.008	100.473	20.190	1.259	0.515
1042.500	580.639	80.002	20.008	100.464	20.190	1.316	0.472
1043.001	580.918	80.001	20.008	100.456	20.192	1.094	0.496
1043.501	581.147	80.002	20.008	100.452	20.189	1.389	0.525
1044.000	581.427	80.002	20.008	100.458	20.189	1.406	0.508
1044.500	581.676	80.003	20.008	100.466	20.190	1.316	0.519
1045.000	581.886	80.003	20.008	100.472	20.191	1.173	0.494
1045.500	582.196	80.001	20.008	100.473	20.189	1.444	0.489
1046.000	582.445	80.001	20.008	100.473	20.192	1.151	0.539
1046.500	582.621	80.004	20.008	100.467	20.191	1.204	0.491
1047.001	582.890	80.001	20.008	100.463	20.191	1.167	0.435
1047.501	583.152	80.002	20.008	100.465	20.192	1.151	0.488
1048.000	583.402	80.002	20.008	100.479	20.193	0.984	0.522
1048.500	583.604	80.002	20.007	100.494	20.190	1.307	0.482
1049.000	583.863	80.002	20.008	100.508	20.195	0.821	0.456
1049.500	584.181	80.002	20.008	100.514	20.191	1.208	0.519
1050.000	584.391	80.001	20.008	100.512	20.191	1.228	0.553
1050.500	584.598	80.002	20.008	100.501	20.192	1.105	0.472
1051.000	584.874	80.001	20.008	100.492	20.188	1.472	0.450
1051.500	585.109	80.002	20.008	100.486	20.189	1.451	0.497
1052.001	585.357	80.001	20.008	100.485	20.188	1.484	0.496
1052.501	585.643	80.003	20.008	100.488	20.188	1.472	0.508
1053.001	585.835	80.001	20.008	100.493	20.186	1.690	0.506
1053.500	586.121	80.002	20.008	100.491	20.188	1.490	0.478
1054.000	586.359	80.002	20.008	100.484	20.188	1.468	0.501
1054.500	586.633	80.002	20.008	100.476	20.186	1.741	0.518
1055.000	586.878	80.001	20.008	100.468	20.190	1.349	0.515
1055.500	587.121	80.003	20.008	100.466	20.188	1.539	0.504
1056.000	587.355	80.001	20.008	100.468	20.189	1.439	0.483
1056.500	587.614	80.002	20.008	100.475	20.188	1.501	0.485
1057.000	587.909	80.002	20.008	100.477	20.191	1.217	0.523
1057.500	588.137	80.002	20.008	100.477	20.190	1.344	0.538
1058.000	588.401	80.003	20.008	100.471	20.189	1.364	0.508
1058.501	588.640	80.001	20.008	100.464	20.190	1.342	0.497
1059.001	588.898	80.000	20.008	100.463	20.192	1.100	0.500
1059.500	589.156	80.002	20.008	100.471	20.192	1.074	0.507
1060.001	589.417	80.002	20.008	100.484	20.192	1.127	0.517
1060.501	589.616	80.003	20.008	100.494	20.193	0.951	0.489
1061.000	589.866	80.002	20.008	100.497	20.191	1.155	0.455
1061.500	590.098	80.001	20.008	100.490	20.189	1.448	0.466
1062.000	590.373	80.001	20.008	100.480	20.189	1.430	0.494
1062.501	590.590	80.002	20.008	100.469	20.189	1.409	0.500
1063.001	590.801	80.000	20.008	100.468	20.191	1.153	0.460
1063.501	591.061	80.002	20.008	100.473	20.191	1.162	0.449
1064.001	591.315	80.002	20.008	100.481	20.190	1.268	0.492
1064.500	591.509	80.001	20.008	100.488	20.193	0.992	0.481
1065.000	591.761	80.002	20.008	100.493	20.192	1.063	0.448
1065.500	591.977	80.002	20.008	100.486	20.192	1.131	0.457
1066.000	592.238	80.002	20.008	100.480	20.191	1.243	0.472
1066.500	592.453	80.001	20.008	100.480	20.191	1.171	0.476
1067.000	592.676	80.002	20.008	100.480	20.189	1.384	0.457
1067.501	592.956	80.002	20.008	100.482	20.193	1.017	0.471
1068.001	593.165	80.003	20.008	100.487	20.192	1.100	0.496
1068.500	593.360	80.000	20.008	100.487	20.188	1.507	0.446
1069.000	593.630	80.002	20.008	100.479	20.189	1.430	0.434
1069.500	593.892	80.003	20.008	100.470	20.185	1.796	0.498
1070.000	594.095	80.002	20.008	100.462	20.186	1.752	0.498
1070.500	594.328	80.001	20.008	100.459	20.188	1.495	0.451
1071.000	594.595	80.002	20.008	100.466	20.187	1.624	0.468
1071.500	594.817	80.001	20.007	100.474	20.183	2.049	0.495
1072.000	595.104	80.001	20.008	100.480	20.183	1.994	0.499
1072.500	595.367	80.003	20.008	100.481	20.185	1.798	0.529
1073.000	595.601	80.002	20.008	100.478	20.186	1.734	0.524
1073.500	595.822	80.002	20.008	100.468	20.185	1.794	0.476
1074.005	596.133	80.001	20.008	100.462	20.185	1.871	0.494
1074.505	596.303	80.003	20.008	100.465	20.186	1.690	0.507
1075.000	596.588	80.004	20.008	100.472	20.183	2.054	0.468
1075.500	596.821	80.004	20.009	100.480	20.184	1.897	0.486
1076.000	597.044	80.005	20.009	100.484	20.186	1.723	0.487
1076.500	597.314	80.003	20.010	100.483	20.188	1.525	0.474
1077.000	597.561	80.002	20.008	100.474	20.187	1.661	0.505
1077.500	597.799	80.003	20.008	100.466	20.184	1.895	0.501
1078.000	598.037	80.001	20.008	100.458	20.185	1.844	0.480
1078.500	598.310	80.002	20.008	100.461	20.182	2.179	0.494
1079.000	598.560	80.001	20.007	100.469	20.180	2.313	0.517
1079.500	598.819	80.001	20.007	100.477	20.183	2.051	0.516
1080.000	599.112	80.002	20.008	100.479	20.184	1.957	0.530
1080.500	599.356	80.001	20.008	100.479	20.185	1.835	0.545
1081.000	599.619	80.003	20.008	100.474	20.186	1.770	0.522
1081.500	599.850	80.000	20.008	100.470	20.186	1.730	0.501
1082.000	600.124	80.001	20.008	100.470	20.185	1.847	0.500
1082.500	600.364	80.002	20.008	100.477	20.186	1.745	0.509
1083.000	600.586	80.002	20.008	100.485	20.185	1.831	0.488
1083.500	600.894	80.001	20.008	100.490	20.185	1.813	0.496
1084.000	601.155	80.002	20.008	100.488	20.186	1.710	0.550
1084.500	601.423	80.001	20.008	100.480	20.185	1.802	0.549
1085.000	601.632	80.001	20.008	100.471	20.186	1.721	0.503
1085.500	601.858	80.001	20.008	100.465	20.187	1.666	0.456
1086.000	602.150	80.001	20.008	100.467	20.186	1.774	0.476
1086.501	602.414	80.002	20.008	100.474	20.187	1.589	0.537
1087.001	602.665	80.002	20.008	100.483	20.186	1.727	0.536
1087.500	602.916	80.002	20.008	100.489	20.186	1.679	0.509
1088.000	603.157	80.002	20.008	100.487	20.188	1.547	0.497
1088.500	603.403	80.002	20.008	100.479	20.184	1.895	0.489
1089.000	603.669	80.002	20.008	100.472	20.183	1.998	0.499
1089.500	603.928	80.001	20.008	100.464	20.183	1.992	0.518
1090.000	604.184	80.001	20.008	100.462	20.182	2.179	0.520
1090.500	604.476	80.002	20.008	100.469	20.183	2.078	0.531
1091.000	604.702	80.001	20.008	100.477	20.184	1.974	0.533
1091.500	604.963	80.003	20.008	100.481	20.184	1.950	0.503
1092.000	605.245	80.001	20.008	100.481	20.185	1.833	0.515
1092.500	605.512	80.002	20.008	100.477	20.183	2.022	0.546
1093.000	605.746	80.002	20.008	100.476	20.183	2.082	0.525
1093.500	605.984	80.002	20.008	100.476	20.182	2.144	0.487
1094.000	606.296	80.001	20.008	100.480	20.182	2.188	0.511
1094.500	606.484	80.001	20.008	100.488	20.181	2.229	0.525
1095.000	606.761	80.001	20.008	100.491	20.183	2.055	0.482
1095.500	606.994	80.000	20.008	100.485	20.183	2.040	0.487
1096.000	607.246	80.003	20.008	100.477	20.183	2.047	0.498
1096.500	607.569	80.002	20.008	100.468	20.183	2.073	0.530
1097.000	607.847	80.002	20.008	100.462	20.181	2.195	0.588
1097.501	608.064	80.001	20.008	100.465	20.179	2.448	0.549
1098.001	608.320	80.003	20.008	100.472	20.180	2.368	0.484
1098.500	608.595	80.001	20.008	100.477	20.178	2.540	0.502
1099.000	608.861	80.002	20.008	100.478	20.181	2.291	0.536
1099.500	609.086	80.001	20.008	100.475	20.181	2.289	0.516
1100.000	609.381	80.003	20.008	100.466	20.181	2.243	0.505
1100.500	609.614	80.002	20.008	100.458	20.182	2.120	0.524
1101.000	609.839	80.002	20.008	100.456	20.181	2.265	0.493
1101.500	610.099	80.000	20.008	100.463	20.184	1.950	0.471
1102.000	610.318	80.003	20.008	100.471	20.185	1.787	0.482
1102.501	610.589	80.001	20.008	100.478	20.185	1.822	0.484
1103.001	610.826	80.001	20.008	100.478	20.187	1.617	0.499
1103.500	611.095	80.002	20.008	100.475	20.182	2.159	0.507
1104.000	611.380	80.002	20.008	100.467	20.185	1.864	0.530
1104.501	611.581	80.001	20.008	100.464	20.185	1.847	0.520
1105.001	611.866	80.001	20.008	100.466	20.186	1.741	0.486
1105.500	612.046	80.001	20.008	100.474	20.184	1.952	0.476
1106.000	612.323	80.001	20.008	100.482	20.186	1.677	0.461
1106.500	612.560	80.003	20.008	100.488	20.187	1.617	0.485
1107.000	612.830	80.001	20.008	100.485	20.188	1.501	0.510
1107.501	613.045	80.004	20.008	100.476	20.186	1.763	0.496
1108.001	613.338	80.000	20.008	100.473	20.189	1.461	0.497
1108.501	613.567	80.001	20.008	100.474	20.187	1.642	0.515
1109.000	613.818	80.002	20.008	100.476	20.187	1.569	0.501
1109.500	614.043	80.001	20.008	100.483	20.185	1.787	0.478
1110.000	614.280	80.002	20.008	100.490	20.186	1.675	0.469
1110.500	614.507	80.001	20.008	100.493	20.185	1.804	0.463
1111.000	614.747	80.002	20.008	100.489	20.185	1.791	0.465
1111.500	615.037	80.002	20.008	100.489	20.186	1.717	0.498
1112.000	615.240	80.001	20.008	100.489	20.188	1.505	0.511
1112.500	615.519	80.002	20.008	100.489	20.185	1.862	0.487
1113.000	615.700	80.001	20.008	100.489	20.186	1.706	0.471
1113.500	615.975	80.003	20.008	100.491	20.183	1.998	0.458
1114.000	616.205	80.001	20.008	100.485	20.185	1.813	0.481
1114.500	616.463	80.002	20.008	100.476	20.185	1.789	0.496
1115.000	616.702	80.002	20.008	100.465	20.184	1.950	0.492
1115.500	616.947	80.002	20.008	100.457	20.182	2.106	0.491
1116.000	617.249	80.000	20.008	100.454	20.183	2.065	0.516
1116.500	617.451	80.002	20.008	100.461	20.184	1.937	0.525
1117.000	617.731	80.003	20.008	100.470	20.181	2.258	0.493
1117.500	618.018	80.001	20.008	100.479	20.180	2.379	0.525
1118.000	618.248	80.001	20.008	100.479	20.181	2.198	0.542
1118.500	618.465	80.002	20.008	100.477	20.181	2.229	0.482
1119.001	618.749	80.000	20.008	100.469	20.181	2.240	0.474
1119.501	619.010	80.002	20.008	100.464	20.181	2.276	0.523
1120.001	619.276	80.002	20.008	100.466	20.182	2.164	0.536
1120.501	619.542	80.002	20.008	100.474	20.182	2.113	0.530
1121.001	619.763	80.003	20.008	100.481	20.183	2.040	0.510
1121.500	619.983	80.002	20.008	100.481	20.186	1.684	0.464
1122.000	620.248	80.001	20.008	100.475	20.185	1.818	0.463
1122.500	620.514	80.002	20.008	100.466	20.184	1.934	0.508
1123.000	620.790	80.001	20.008	100.459	20.184	1.950	0.536
1123.500	621.029	80.002	20.008	100.459	20.184	1.908	0.528
1124.000	621.274	80.001	20.008	100.465	20.184	1.884	0.500
1124.500	621.519	80.002	20.008	100.476	20.184	1.882	0.488
1125.000	621.759	80.000	20.008	100.484	20.185	1.862	0.488
1125.500	621.991	80.002	20.008	100.488	20.185	1.805	0.478
1126.001	622.255	80.003	20.008	100.481	20.185	1.798	0.484
1126.501	622.555	80.002	20.008	100.475	20.185	1.809	0.530
1127.000	622.747	80.002	20.008	100.474	20.187	1.668	0.528
1127.500	623.030	80.002	20.008	100.474	20.184	1.937	0.484
1128.000	623.272	80.001	20.008	100.478	20.187	1.591	0.500
1128.501	623.536	80.000	20.007	100.486	20.186	1.699	0.516
1129.001	623.779	80.002	20.008	100.491	20.186	1.721	0.507
1129.500	624.056	80.000	20.008	100.485	20.182	2.185	0.513
1130.000	624.328	80.001	20.008	100.478	20.182	2.144	0.534
1130.501	624.557	80.002	20.008	100.468	20.184	1.911	0.525
1131.001	624.765	80.000	20.008	100.466	20.183	2.063	0.469
1131.500	625.040	80.002	20.008	100.469	20.184	1.915	0.460
1132.000	625.342	80.000	20.008	100.476	20.184	1.973	0.530
1132.500	625.565	80.002	20.008	100.484	20.185	1.801	0.551
1133.000	625.806	80.000	20.008	100.492	20.184	1.918	0.495
1133.501	626.033	80.002	20.008	100.489	20.188	1.561	0.466
1134.001	626.296	80.001	20.008	100.481	20.186	1.763	0.479
1134.500	626.564	80.001	20.008	100.473	20.187	1.585	0.511
1135.000	626.802	80.003	20.008	100.465	20.186	1.752	0.518
1135.501	627.076	80.001	20.008	100.466	20.186	1.697	0.509
1136.001	627.319	80.003	20.008	100.473	20.187	1.647	0.515
1136.501	627.580	80.001	20.008	100.481	20.186	1.750	0.510
1137.001	627.853	80.002	20.008	100.486	20.187	1.655	0.519
1137.501	628.088	80.002	20.008	100.487	20.186	1.686	0.521
1138.000	628.357	80.001	20.008	100.478	20.187	1.669	0.506
1138.500	628.595	80.001	20.008	100.471	20.184	1.920	0.505
1139.000	628.871	80.003	20.008	100.465	20.187	1.653	0.511
1139.500	629.056	80.003	20.008	100.467	20.187	1.671	0.487
1140.000	629.308	80.001	20.008	100.475	20.188	1.497	0.449
1140.500	629.581	80.002	20.007	100.484	20.186	1.728	0.481
1141.000	629.776	80.002	20.008	100.491	20.186	1.690	0.497
1141.501	630.052	80.002	20.008	100.491	20.188	1.551	0.469
1142.001	630.300	80.001	20.008	100.485	20.185	1.822	0.498
1142.500	630.495	80.001	20.008	100.481	20.187	1.596	0.484
1143.000	630.805	80.003	20.008	100.481	20.189	1.391	0.474
1143.501	630.995	80.001	20.008	100.487	20.191	1.228	0.502
1144.001	631.273	80.001	20.008	100.502	20.189	1.437	0.484
1144.500	631.525	80.003	20.008	100.516	20.189	1.453	0.499
1145.000	631.773	80.000	20.008	100.527	20.190	1.330	0.515
1145.500	631.981	80.003	20.008	100.528	20.187	1.589	0.478
1146.000	632.226	80.001	20.008	100.522	20.188	1.493	0.454
1146.500	632.473	80.001	20.008	100.513	20.189	1.389	0.473
1147.000	632.699	80.002	20.008	100.507	20.189	1.385	0.483
1147.500	632.969	80.002	20.008	100.507	20.188	1.517	0.485
1148.000	633.205	80.003	20.008	100.510	20.188	1.476	0.501
1148.500	633.476	80.001	20.008	100.510	20.189	1.418	0.506
1149.000	633.718	80.000	20.008	100.509	20.190	1.288	0.510
1149.500	633.954	80.001	20.008	100.504	20.191	1.239	0.496
1150.000	634.207	80.002	20.008	100.496	20.191	1.193	0.483
1150.500	634.433	80.002	20.008	100.491	20.188	1.495	0.484
1151.000	634.710	80.002	20.008	100.499	20.186	1.750	0.492
1151.500	634.912	80.002	20.008	100.507	20.187	1.662	0.491
1152.000	635.198	80.001	20.008	100.515	20.187	1.660	0.483
1152.500	635.395	80.002	20.008	100.516	20.185	1.808	0.486
1153.000	635.675	80.000	20.008	100.509	20.187	1.614	0.480
1153.500	635.909	80.002	20.008	100.493	20.189	1.413	0.495
1154.000	636.174	80.002	20.008	100.477	20.188	1.512	0.506
1154.500	636.405	80.001	20.008	100.466	20.188	1.543	0.498
1155.000	636.626	80.002	20.008	100.466	20.186	1.678	0.475
1155.500	636.906	80.000	20.008	100.473	20.187	1.596	0.477
1156.000	637.126	80.002	20.008	100.481	20.190	1.332	0.500
1156.500	637.367	80.001	20.008	100.490	20.187	1.649	0.480
1157.000	637.603	80.001	20.008	100.496	20.191	1.224	0.469
1157.500	637.883	80.003	20.008	100.495	20.190	1.290	0.497
1158.000	638.107	80.002	20.008	100.496	20.190	1.270	0.510
1158.500	638.368	80.000	20.007	100.503	20.193	0.966	0.494
1159.000	638.637	80.001	20.008	100.510	20.192	1.107	0.508
1159.500	638.875	80.002	20.008	100.525	20.195	0.775	0.519
1160.000	639.091	80.000	20.008	100.537	20.191	1.198	0.481
1160.500	639.296	80.002	20.008	100.545	20.193	1.026	0.437
1161.000	639.549	80.002	20.008	100.542	20.192	1.050	0.439
1161.500	639.838	80.001	20.008	100.534	20.192	1.147	0.500
1162.000	640.065	80.001	20.008	100.519	20.190	1.338	0.529
1162.500	640.322	80.002	20.008	100.506	20.189	1.382	0.500
1163.000	640.556	80.002	20.008	100.501	20.189	1.376	0.488
1163.500	640.819	80.002	20.008	100.504	20.191	1.162	0.494
1164.000	641.071	80.001	20.007	100.514	20.192	1.076	0.506
1164.500	641.282	80.002	20.008	100.522	20.191	1.239	0.489
1165.000	641.554	80.002	20.008	100.524	20.192	1.120	0.473
1165.500	641.841	80.001	20.008	100.521	20.189	1.369	0.521
1166.000	642.108	80.002	20.008	100.514	20.190	1.316	0.556
1166.500	642.321	80.002	20.008	100.511	20.189	1.407	0.517
1167.000	642.567	80.001	20.008	100.510	20.189	1.429	0.470
1167.500	642.771	80.002	20.008	100.516	20.187	1.587	0.455
1168.000	643.002	80.000	20.008	100.517	20.187	1.581	0.443
1168.500	643.301	80.002	20.008	100.509	20.189	1.440	0.482
1169.000	643.564	80.002	20.008	100.495	20.190	1.303	0.546
1169.500	643.787	80.000	20.008	100.483	20.190	1.268	0.524
1170.000	644.049	80.002	20.008	100.476	20.191	1.253	0.486
1170.500	644.278	80.001	20.007	100.478	20.191	1.231	0.488
1171.000	644.556	80.002	20.008	100.493	20.190	1.266	0.499
1171.501	644.789	80.002	20.007	100.509	20.192	1.138	0.509
1172.001	645.042	80.001	20.008	100.521	20.191	1.173	0.498
1172.500	645.240	80.001	20.008	100.521	20.190	1.266	0.468
1173.000	645.519	80.002	20.008	100.512	20.189	1.440	0.464
1173.500	645.752	80.001	20.008	100.497	20.187	1.616	0.495
1174.000	645.981	80.001	20.008	100.484	20.189	1.403	0.487
1174.500	646.224	80.001	20.008	100.476	20.187	1.581	0.467
1175.000	646.430	80.002	20.008	100.475	20.187	1.656	0.461
1175.500	646.707	80.001	20.008	100.480	20.188	1.530	0.466
1176.000	646.918	80.002	20.008	100.481	20.187	1.592	0.486
1176.500	647.129	80.002	20.008	100.477	20.188	1.526	0.455
1177.000	647.338	80.002	20.008	100.471	20.188	1.495	0.421
1177.501	647.626	80.001	20.008	100.464	20.187	1.570	0.458
1178.001	647.819	80.002	20.008	100.464	20.188	1.563	0.489
1178.500	648.017	80.002	20.008	100.476	20.187	1.605	0.436
1179.000	648.316	80.002	20.008	100.489	20.186	1.772	0.444
1179.500	648.559	80.002	20.008	100.499	20.184	1.944	0.520
1180.000	648.797	80.001	20.008	100.506	20.185	1.781	0.511
1180.500	649.061	80.001	20.008	100.506	20.187	1.622	0.492
1181.000	649.287	80.003	20.008	100.502	20.188	1.554	0.496
1181.500	649.554	80.001	20.008	100.503	20.189	1.361	0.491
1182.001	649.777	80.002	20.008	100.509	20.190	1.301	0.491
1182.501	650.022	80.001	20.008	100.516	20.189	1.407	0.479
1183.001	650.213	80.002	20.008	100.524	20.192	1.152	0.453
1183.501	650.428	80.002	20.008	100.525	20.191	1.224	0.421
1184.001	650.717	80.002	20.008	100.520	20.191	1.223	0.454
1184.500	650.958	80.001	20.008	100.513	20.192	1.100	0.517
1185.000	651.182	80.002	20.008	100.510	20.190	1.285	0.498
1185.500	651.458	80.002	20.008	100.510	20.189	1.414	0.482
1186.000	651.716	80.001	20.008	100.516	20.190	1.267	0.517
1186.500	651.925	80.002	20.008	100.523	20.191	1.206	0.500
1187.000	652.161	80.001	20.008	100.535	20.190	1.343	0.456
1187.500	652.448	80.002	20.008	100.539	20.189	1.389	0.484
1188.000	652.659	80.001	20.008	100.531	20.188	1.502	0.511
1188.500	652.900	80.002	20.008	100.523	20.187	1.597	0.475
1189.000	653.160	80.002	20.008	100.517	20.190	1.289	0.477
1189.500	653.412	80.002	20.008	100.512	20.187	1.648	0.507
1190.000	653.611	80.001	20.008	100.510	20.191	1.209	0.481
1190.500	653.932	80.001	20.008	100.516	20.188	1.491	0.485
1191.000	654.179	80.002	20.008	100.520	20.188	1.549	0.544
1191.500	654.419	80.002	20.008	100.518	20.187	1.582	0.527
1192.000	654.655	80.000	20.008	100.512	20.188	1.481	0.482
1192.500	654.894	80.003	20.008	100.503	20.187	1.577	0.476
1193.000	655.149	80.000	20.008	100.490	20.189	1.395	0.485
1193.500	655.431	80.002	20.008	100.491	20.188	1.465	0.515
1194.000	655.623	80.001	20.008	100.503	20.188	1.481	0.506
1194.500	655.897	80.002	20.008	100.518	20.188	1.467	0.471
1195.000	656.135	80.005	20.009	100.530	20.186	1.740	0.489
1195.500	656.413	79.999	20.007	100.542	20.189	1.426	0.514
1196.000	656.650	80.003	20.012	100.569	20.189	1.395	0.516
1196.500	656.915	80.002	20.011	100.509	20.190	1.291	0.508
1197.000	657.206	80.000	20.010	100.460	20.188	1.485	0.528
1197.501	657.491	80.002	20.009	100.438	20.187	1.633	0.566
1198.001	657.686	80.002	20.009	100.433	20.186	1.741	0.529
1198.500	657.959	80.001	20.009	100.404	20.187	1.624	0.474
1199.000	658.212	80.002	20.009	100.450	20.189	1.402	0.496
1199.500	658.511	80.001	20.011	100.460	20.191	1.252	0.539
1200.001	658.718	80.001	20.009	100.484	20.189	1.461	0.530
1200.501	659.032	80.000	20.008	100.528	20.186	1.690	0.514
1201.000	659.251	80.003	20.008	100.561	20.188	1.508	0.527
1201.500	659.548	80.001	20.008	100.583	20.187	1.655	0.524
1202.000	659.856	80.002	20.008	100.618	20.187	1.638	0.561
1202.500	660.093	80.002	20.008	100.610	20.185	1.829	0.575
1203.000	660.331	80.001	20.008	100.559	20.182	2.104	0.510
1203.500	660.604	80.002	20.008	100.515	20.181	2.199	0.493
1204.000	660.863	80.001	20.008	100.479	20.181	2.260	0.521
1204.500	661.140	80.003	20.008	100.457	20.179	2.478	0.534
1205.000	661.394	80.000	20.007	100.446	20.179	2.448	0.533
1205.500	661.626	80.001	20.008	100.443	20.178	2.542	0.509
1206.000	661.919	80.001	20.008	100.445	20.180	2.377	0.505
1206.501	662.160	80.003	20.008	100.453	20.177	2.698	0.530
1207.001	662.434	80.000	20.008	100.451	20.174	2.936	0.525
1207.500	662.744	80.000	20.008	100.444	20.174	3.004	0.549
1208.000	663.005	80.003	20.008	100.436	20.174	2.948	0.578
1208.500	663.280	80.002	20.008	100.433	20.177	2.693	0.554
1209.000	663.525	80.002	20.008	100.433	20.173	3.105	0.528
1209.501	663.796	80.004	20.007	100.446	20.174	2.927	0.518
1210.001	664.038	80.002	20.008	100.461	20.174	2.927	0.514
1210.500	664.315	80.000	20.008	100.477	20.175	2.832	0.516
1211.000	664.571	80.002	20.008	100.484	20.176	2.804	0.526
1211.501	664.846	80.003	20.008	100.483	20.175	2.885	0.532
1212.001	665.119	80.001	20.008	100.476	20.177	2.695	0.539
1212.508	665.388	80.002	20.008	100.468	20.179	2.453	0.545
1213.009	665.651	80.001	20.008	100.462	20.179	2.414	0.537
1213.501	665.867	80.001	20.008	100.466	20.180	2.352	0.505
1214.000	666.099	80.001	20.008	100.473	20.179	2.476	0.464
1214.500	666.385	80.004	20.008	100.481	20.178	2.557	0.483
1215.000	666.670	80.004	20.009	100.489	20.179	2.414	0.545
1215.500	666.974	80.003	20.009	100.492	20.179	2.403	0.580
1216.000	667.240	80.003	20.008	100.489	20.181	2.257	0.579
1216.501	667.462	80.002	20.008	100.487	20.178	2.513	0.529
1217.001	667.691	80.002	20.008	100.486	20.178	2.608	0.469
1217.500	667.978	80.001	20.008	100.487	20.178	2.524	0.483
1218.000	668.228	80.000	20.008	100.488	20.181	2.278	0.526
1218.500	668.493	80.003	20.008	100.491	20.179	2.500	0.526
1219.000	668.780	80.001	20.008	100.484	20.176	2.714	0.534
1219.500	669.021	80.002	20.008	100.477	20.177	2.630	0.540
1220.000	669.285	80.002	20.008	100.468	20.175	2.920	0.517
1220.500	669.569	80.001	20.008	100.460	20.175	2.821	0.527
1221.000	669.768	80.003	20.008	100.455	20.177	2.678	0.515
1221.500	670.076	80.002	20.008	100.463	20.175	2.828	0.495
1222.000	670.286	80.001	20.008	100.470	20.174	3.006	0.513
1222.501	670.596	80.002	20.008	100.479	20.173	3.057	0.519
1223.001	670.821	80.001	20.008	100.480	20.175	2.919	0.527
1223.501	671.059	80.002	20.008	100.477	20.172	3.139	0.499
1224.000	671.324	80.001	20.008	100.469	20.176	2.800	0.483
1224.500	671.569	80.003	20.007	100.458	20.175	2.859	0.507
1225.000	671.817	80.002	20.008	100.451	20.173	3.085	0.501
1225.500	672.092	80.001	20.008	100.450	20.174	3.024	0.508
1226.000	672.330	80.001	20.008	100.455	20.173	3.118	0.518
1226.500	672.590	80.002	20.008	100.458	20.172	3.169	0.506
1227.000	672.949	80.002	20.008	100.461	20.174	2.934	0.559
1227.500	673.086	80.002	20.008	100.460	20.175	2.915	0.557
1228.000	673.347	80.002	20.008	100.460	20.173	3.082	0.447
1228.501	673.707	80.000	20.008	100.454	20.173	3.073	0.509
1229.001	673.956	80.003	20.008	100.452	20.175	2.912	0.615
1229.501	674.240	80.002	20.008	100.459	20.175	2.919	0.571
1230.001	674.422	80.002	20.008	100.466	20.176	2.729	0.500
1230.500	674.685	80.002	20.008	100.475	20.176	2.809	0.456
1231.000	675.000	80.001	20.007	100.482	20.176	2.787	0.511
1231.500	675.261	80.002	20.008	100.485	20.176	2.779	0.576
1232.000	675.533	80.001	20.008	100.479	20.177	2.675	0.554
1232.500	675.795	80.002	20.008	100.471	20.176	2.715	0.533
1233.001	676.039	80.001	20.008	100.461	20.176	2.816	0.520
1233.501	676.344	80.002	20.008	100.454	20.179	2.415	0.528
1234.001	676.629	80.003	20.008	100.455	20.178	2.601	0.570
1234.500	676.833	80.002	20.007	100.462	20.176	2.768	0.540
1235.000	677.112	80.002	20.007	100.471	20.176	2.717	0.486
1235.500	677.371	80.002	20.008	100.480	20.176	2.803	0.511
1236.000	677.628	80.001	20.007	100.487	20.178	2.584	0.527
1236.500	677.921	80.002	20.008	100.489	20.176	2.734	0.532
1237.000	678.188	80.002	20.007	100.483	20.176	2.718	0.555
1237.500	678.456	80.001	20.007	100.475	20.175	2.859	0.548
1238.000	678.709	80.002	20.008	100.469	20.174	2.981	0.528
1238.501	678.956	80.001	20.008	100.470	20.175	2.904	0.511
1239.001	679.241	80.001	20.008	100.472	20.178	2.591	0.516
1239.500	679.521	80.001	20.007	100.485	20.175	2.840	0.549
1240.000	679.771	80.002	20.008	100.499	20.178	2.556	0.548
1240.500	680.048	80.001	20.008	100.509	20.179	2.435	0.528
1241.000	680.289	80.001	20.008	100.509	20.177	2.629	0.522
1241.500	680.571	80.002	20.008	100.507	20.178	2.515	0.520
1242.000	680.830	80.001	20.008	100.499	20.179	2.418	0.532
1242.500	681.117	80.002	20.008	100.494	20.181	2.215	0.544
1243.000	681.396	80.001	20.008	100.491	20.177	2.635	0.556
1243.501	681.670	80.001	20.008	100.498	20.178	2.562	0.559
1244.001	681.894	80.002	20.008	100.506	20.178	2.543	0.525
1244.500	682.169	80.002	20.008	100.517	20.182	2.149	0.498
1245.000	682.483	80.002	20.008	100.524	20.179	2.404	0.544
1245.500	682.766	80.001	20.008	100.522	20.178	2.550	0.593
1246.000	683.004	80.000	20.008	100.509	20.179	2.458	0.559
1246.500	683.345	80.001	20.008	100.494	20.179	2.499	0.549
1247.000	683.554	80.001	20.008	100.478	20.182	2.162	0.565
1247.500	683.803	80.003	20.008	100.463	20.180	2.356	0.504
1248.000	684.125	80.002	20.008	100.457	20.180	2.402	0.514
1248.500	684.373	80.001	20.008	100.463	20.180	2.327	0.570
1249.000	684.639	80.000	20.008	100.471	20.184	1.957	0.542
1249.500	684.892	80.002	20.008	100.481	20.182	2.098	0.517
1250.000	685.154	80.001	20.008	100.492	20.180	2.376	0.517
1250.500	685.401	80.002	20.008	100.499	20.183	1.993	0.512
1251.000	685.665	80.001	20.008	100.500	20.185	1.879	0.509
1251.500	685.902	80.002	20.008	100.503	20.185	1.861	0.506
1252.000	686.194	80.003	20.008	100.509	20.182	2.112	0.515
1252.500	686.440	80.002	20.008	100.514	20.185	1.797	0.533
1253.000	686.711	80.002	20.008	100.522	20.183	2.079	0.528
1253.500	686.973	80.001	20.008	100.532	20.185	1.808	0.525
1254.000	687.238	80.002	20.007	100.537	20.185	1.881	0.530
1254.500	687.482	80.000	20.008	100.533	20.182	2.161	0.518
1255.000	687.753	80.002	20.008	100.526	20.183	2.079	0.512
1255.500	688.014	80.002	20.008	100.519	20.183	2.057	0.523
1256.000	688.288	80.001	20.008	100.508	20.182	2.162	0.534
1256.500	688.554	80.002	20.008	100.500	20.180	2.336	0.537
1257.000	688.832	80.003	20.008	100.501	20.181	2.204	0.542
1257.500	689.063	80.001	20.008	100.508	20.183	2.074	0.527
1258.000	689.292	80.001	20.008	100.518	20.180	2.395	0.485
1258.500	689.568	80.002	20.008	100.528	20.181	2.228	0.483
1259.000	689.837	80.002	20.008	100.535	20.183	2.048	0.525
1259.500	690.068	80.002	20.008	100.531	20.184	1.969	0.522
1260.000	690.347	80.002	20.008	100.523	20.182	2.176	0.505
1260.500	690.598	80.002	20.008	100.511	20.183	2.028	0.520
1261.000	690.861	80.002	20.008	100.503	20.181	2.210	0.522
1261.500	691.072	80.001	20.008	100.502	20.184	1.882	0.494
1262.000	691.316	80.000	20.008	100.512	20.182	2.109	0.464
1262.500	691.583	80.002	20.008	100.525	20.180	2.314	0.483
1263.000	691.822	80.003	20.008	100.540	20.183	2.063	0.509
1263.500	692.053	80.001	20.008	100.548	20.184	1.909	0.488
1264.000	692.342	80.001	20.008	100.548	20.184	1.949	0.494
1264.500	692.613	80.002	20.008	100.545	20.187	1.583	0.539
1265.000	692.848	80.002	20.008	100.538	20.184	1.942	0.533
1265.500	693.049	80.001	20.008	100.532	20.186	1.753	0.472
1266.000	693.358	80.001	20.008	100.532	20.186	1.735	0.473
1266.500	693.575	80.000	20.008	100.536	20.186	1.759	0.517
1267.000	693.850	80.002	20.008	100.544	20.185	1.792	0.509
1267.500	694.070	80.002	20.008	100.547	20.182	2.111	0.494
1268.000	694.296	80.001	20.008	100.546	20.185	1.786	0.471
1268.500	694.563	80.002	20.008	100.541	20.183	2.068	0.469
1269.000	694.794	80.001	20.008	100.530	20.185	1.878	0.495
1269.500	695.042	80.001	20.008	100.512	20.184	1.887	0.489
1270.000	695.277	80.001	20.008	100.503	20.183	2.045	0.481
1270.500	695.519	80.001	20.008	100.497	20.184	1.946	0.480
1271.000	695.761	80.002	20.008	100.503	20.182	2.100	0.480
1271.501	695.984	80.001	20.008	100.511	20.183	2.008	0.475
1272.001	696.225	80.001	20.007	100.522	20.186	1.772	0.465
1272.500	696.466	80.002	20.007	100.529	20.183	2.008	0.473
1273.000	696.723	80.001	20.008	100.530	20.185	1.830	0.490
1273.500	696.991	80.002	20.008	100.522	20.184	1.896	0.511
1274.000	697.182	80.003	20.008	100.514	20.182	2.133	0.492
1274.500	697.465	80.001	20.008	100.505	20.182	2.118	0.467
1275.000	697.738	80.003	20.008	100.501	20.184	1.909	0.515
1275.500	697.942	80.001	20.008	100.506	20.182	2.109	0.516
1276.000	698.188	80.002	20.008	100.516	20.183	2.030	0.464
1276.500	698.439	80.002	20.008	100.526	20.182	2.133	0.474
1277.000	698.691	80.002	20.008	100.533	20.181	2.228	0.500
1277.500	698.948	80.001	20.008	100.536	20.184	1.926	0.506
1278.000	699.165	80.001	20.008	100.532	20.181	2.217	0.492
1278.500	699.422	80.002	20.008	100.522	20.179	2.415	0.474
1279.001	699.650	80.001	20.008	100.512	20.182	2.122	0.480
1279.501	699.942	80.001	20.008	100.512	20.183	2.016	0.502
1280.000	700.145	80.002	20.008	100.512	20.182	2.192	0.507
1280.500	700.429	80.001	20.008	100.516	20.182	2.137	0.491
1281.000	700.651	80.002	20.008	100.524	20.182	2.131	0.496
1281.500	700.938	80.002	20.007	100.530	20.184	1.939	0.507
1282.000	701.189	80.001	20.008	100.525	20.182	2.173	0.524
1282.500	701.426	80.002	20.008	100.519	20.181	2.241	0.513
1283.000	701.683	80.000	20.008	100.509	20.182	2.177	0.491
1283.501	701.912	80.003	20.008	100.502	20.181	2.294	0.490
1284.001	702.194	80.002	20.008	100.497	20.179	2.437	0.498
1284.500	702.412	80.002	20.008	100.502	20.181	2.294	0.505
1285.000	702.652	80.001	20.008	100.510	20.178	2.511	0.479
1285.500	702.893	80.001	20.008	100.518	20.183	2.089	0.469
1286.000	703.146	80.002	20.008	100.525	20.178	2.569	0.488
1286.500	703.382	80.001	20.008	100.524	20.176	2.767	0.491
1287.000	703.643	80.002	20.008	100.516	20.178	2.582	0.493
1287.500	703.900	80.000	20.008	100.507	20.177	2.631	0.507
1288.000	704.169	80.001	20.008	100.499	20.178	2.578	0.522
1288.501	704.408	80.001	20.008	100.493	20.176	2.730	0.518
1289.001	704.687	80.002	20.008	100.495	20.176	2.772	0.513
1289.500	704.895	80.002	20.008	100.502	20.177	2.650	0.502
1290.000	705.171	80.000	20.007	100.512	20.173	3.050	0.485
1290.500	705.350	80.002	20.008	100.518	20.175	2.821	0.470
1291.000	705.643	80.002	20.007	100.521	20.176	2.762	0.464
1291.500	705.889	80.001	20.008	100.517	20.174	2.925	0.505
1292.000	706.145	80.002	20.008	100.511	20.176	2.716	0.520
1292.500	706.360	80.001	20.008	100.503	20.174	2.958	0.487
1293.000	706.645	80.001	20.008	100.497	20.176	2.809	0.486
1293.500	706.875	80.002	20.008	100.493	20.175	2.888	0.508
1294.000	707.125	80.001	20.008	100.494	20.175	2.855	0.497
1294.500	707.344	80.002	20.008	100.494	20.174	2.964	0.474
1295.000	707.607	80.002	20.008	100.499	20.174	3.008	0.476
1295.500	707.874	80.002	20.008	100.506	20.176	2.786	0.506
1296.000	708.109	80.001	20.008	100.513	20.173	3.072	0.516
1296.500	708.361	80.001	20.008	100.516	20.173	3.055	0.495
1297.000	708.583	80.001	20.008	100.516	20.172	3.212	0.481
1297.500	708.824	80.000	20.008	100.503	20.174	3.025	0.468
1298.000	709.073	80.002	20.008	100.491	20.174	2.961	0.476
1298.500	709.344	80.002	20.008	100.484	20.173	3.027	0.505
1299.000	709.576	80.001	20.008	100.486	20.173	3.117	0.512
1299.500	709.822	80.002	20.008	100.494	20.174	3.018	0.491
1300.001	710.059	80.001	20.008	100.509	20.170	3.425	0.480
1300.501	710.317	80.002	20.008	100.522	20.170	3.420	0.489
1301.000	710.534	80.002	20.008	100.523	20.171	3.281	0.485
1301.500	710.818	80.000	20.008	100.516	20.171	3.323	0.488
1302.000	711.044	80.002	20.008	100.503	20.170	3.411	0.506
1302.500	711.263	80.001	20.008	100.488	20.170	3.346	0.477
1303.000	711.488	80.002	20.008	100.472	20.168	3.581	0.444
1303.500	711.738	80.001	20.008	100.469	20.167	3.674	0.460
1304.000	711.980	80.001	20.008	100.472	20.167	3.737	0.484
1304.500	712.184	80.002	20.008	100.477	20.164	4.010	0.469
1305.000	712.457	80.000	20.008	100.484	20.166	3.835	0.462
1305.500	712.676	80.002	20.008	100.493	20.165	3.862	0.485
1306.000	712.925	80.002	20.008	100.495	20.167	3.692	0.480
1306.500	713.174	80.001	20.008	100.491	20.166	3.785	0.483
1307.000	713.417	80.001	20.008	100.483	20.165	3.922	0.495
1307.500	713.677	80.001	20.008	100.475	20.166	3.841	0.497
1308.000	713.860	80.001	20.008	100.468	20.168	3.589	0.473
1308.501	714.127	80.002	20.008	100.465	20.167	3.699	0.447
1309.001	714.346	80.002	20.008	100.470	20.166	3.807	0.468
1309.500	714.634	80.002	20.008	100.485	20.165	3.914	0.496
1310.000	714.827	80.002	20.008	100.500	20.165	3.931	0.494
1310.500	715.096	80.001	20.007	100.512	20.165	3.878	0.472
1311.000	715.343	80.002	20.008	100.516	20.164	3.990	0.489
1311.500	715.597	80.002	20.008	100.515	20.165	3.897	0.508
1312.000	715.817	80.001	20.008	100.506	20.164	3.968	0.487
1312.500	716.096	80.001	20.008	100.491	20.163	4.115	0.486
1313.000	716.301	80.000	20.008	100.479	20.162	4.175	0.491
1313.500	716.584	80.002	20.008	100.471	20.163	4.166	0.486
1314.000	716.815	80.002	20.008	100.466	20.163	4.069	0.502
1314.500	717.084	80.002	20.008	100.469	20.160	4.448	0.507
1315.001	717.334	80.002	20.008	100.477	20.160	4.458	0.509
1315.501	717.565	80.002	20.008	100.485	20.162	4.238	0.500
1316.000	717.687	80.002	20.008	100.487	20.162	4.265	0.417
1316.500	718.128	80.000	20.008	100.488	20.163	4.076	0.458
1317.000	718.298	80.002	20.007	100.479	20.162	4.175	0.587
1317.500	718.567	80.001	20.008	100.471	20.163	4.169	0.525
1318.000	718.823	80.001	20.008	100.462	20.163	4.132	0.482
1318.500	719.051	80.002	20.008	100.460	20.163	4.139	0.505
1319.000	719.322	80.001	20.008	100.459	20.162	4.252	0.492
1319.500	719.570	80.001	20.008	100.467	20.162	4.203	0.509
1320.000	719.822	80.000	20.008	100.482	20.163	4.163	0.509
1320.500	720.087	80.003	20.008	100.498	20.166	3.832	0.509
1321.000	720.309	80.000	20.008	100.513	20.162	4.274	0.502
1321.500	720.596	80.002	20.008	100.517	20.162	4.252	0.498
1322.001	720.865	80.004	20.008	100.515	20.163	4.111	0.532
1322.501	721.078	80.001	20.008	100.503	20.163	4.171	0.519
1323.001	721.326	80.002	20.008	100.488	20.162	4.176	0.472
1323.500	721.603	80.001	20.008	100.473	20.162	4.205	0.493
1324.000	721.869	80.002	20.008	100.466	20.161	4.336	0.533
1324.500	722.126	80.002	20.008	100.460	20.163	4.138	0.533
1325.000	722.349	80.002	20.008	100.464	20.164	4.025	0.501
1325.501	722.561	80.002	20.008	100.470	20.161	4.290	0.458
1326.001	722.859	80.001	20.008	100.473	20.161	4.347	0.473
1326.500	723.136	80.001	20.008	100.475	20.162	4.181	0.542
1327.000	723.367	80.003	20.008	100.480	20.163	4.166	0.541
1327.500	723.635	80.001	20.008	100.475	20.160	4.425	0.504
1328.000	723.918	80.002	20.008	100.467	20.160	4.427	0.525
1328.500	724.171	80.002	20.008	100.466	20.162	4.177	0.544
1329.000	724.443	80.001	20.008	100.466	20.161	4.325	0.530
1329.500	724.703	80.003	20.008	100.469	20.163	4.096	0.528
1330.000	724.965	80.001	20.008	100.481	20.161	4.280	0.527
1330.500	725.185	80.002	20.008	100.496	20.160	4.476	0.502
1331.000	725.467	80.001	20.008	100.510	20.161	4.284	0.492
1331.500	725.781	80.002	20.008	100.521	20.159	4.563	0.549
1332.001	726.008	80.002	20.008	100.520	20.160	4.465	0.568
1332.501	726.310	80.003	20.008	100.516	20.161	4.348	0.535
1333.000	726.584	80.001	20.008	100.509	20.160	4.395	0.553
1333.500	726.843	80.002	20.008	100.500	20.158	4.598	0.554
1334.000	727.132	80.002	20.008	100.487	20.159	4.547	0.540
1334.500	727.410	80.002	20.008	100.484	20.161	4.282	0.558
1335.000	727.697	80.001	20.008	100.485	20.162	4.192	0.566
1335.500	727.942	80.003	20.008	100.492	20.163	4.133	0.548
1336.001	728.172	80.001	20.008	100.502	20.164	4.036	0.503
1336.501	728.491	80.001	20.007	100.516	20.164	4.031	0.512
1337.000	728.712	80.001	20.008	100.527	20.165	3.919	0.544
1337.500	728.983	80.003	20.008	100.534	20.162	4.206	0.516
1338.001	729.217	80.002	20.008	100.535	20.165	3.961	0.499
1338.501	729.561	80.002	20.008	100.536	20.166	3.816	0.542
1339.001	729.803	80.002	20.008	100.529	20.166	3.756	0.582
1339.501	730.066	80.002	20.008	100.521	20.169	3.490	0.546
1340.000	730.338	80.002	20.008	100.514	20.165	3.939	0.520
1340.500	730.636	80.003	20.008	100.513	20.166	3.779	0.552
1341.000	730.865	80.000	20.008	100.512	20.165	3.960	0.548
1341.500	731.144	80.002	20.008	100.518	20.165	3.954	0.518
1342.000	731.389	80.004	20.008	100.526	20.164	4.023	0.516
1342.500	731.628	80.001	20.008	100.530	20.165	3.930	0.504
1343.000	731.904	80.001	20.008	100.524	20.165	3.895	0.500
1343.500	732.182	80.003	20.007	100.514	20.166	3.833	0.534
1344.000	732.478	80.001	20.008	100.500	20.166	3.800	0.563
1344.500	732.717	80.002	20.007	100.484	20.169	3.542	0.555
1345.000	732.932	80.000	20.008	100.471	20.166	3.798	0.495
1345.500	733.226	80.003	20.008	100.468	20.165	3.882	0.481
1346.000	733.476	80.002	20.008	100.470	20.169	3.521	0.526
1346.500	733.751	80.003	20.008	100.477	20.166	3.766	0.535
1347.000	733.997	80.002	20.008	100.489	20.168	3.612	0.523
1347.500	734.234	80.001	20.008	100.505	20.165	3.935	0.502
1348.000	734.479	80.002	20.008	100.515	20.166	3.858	0.482
1348.500	734.795	80.001	20.008	100.520	20.163	4.150	0.521
1349.000	735.055	80.003	20.008	100.520	20.165	3.934	0.569
1349.500	735.304	80.001	20.008	100.515	20.164	4.002	0.543
1350.000	735.570	80.001	20.008	100.504	20.166	3.833	0.512
1350.500	735.862	80.003	20.008	100.488	20.166	3.854	0.536
1351.000	736.129	80.002	20.008	100.475	20.165	3.932	0.558
1351.500	736.387	80.001	20.008	100.469	20.168	3.599	0.542
1352.000	736.653	80.003	20.008	100.466	20.167	3.729	0.525
1352.500	736.932	80.001	20.008	100.469	20.169	3.533	0.535
1353.000	737.181	80.002	20.008	100.477	20.164	3.982	0.537
1353.500	737.400	80.000	20.008	100.489	20.166	3.799	0.498
1354.000	737.730	80.003	20.007	100.500	20.167	3.677	0.508
1354.500	738.018	80.002	20.008	100.511	20.170	3.431	0.584
1355.000	738.310	80.002	20.008	100.519	20.167	3.706	0.599
1355.500	738.541	80.001	20.008	100.525	20.169	3.510	0.551
1356.000	738.768	80.002	20.008	100.523	20.171	3.301	0.491
1356.500	739.064	80.001	20.007	100.520	20.171	3.304	0.490
1357.000	739.296	80.001	20.008	100.516	20.171	3.335	0.525
1357.500	739.559	80.002	20.008	100.515	20.170	3.344	0.512
1358.000	739.845	80.003	20.008	100.517	20.173	3.104	0.523
1358.500	740.127	80.001	20.008	100.530	20.171	3.322	0.559
1359.000	740.352	80.002	20.008	100.542	20.171	3.304	0.538
1359.500	740.616	80.002	20.008	100.546	20.170	3.369	0.498
1360.000	740.895	80.002	20.008	100.547	20.169	3.521	0.516
1360.500	741.162	80.002	20.008	100.544	20.171	3.250	0.544
1361.000	741.423	80.001	20.008	100.534	20.170	3.424	0.537
1361.500	741.697	80.002	20.008	100.520	20.167	3.671	0.532
1362.000	741.972	80.003	20.008	100.512	20.167	3.688	0.542
1362.500	742.242	80.001	20.007	100.506	20.168	3.554	0.547
1363.000	742.503	80.002	20.007	100.500	20.167	3.717	0.538
