Sample Weight (mg):	1.02
Heating Rate (C/s):	0.5
Combustor Temp (C):	900
N2 Flow Rate (cc/min):	80
O2 Flow Rate (cc/min):	20
Time (s)	Temperature (C)	N2 flow rate (cc/min)	O2 flow rate (cc/min)	Flow Rate (cc/min)	Oxygen (%)	HRR (W/g)	Heating rate (C/s)
0.000	89.397	80.004	20.009	100.253	20.032	0.026	0.027
0.500	89.507	80.003	20.008	100.259	20.034	-0.572	0.081
1.000	89.502	80.004	20.009	100.273	20.032	0.078	0.120
1.500	89.573	80.004	20.009	100.281	20.034	-0.598	0.086
2.000	89.625	80.004	20.009	100.288	20.036	-1.177	0.095
2.500	89.681	80.004	20.009	100.295	20.035	-1.092	0.115
3.000	89.669	80.004	20.009	100.297	20.037	-1.509	0.076
3.500	89.738	80.004	20.009	100.293	20.038	-1.762	0.051
4.000	89.797	80.003	20.009	100.292	20.037	-1.637	0.092
4.500	89.827	80.004	20.009	100.286	20.036	-1.182	0.108
5.000	89.851	80.003	20.009	100.277	20.037	-1.552	0.071
5.500	89.896	80.004	20.009	100.270	20.034	-0.746	0.062
6.000	89.939	80.004	20.009	100.266	20.033	-0.279	0.079
6.500	89.970	80.004	20.009	100.260	20.036	-1.162	0.081
7.000	89.981	80.003	20.009	100.261	20.034	-0.695	0.057
7.500	90.050	80.004	20.008	100.263	20.032	-0.026	0.061
8.000	90.068	80.005	20.009	100.261	20.034	-0.546	0.084
8.500	90.094	80.003	20.009	100.261	20.035	-0.937	0.066
9.000	90.134	80.004	20.009	100.261	20.036	-1.133	0.055
9.501	90.215	80.002	20.009	100.260	20.037	-1.419	0.094
10.001	90.260	80.006	20.010	100.267	20.035	-1.041	0.123
10.500	90.322	80.007	20.011	100.270	20.034	-0.689	0.116
11.001	90.352	80.005	20.011	100.268	20.037	-1.424	0.099
11.501	90.424	80.004	20.009	100.263	20.036	-1.333	0.097
12.001	90.474	80.004	20.010	100.261	20.033	-0.364	0.112
12.501	90.520	80.005	20.009	100.259	20.037	-1.489	0.109
13.000	90.518	80.004	20.009	100.264	20.037	-1.522	0.070
13.500	90.574	80.003	20.008	100.277	20.035	-0.872	0.049
14.000	90.624	80.003	20.008	100.291	20.035	-0.871	0.080
14.500	90.623	80.004	20.009	100.300	20.031	0.429	0.077
15.000	90.656	80.005	20.009	100.302	20.032	0.000	0.040
15.500	90.707	80.001	20.012	100.302	20.032	-0.104	0.058
16.000	90.771	80.006	20.005	100.337	20.028	1.301	0.099
16.500	90.798	80.004	20.012	100.306	20.031	0.202	0.103
17.000	90.809	80.003	20.010	100.261	20.028	1.132	0.064
17.500	90.859	80.003	20.010	100.228	20.030	0.462	0.049
18.000	90.895	80.004	20.010	100.207	20.030	0.624	0.073
18.500	91.007	80.004	20.008	100.159	20.032	0.000	0.117
19.000	90.992	80.006	20.013	100.157	20.033	-0.351	0.123
19.500	91.095	80.003	20.010	100.179	20.032	-0.163	0.093
20.000	91.104	80.004	20.008	100.262	20.034	-0.579	0.100
20.500	91.144	80.003	20.008	100.337	20.034	-0.514	0.080
21.000	91.201	80.005	20.008	100.379	20.036	-1.347	0.073
21.500	91.258	80.004	20.009	100.425	20.035	-0.930	0.106
22.000	91.267	80.004	20.009	100.456	20.035	-0.885	0.090
22.500	91.346	80.004	20.008	100.414	20.034	-0.618	0.076
23.000	91.391	80.004	20.009	100.370	20.035	-0.937	0.106
23.500	91.402	80.004	20.008	100.347	20.034	-0.670	0.090
24.000	91.451	80.003	20.009	100.339	20.032	-0.124	0.058
24.500	91.536	80.004	20.008	100.343	20.031	0.345	0.097
25.000	91.566	80.004	20.009	100.351	20.028	1.113	0.125
25.500	91.650	80.004	20.008	100.359	20.025	2.114	0.114
26.000	91.660	80.004	20.008	100.362	20.026	1.672	0.104
26.500	91.710	80.004	20.009	100.362	20.022	3.117	0.077
27.000	91.729	80.004	20.009	100.359	20.022	3.156	0.064
27.500	91.834	80.003	20.008	100.351	20.018	4.255	0.096
28.000	91.818	80.003	20.009	100.342	20.018	4.275	0.107
28.500	91.908	80.005	20.009	100.343	20.017	4.574	0.082
29.000	91.973	80.004	20.008	100.351	20.015	5.069	0.114
29.500	92.001	80.002	20.009	100.360	20.014	5.356	0.124
30.000	92.034	80.005	20.009	100.360	20.013	5.747	0.077
30.500	92.105	80.003	20.009	100.362	20.009	7.115	0.082
31.000	92.243	80.003	20.009	100.371	20.011	6.548	0.156
31.500	92.257	80.003	20.009	100.380	20.010	6.711	0.181
32.000	92.322	80.004	20.009	100.391	20.010	6.736	0.115
32.500	92.378	80.003	20.009	100.412	20.005	8.291	0.100
33.000	92.411	80.004	20.009	100.426	20.011	6.507	0.105
33.500	92.507	80.004	20.009	100.422	20.007	7.704	0.109
34.000	92.613	80.003	20.009	100.412	20.008	7.353	0.165
34.500	92.639	80.003	20.009	100.400	20.007	7.659	0.167
35.000	92.748	80.003	20.009	100.389	20.005	8.194	0.134
35.500	92.799	80.005	20.009	100.390	20.004	8.586	0.148
36.000	92.889	80.004	20.009	100.397	20.008	7.292	0.150
36.501	92.985	80.003	20.009	100.403	20.005	8.289	0.164
37.001	93.064	80.005	20.009	100.403	20.004	8.577	0.181
37.500	93.079	80.003	20.009	100.400	20.005	8.174	0.135
38.001	93.230	80.003	20.009	100.393	20.004	8.617	0.130
38.501	93.242	80.004	20.009	100.392	20.002	9.080	0.164
39.001	93.393	80.004	20.009	100.398	20.004	8.742	0.163
39.500	93.489	80.003	20.009	100.406	20.003	9.008	0.205
40.000	93.532	80.003	20.009	100.406	20.004	8.689	0.193
40.500	93.603	80.004	20.009	100.406	20.004	8.740	0.126
41.000	93.631	80.004	20.009	100.401	20.004	8.655	0.106
41.501	93.772	80.004	20.010	100.398	20.003	8.968	0.134
42.001	93.867	80.003	20.008	100.404	19.999	10.101	0.203
42.500	93.918	80.005	20.009	100.419	20.001	9.502	0.192
43.000	94.026	80.003	20.009	100.435	20.000	9.704	0.152
43.500	94.112	80.003	20.009	100.443	19.998	10.531	0.176
44.000	94.209	80.004	20.009	100.444	19.999	10.167	0.188
44.500	94.280	80.002	20.009	100.438	19.996	11.099	0.176
45.001	94.374	80.004	20.008	100.429	19.995	11.406	0.167
45.501	94.468	80.003	20.009	100.420	19.992	12.136	0.177
46.001	94.538	80.004	20.009	100.415	19.993	11.895	0.176
46.500	94.625	80.002	20.009	100.412	19.993	12.058	0.161
47.000	94.727	80.003	20.009	100.411	19.991	12.488	0.173
47.500	94.812	80.004	20.009	100.416	19.988	13.458	0.188
48.000	94.963	80.003	20.009	100.428	19.988	13.400	0.211
48.500	95.044	80.003	20.009	100.446	19.989	13.270	0.234
49.000	95.190	80.004	20.009	100.466	19.985	14.429	0.229
49.500	95.271	80.004	20.009	100.482	19.985	14.500	0.227
50.001	95.378	80.004	20.009	100.495	19.985	14.375	0.207
50.501	95.466	80.003	20.009	100.506	19.983	14.923	0.192
51.000	95.621	80.004	20.009	100.509	19.984	14.734	0.219
51.500	95.712	80.004	20.009	100.513	19.983	15.067	0.245
52.000	95.847	80.003	20.009	100.515	19.980	15.830	0.236
52.500	95.961	80.003	20.009	100.512	19.981	15.705	0.237
53.001	96.060	80.004	20.009	100.505	19.981	15.658	0.231
53.501	96.150	80.003	20.009	100.501	19.982	15.396	0.201
54.000	96.252	80.005	20.009	100.496	19.981	15.779	0.190
54.500	96.372	80.004	20.009	100.494	19.979	16.294	0.207
55.000	96.501	80.003	20.009	100.496	19.983	15.056	0.235
55.500	96.630	80.004	20.009	100.496	19.981	15.584	0.254
56.000	96.782	80.005	20.009	100.496	19.983	14.920	0.270
56.500	96.942	80.003	20.009	100.498	19.983	15.102	0.296
57.000	97.086	80.003	20.010	100.501	19.985	14.445	0.308
57.500	97.225	80.003	20.009	100.508	19.984	14.582	0.293
58.000	97.309	80.002	20.009	100.515	19.982	15.311	0.253
58.500	97.528	80.004	20.009	100.522	19.982	15.350	0.263
59.000	97.620	80.004	20.009	100.521	19.984	14.810	0.307
59.501	97.747	80.002	20.009	100.522	19.982	15.330	0.265
60.001	97.967	80.004	20.009	100.522	19.984	14.765	0.283
60.501	98.093	80.003	20.009	100.521	19.983	15.156	0.347
61.000	98.185	80.002	20.009	100.522	19.981	15.528	0.282
61.501	98.376	80.005	20.009	100.529	19.982	15.346	0.251
62.001	98.491	80.003	20.009	100.524	19.980	15.958	0.295
62.500	98.683	80.002	20.009	100.516	19.981	15.606	0.306
63.000	98.906	80.005	20.009	100.512	19.980	16.081	0.361
63.500	99.028	80.003	20.009	100.511	19.980	15.958	0.380
64.000	99.198	80.003	20.009	100.512	19.980	15.952	0.318
64.500	99.318	80.003	20.009	100.520	19.982	15.354	0.290
65.000	99.504	80.003	20.009	100.522	19.980	15.941	0.298
65.500	99.636	80.004	20.009	100.517	19.980	15.901	0.312
66.000	99.738	80.004	20.009	100.508	19.978	16.513	0.276
66.501	99.926	80.003	20.009	100.500	19.980	15.901	0.262
67.001	100.097	80.003	20.009	100.492	19.979	16.403	0.324
67.500	100.319	80.003	20.010	100.491	19.979	16.267	0.376
68.000	100.438	80.004	20.009	100.492	19.978	16.574	0.367
68.500	100.652	80.004	20.010	100.494	19.979	16.195	0.337
69.001	100.816	80.003	20.009	100.493	19.977	16.924	0.355
69.501	101.055	80.004	20.010	100.494	19.979	16.312	0.390
70.000	101.149	80.003	20.009	100.496	19.978	16.579	0.368
70.500	101.376	80.003	20.009	100.496	19.977	16.912	0.327
71.000	101.572	80.004	20.009	100.498	19.977	16.985	0.372
71.500	101.758	80.004	20.010	100.498	19.979	16.431	0.403
72.001	101.869	80.003	20.009	100.497	19.978	16.554	0.340
72.501	102.126	80.003	20.009	100.495	19.978	16.450	0.333
73.000	102.312	80.004	20.009	100.500	19.977	16.991	0.406
73.500	102.501	80.003	20.009	100.507	19.979	16.204	0.409
74.000	102.676	80.002	20.009	100.512	19.979	16.334	0.369
74.500	102.871	80.004	20.010	100.513	19.978	16.667	0.367
75.000	103.025	80.003	20.009	100.513	19.979	16.230	0.360
75.500	103.241	80.004	20.009	100.508	19.977	16.959	0.360
76.001	103.397	80.003	20.009	100.506	19.975	17.599	0.370
76.501	103.601	80.004	20.009	100.509	19.976	17.053	0.366
77.001	103.793	80.004	20.009	100.516	19.976	17.341	0.378
77.500	103.989	80.004	20.009	100.522	19.975	17.609	0.392
78.000	104.183	80.003	20.009	100.524	19.974	17.695	0.389
78.500	104.416	80.004	20.010	100.519	19.978	16.515	0.408
79.000	104.578	80.004	20.009	100.520	19.975	17.420	0.411
79.501	104.759	80.003	20.009	100.520	19.976	17.184	0.369
80.001	104.991	80.004	20.010	100.522	19.976	17.197	0.378
80.500	105.231	80.003	20.009	100.528	19.974	17.946	0.442
81.000	105.356	80.005	20.010	100.531	19.975	17.633	0.419
81.500	105.595	80.003	20.010	100.524	19.976	17.170	0.365
82.000	105.751	80.003	20.009	100.524	19.973	18.101	0.379
82.500	105.992	80.004	20.009	100.525	19.977	16.792	0.395
83.000	106.213	80.003	20.009	100.525	19.976	17.347	0.429
83.501	106.399	80.005	20.009	100.529	19.976	17.204	0.435
84.001	106.628	80.003	20.009	100.535	19.978	16.651	0.411
84.500	106.799	80.004	20.010	100.533	19.979	16.201	0.408
85.000	107.033	80.004	20.010	100.532	19.979	16.376	0.402
85.500	107.287	80.003	20.010	100.533	19.975	17.581	0.446
86.000	107.470	80.003	20.009	100.535	19.977	16.806	0.463
86.500	107.690	80.005	20.009	100.538	19.976	17.223	0.420
87.000	107.901	80.002	20.010	100.541	19.976	17.073	0.417
87.500	108.126	80.005	20.010	100.542	19.976	17.112	0.433
88.000	108.356	80.003	20.010	100.541	19.975	17.378	0.445
88.500	108.555	80.005	20.010	100.539	19.978	16.576	0.442
89.000	108.781	80.004	20.009	100.543	19.977	16.772	0.427
89.500	109.010	80.003	20.010	100.551	19.977	17.041	0.440
90.000	109.277	80.004	20.009	100.559	19.976	17.290	0.476
90.500	109.488	80.004	20.010	100.567	19.976	17.075	0.487
91.000	109.693	80.005	20.009	100.572	19.976	17.251	0.447
91.500	109.974	80.003	20.010	100.568	19.976	17.353	0.451
92.000	110.181	80.005	20.010	100.562	19.977	16.916	0.487
92.500	110.391	80.003	20.010	100.558	19.978	16.493	0.452
93.000	110.639	80.003	20.009	100.555	19.979	16.148	0.437
93.500	110.857	80.004	20.010	100.553	19.978	16.618	0.462
94.000	111.078	80.003	20.010	100.552	19.979	16.429	0.452
94.500	111.351	80.004	20.010	100.551	19.974	17.758	0.466
95.000	111.544	80.004	20.010	100.549	19.974	17.809	0.480
95.500	111.823	80.003	20.009	100.551	19.974	17.874	0.469
96.001	112.017	80.004	20.010	100.555	19.975	17.418	0.473
96.501	112.285	80.004	20.009	100.562	19.973	18.148	0.468
97.000	112.553	80.004	20.010	100.565	19.974	17.880	0.499
97.500	112.758	80.004	20.010	100.562	19.974	17.932	0.505
98.001	112.962	80.004	20.009	100.555	19.974	17.696	0.441
98.501	113.286	80.003	20.010	100.553	19.976	17.135	0.469
99.000	113.542	80.004	20.010	100.554	19.975	17.623	0.554
99.501	113.815	80.003	20.010	100.554	19.976	17.258	0.554
100.001	114.054	80.004	20.009	100.555	19.975	17.427	0.520
100.500	114.301	80.005	20.010	100.554	19.976	17.127	0.499
101.000	114.530	80.004	20.009	100.548	19.974	17.942	0.481
101.500	114.782	80.004	20.010	100.544	19.976	17.329	0.478
102.000	115.026	80.003	20.009	100.548	19.978	16.691	0.489
102.500	115.319	80.005	20.009	100.556	19.976	17.245	0.516
103.000	115.540	80.003	20.009	100.564	19.974	17.884	0.525
103.500	115.834	80.004	20.009	100.569	19.975	17.465	0.515
104.000	116.039	80.003	20.009	100.565	19.976	17.151	0.508
104.500	116.317	80.005	20.009	100.557	19.978	16.467	0.491
105.000	116.571	80.004	20.009	100.555	19.975	17.366	0.507
105.500	116.821	80.004	20.009	100.555	19.973	18.115	0.518
106.000	117.093	80.005	20.009	100.559	19.973	18.103	0.513
106.500	117.351	80.004	20.009	100.564	19.974	17.700	0.526
107.000	117.605	80.003	20.009	100.565	19.973	17.986	0.521
107.500	117.824	80.003	20.009	100.559	19.978	16.611	0.492
108.000	118.087	80.004	20.009	100.553	19.976	17.204	0.477
108.500	118.371	80.003	20.008	100.552	19.977	17.028	0.514
109.000	118.722	80.004	20.009	100.552	19.973	17.973	0.591
109.500	118.927	80.003	20.008	100.552	19.973	18.136	0.596
110.000	119.157	80.004	20.008	100.552	19.973	18.018	0.496
110.500	119.410	80.004	20.008	100.549	19.973	18.010	0.459
111.000	119.661	80.005	20.009	100.540	19.974	17.964	0.493
111.501	119.925	80.003	20.008	100.535	19.976	17.071	0.509
112.001	120.156	80.003	20.008	100.534	19.974	17.796	0.505
112.501	120.439	80.003	20.008	100.533	19.976	17.106	0.504
113.001	120.746	80.004	20.009	100.532	19.977	16.866	0.552
113.501	120.988	80.003	20.009	100.531	19.978	16.475	0.570
114.000	121.293	80.003	20.009	100.530	19.980	16.058	0.548
114.500	121.578	80.004	20.009	100.531	19.974	17.759	0.568
115.000	121.777	80.004	20.008	100.530	19.976	17.199	0.537
115.500	122.039	80.003	20.009	100.532	19.978	16.626	0.473
116.000	122.354	80.004	20.009	100.534	19.978	16.690	0.519
116.500	122.632	80.005	20.009	100.526	19.977	16.885	0.585
117.001	122.878	80.003	20.008	100.518	19.974	17.821	0.558
117.501	123.172	80.003	20.009	100.514	19.978	16.700	0.532
118.000	123.442	80.005	20.009	100.514	19.978	16.531	0.552
118.500	123.731	80.003	20.008	100.514	19.977	16.878	0.561
119.000	123.935	80.004	20.008	100.523	19.976	17.133	0.526
119.500	124.295	80.002	20.009	100.529	19.975	17.472	0.528
120.000	124.525	80.005	20.009	100.526	19.980	16.044	0.577
120.500	124.798	80.003	20.009	100.522	19.980	16.115	0.547
121.000	125.079	80.004	20.009	100.522	19.977	16.817	0.529
121.500	125.354	80.004	20.008	100.522	19.975	17.377	0.555
122.001	125.565	80.003	20.008	100.524	19.976	17.344	0.521
122.501	125.946	80.003	20.008	100.524	19.978	16.726	0.539
123.000	126.140	80.004	20.009	100.519	19.980	16.029	0.583
123.500	126.470	80.003	20.008	100.511	19.981	15.683	0.549
124.001	126.728	80.003	20.009	100.508	19.980	15.813	0.556
124.501	127.038	80.004	20.008	100.508	19.981	15.722	0.578
125.001	127.316	80.003	20.008	100.515	19.980	16.042	0.579
125.501	127.562	80.004	20.009	100.520	19.980	15.840	0.556
126.001	127.813	80.004	20.009	100.525	19.985	14.342	0.510
126.501	128.144	80.004	20.008	100.528	19.981	15.683	0.540
127.000	128.436	80.003	20.009	100.527	19.979	16.189	0.603
127.500	128.706	80.003	20.008	100.527	19.981	15.764	0.593
128.000	128.946	80.003	20.008	100.531	19.983	14.950	0.536
128.500	129.298	80.004	20.009	100.533	19.982	15.465	0.551
129.000	129.543	80.004	20.009	100.526	19.981	15.674	0.594
129.500	129.857	80.004	20.009	100.520	19.981	15.791	0.577
130.000	130.129	80.003	20.009	100.512	19.979	16.383	0.572
130.500	130.421	80.003	20.008	100.509	19.981	15.529	0.575
131.000	130.660	80.004	20.008	100.510	19.981	15.738	0.548
131.500	131.008	80.004	20.008	100.517	19.981	15.679	0.559
132.000	131.284	80.004	20.008	100.523	19.980	15.908	0.606
132.500	131.546	80.003	20.008	100.525	19.980	15.992	0.581
133.000	131.844	80.004	20.009	100.520	19.981	15.627	0.549
133.500	132.134	80.004	20.008	100.512	19.981	15.620	0.574
134.000	132.394	80.004	20.008	100.507	19.983	14.981	0.569
134.500	132.698	80.003	20.008	100.504	19.981	15.762	0.557
135.000	132.970	80.002	20.008	100.504	19.983	15.067	0.569
135.500	133.268	80.006	20.009	100.504	19.983	15.178	0.573
136.000	133.523	80.004	20.009	100.505	19.984	14.671	0.562
136.500	133.885	80.003	20.009	100.501	19.986	14.105	0.585
137.000	134.148	80.004	20.009	100.497	19.985	14.469	0.621
137.500	134.407	80.004	20.008	100.500	19.983	15.121	0.573
138.000	134.722	80.003	20.008	100.506	19.986	14.190	0.548
138.500	134.986	80.004	20.009	100.506	19.981	15.701	0.577
139.001	135.349	80.004	20.008	100.506	19.982	15.427	0.603
139.500	135.609	80.003	20.009	100.501	19.984	14.729	0.625
140.000	135.848	80.003	20.009	100.488	19.985	14.351	0.561
140.500	136.181	80.004	20.009	100.480	19.981	15.645	0.536
141.000	136.429	80.003	20.008	100.480	19.985	14.571	0.576
141.500	136.792	80.005	20.008	100.480	19.984	14.591	0.595
142.000	137.070	80.003	20.009	100.484	19.981	15.665	0.626
142.500	137.322	80.003	20.009	100.485	19.982	15.353	0.586
143.000	137.572	80.004	20.009	100.480	19.984	14.760	0.516
143.500	137.866	80.005	20.009	100.475	19.984	14.818	0.523
144.000	138.176	80.004	20.009	100.476	19.983	15.143	0.574
144.500	138.476	80.004	20.008	100.478	19.982	15.339	0.607
145.000	138.762	80.004	20.008	100.483	19.982	15.228	0.598
145.500	139.076	80.003	20.009	100.480	19.984	14.811	0.593
146.000	139.249	80.004	20.009	100.478	19.982	15.287	0.543
146.500	139.566	80.004	20.009	100.470	19.983	14.987	0.488
147.000	139.878	80.004	20.009	100.463	19.985	14.557	0.560
147.500	140.171	80.004	20.009	100.465	19.984	14.576	0.617
148.000	140.447	80.003	20.009	100.472	19.984	14.836	0.587
148.500	140.740	80.004	20.009	100.478	19.982	15.357	0.569
149.000	141.004	80.004	20.009	100.484	19.983	15.148	0.563
149.500	141.305	80.004	20.008	100.487	19.983	14.887	0.561
150.000	141.647	80.004	20.009	100.485	19.984	14.652	0.604
150.500	141.912	80.003	20.008	100.487	19.983	15.057	0.625
151.000	142.160	80.003	20.009	100.488	19.984	14.642	0.560
151.500	142.505	80.004	20.009	100.490	19.985	14.441	0.553
152.000	142.745	80.004	20.009	100.487	19.985	14.344	0.589
152.500	143.095	80.005	20.008	100.482	19.985	14.565	0.587
153.000	143.350	80.003	20.009	100.474	19.987	13.900	0.598
153.500	143.627	80.004	20.009	100.469	19.984	14.610	0.568
154.000	143.914	80.003	20.008	100.465	19.985	14.363	0.548
154.500	144.216	80.004	20.008	100.469	19.987	13.758	0.576
155.000	144.447	80.003	20.009	100.469	19.986	14.161	0.561
155.500	144.766	80.003	20.009	100.469	19.985	14.454	0.542
156.000	145.038	80.004	20.009	100.467	19.985	14.355	0.571
156.500	145.366	80.004	20.009	100.463	19.983	14.895	0.595
157.000	145.622	80.004	20.009	100.459	19.983	15.181	0.592
157.500	145.913	80.002	20.009	100.463	19.984	14.608	0.566
158.000	146.153	80.004	20.009	100.465	19.985	14.491	0.539
158.500	146.431	80.003	20.009	100.465	19.986	14.146	0.524
159.000	146.761	80.005	20.009	100.465	19.985	14.367	0.563
159.500	147.067	80.003	20.009	100.463	19.988	13.625	0.622
160.000	147.341	80.003	20.009	100.458	19.987	13.679	0.608
160.500	147.619	80.004	20.008	100.457	19.983	14.923	0.566
161.000	147.912	80.004	20.008	100.457	19.984	14.800	0.562
161.500	148.180	80.004	20.009	100.456	19.983	14.911	0.566
162.000	148.431	80.003	20.009	100.452	19.986	14.103	0.540
162.500	148.731	80.004	20.009	100.445	19.984	14.844	0.535
163.000	149.072	80.003	20.009	100.445	19.983	15.084	0.597
163.500	149.354	80.004	20.008	100.451	19.986	14.192	0.632
164.000	149.605	80.004	20.008	100.461	19.984	14.811	0.578
164.500	149.904	80.003	20.009	100.467	19.981	15.501	0.541
165.000	150.193	80.004	20.009	100.474	19.983	15.026	0.569
165.500	150.462	80.003	20.009	100.474	19.980	15.963	0.573
166.000	150.744	80.005	20.009	100.468	19.980	15.943	0.554
166.500	151.025	80.003	20.008	100.467	19.981	15.657	0.557
167.000	151.301	80.005	20.009	100.471	19.983	15.091	0.560
167.500	151.603	80.004	20.009	100.471	19.980	15.899	0.568
168.000	151.878	80.003	20.009	100.470	19.980	16.022	0.578
168.500	152.113	80.004	20.009	100.468	19.982	15.357	0.544
169.001	152.471	80.004	20.009	100.460	19.981	15.766	0.551
169.500	152.715	80.004	20.009	100.455	19.978	16.690	0.597
170.000	153.009	80.004	20.009	100.454	19.979	16.130	0.570
170.500	153.313	80.003	20.009	100.455	19.980	15.916	0.568
171.000	153.553	80.005	20.009	100.456	19.976	17.081	0.571
171.500	153.826	80.003	20.009	100.457	19.976	17.119	0.528
172.000	154.138	80.003	20.009	100.455	19.980	15.939	0.549
172.500	154.358	80.003	20.009	100.456	19.978	16.584	0.559
173.000	154.671	80.005	20.009	100.464	19.981	15.770	0.533
173.500	155.003	80.003	20.009	100.471	19.978	16.618	0.588
174.000	155.272	80.004	20.009	100.476	19.977	17.029	0.623
174.500	155.619	80.004	20.009	100.476	19.975	17.595	0.609
175.000	155.801	80.004	20.010	100.474	19.975	17.600	0.573
175.500	156.131	80.003	20.009	100.465	19.978	16.512	0.520
176.000	156.437	80.004	20.009	100.461	19.977	16.870	0.574
176.500	156.716	80.003	20.009	100.459	19.979	16.310	0.610
177.000	156.896	80.005	20.009	100.460	19.976	17.085	0.522
177.500	157.192	80.003	20.009	100.461	19.975	17.345	0.468
178.000	157.509	80.004	20.009	100.461	19.976	17.091	0.545
178.500	157.808	80.002	20.009	100.458	19.974	17.935	0.614
179.000	158.087	80.005	20.009	100.459	19.975	17.498	0.596
179.500	158.392	80.004	20.009	100.461	19.971	18.754	0.581
180.000	158.596	80.003	20.008	100.465	19.973	18.221	0.547
180.500	158.900	80.002	20.009	100.464	19.970	18.912	0.509
181.000	159.145	80.005	20.009	100.462	19.970	19.016	0.529
181.500	159.502	80.003	20.009	100.455	19.971	18.599	0.575
182.000	159.715	80.003	20.009	100.449	19.970	19.021	0.586
182.500	160.008	80.003	20.008	100.448	19.971	18.663	0.538
183.000	160.316	80.004	20.009	100.448	19.971	18.755	0.554
183.500	160.575	80.003	20.009	100.449	19.970	18.892	0.584
184.000	160.822	80.005	20.009	100.446	19.973	18.190	0.536
184.500	161.163	80.004	20.009	100.440	19.972	18.403	0.547
185.000	161.371	80.004	20.009	100.433	19.969	19.184	0.569
185.500	161.679	80.003	20.009	100.434	19.971	18.721	0.533
186.000	161.943	80.003	20.009	100.435	19.972	18.447	0.544
186.500	162.193	80.006	20.009	100.444	19.971	18.675	0.543
187.000	162.490	80.004	20.009	100.448	19.970	18.891	0.531
187.500	162.688	80.002	20.009	100.445	19.971	18.851	0.522
188.000	163.049	80.005	20.009	100.438	19.971	18.752	0.527
188.500	163.304	80.004	20.009	100.431	19.972	18.316	0.588
189.000	163.619	80.003	20.009	100.431	19.970	18.953	0.593
189.500	163.834	80.004	20.009	100.433	19.970	19.162	0.550
190.000	164.167	80.004	20.009	100.435	19.970	19.039	0.539
190.500	164.409	80.002	20.009	100.434	19.971	18.617	0.562
191.000	164.684	80.004	20.009	100.430	19.970	19.131	0.546
191.500	164.964	80.004	20.009	100.419	19.970	18.941	0.536
192.000	165.282	80.004	20.009	100.414	19.969	19.401	0.577
192.500	165.581	80.004	20.009	100.416	19.967	19.798	0.608
193.000	165.770	80.003	20.009	100.420	19.969	19.447	0.552
193.500	166.051	80.004	20.009	100.423	19.967	19.825	0.479
194.000	166.365	80.004	20.009	100.425	19.968	19.651	0.533
194.500	166.614	80.003	20.009	100.421	19.969	19.189	0.579
195.000	166.909	80.002	20.009	100.416	19.969	19.435	0.554
195.500	167.139	80.005	20.009	100.414	19.968	19.565	0.535
196.000	167.396	80.002	20.009	100.419	19.964	20.874	0.506
196.500	167.665	80.004	20.009	100.422	19.964	20.914	0.506
197.000	167.974	80.003	20.009	100.425	19.964	20.909	0.552
197.500	168.257	80.004	20.009	100.419	19.962	21.450	0.585
198.000	168.566	80.003	20.009	100.415	19.959	22.444	0.592
198.500	168.789	80.004	20.009	100.411	19.961	21.909	0.562
199.000	169.045	80.004	20.009	100.409	19.961	21.837	0.505
199.500	169.295	80.003	20.008	100.410	19.958	22.703	0.493
200.000	169.660	80.003	20.009	100.416	19.963	21.024	0.560
200.500	169.903	80.004	20.009	100.414	19.962	21.598	0.611
201.000	170.164	80.004	20.009	100.406	19.959	22.496	0.556
201.500	170.434	80.002	20.009	100.403	19.958	22.774	0.517
202.000	170.796	80.004	20.009	100.402	19.960	22.050	0.582
202.500	170.997	80.003	20.008	100.402	19.958	22.680	0.598
203.000	171.308	80.005	20.009	100.408	19.959	22.303	0.538
203.500	171.573	80.003	20.008	100.414	19.958	22.636	0.544
204.000	171.795	80.002	20.009	100.411	19.958	22.612	0.531
204.500	172.128	80.004	20.009	100.404	19.960	21.989	0.521
205.000	172.383	80.004	20.009	100.398	19.961	21.905	0.571
205.500	172.673	80.003	20.009	100.397	19.959	22.315	0.567
206.000	172.923	80.004	20.009	100.398	19.959	22.303	0.543
206.500	173.164	80.004	20.009	100.403	19.959	22.559	0.516
207.000	173.485	80.004	20.009	100.408	19.959	22.509	0.526
207.500	173.723	80.004	20.009	100.407	19.959	22.354	0.561
208.000	173.986	80.004	20.009	100.405	19.960	22.055	0.530
208.501	174.267	80.003	20.009	100.404	19.959	22.529	0.522
209.000	174.538	80.004	20.009	100.406	19.960	22.006	0.548
209.500	174.785	80.003	20.008	100.411	19.960	22.219	0.535
210.000	175.148	80.004	20.009	100.419	19.958	22.634	0.564
210.500	175.375	80.004	20.009	100.422	19.958	22.666	0.600
211.000	175.590	80.003	20.008	100.416	19.958	22.639	0.516
211.500	175.870	80.003	20.009	100.411	19.957	22.872	0.469
212.000	176.097	80.003	20.009	100.410	19.959	22.357	0.501
212.500	176.366	80.004	20.008	100.409	19.960	22.240	0.501
213.000	176.655	80.003	20.008	100.410	19.960	22.221	0.527
213.500	176.915	80.004	20.009	100.415	19.958	22.710	0.553
214.000	177.111	80.004	20.009	100.416	19.960	22.152	0.502
214.500	177.432	80.003	20.009	100.407	19.960	22.183	0.487
215.000	177.637	80.003	20.008	100.399	19.961	21.856	0.521
215.500	177.899	80.004	20.009	100.397	19.962	21.621	0.496
216.000	178.265	80.003	20.009	100.398	19.962	21.348	0.548
216.500	178.475	80.003	20.009	100.402	19.962	21.342	0.602
217.000	178.781	80.004	20.009	100.411	19.961	21.928	0.546
217.501	178.967	80.005	20.009	100.418	19.961	21.910	0.504
218.001	179.255	80.004	20.009	100.420	19.965	20.607	0.483
218.501	179.494	80.004	20.009	100.421	19.961	21.693	0.500
219.000	179.828	80.003	20.009	100.428	19.965	20.579	0.550
219.500	180.059	80.003	20.009	100.435	19.963	21.035	0.569
220.000	180.296	80.004	20.009	100.444	19.966	20.398	0.517
220.500	180.558	80.003	20.008	100.451	19.967	19.840	0.484
221.000	180.867	80.004	20.009	100.454	19.966	20.256	0.535
221.500	181.150	80.005	20.009	100.446	19.964	20.879	0.582
222.001	181.382	80.004	20.009	100.438	19.965	20.468	0.554
222.501	181.644	80.003	20.009	100.430	19.966	20.396	0.504
223.000	181.893	80.004	20.009	100.422	19.965	20.663	0.502
223.500	182.196	80.004	20.008	100.418	19.963	21.269	0.531
224.000	182.462	80.003	20.009	100.415	19.965	20.567	0.561
224.500	182.697	80.004	20.009	100.408	19.967	19.865	0.535
225.000	183.007	80.003	20.009	100.406	19.966	20.130	0.523
225.500	183.262	80.004	20.009	100.407	19.967	19.850	0.555
226.000	183.511	80.004	20.009	100.407	19.966	20.123	0.534
226.500	183.762	80.003	20.008	100.411	19.966	20.292	0.502
227.000	183.973	80.005	20.009	100.419	19.970	19.117	0.481
227.500	184.266	80.003	20.009	100.414	19.965	20.693	0.483
228.000	184.504	80.004	20.009	100.406	19.970	19.170	0.518
228.500	184.861	80.003	20.009	100.403	19.970	18.876	0.563
229.000	185.104	80.004	20.009	100.403	19.975	17.457	0.597
229.500	185.318	80.003	20.009	100.404	19.972	18.400	0.528
230.000	185.602	80.005	20.008	100.409	19.974	17.802	0.478
230.500	185.836	80.004	20.009	100.414	19.976	17.256	0.508
231.000	186.117	80.004	20.009	100.409	19.974	17.829	0.517
231.500	186.356	80.003	20.009	100.402	19.978	16.663	0.518
232.000	186.649	80.004	20.009	100.399	19.975	17.385	0.526
232.500	186.908	80.005	20.009	100.401	19.975	17.391	0.542
233.000	187.132	80.004	20.009	100.403	19.976	17.079	0.517
233.500	187.408	80.003	20.009	100.409	19.979	16.137	0.491
234.000	187.663	80.004	20.009	100.409	19.976	17.263	0.515
234.500	187.857	80.005	20.009	100.403	19.981	15.786	0.490
235.000	188.189	80.004	20.009	100.394	19.982	15.466	0.488
235.500	188.390	80.005	20.009	100.392	19.978	16.447	0.530
236.000	188.713	80.004	20.009	100.392	19.981	15.732	0.528
236.500	188.973	80.004	20.009	100.399	19.981	15.628	0.553
237.000	189.263	80.005	20.009	100.404	19.980	15.967	0.566
237.500	189.487	80.003	20.009	100.404	19.982	15.422	0.532
238.000	189.703	80.003	20.009	100.398	19.982	15.467	0.477
238.500	190.017	80.005	20.009	100.393	19.982	15.446	0.485
239.001	190.231	80.004	20.009	100.392	19.983	15.003	0.529
239.500	190.479	80.004	20.009	100.396	19.984	14.866	0.495
240.000	190.691	80.003	20.009	100.405	19.985	14.352	0.461
240.500	191.016	80.004	20.010	100.412	19.987	13.800	0.498
241.000	191.243	80.004	20.009	100.411	19.982	15.265	0.544
241.500	191.528	80.004	20.009	100.405	19.985	14.542	0.532
242.000	191.759	80.004	20.009	100.400	19.983	15.088	0.514
242.500	191.994	80.005	20.009	100.400	19.984	14.716	0.491
243.000	192.285	80.003	20.009	100.401	19.988	13.552	0.496
243.500	192.516	80.004	20.009	100.406	19.985	14.424	0.524
244.000	192.791	80.005	20.009	100.407	19.987	13.807	0.514
244.500	193.029	80.005	20.010	100.404	19.989	13.260	0.510
245.000	193.318	80.004	20.009	100.401	19.985	14.450	0.520
245.500	193.569	80.003	20.009	100.400	19.989	13.330	0.533
246.000	193.843	80.004	20.009	100.400	19.990	12.933	0.532
246.500	194.058	80.004	20.009	100.406	19.989	13.291	0.507
247.000	194.308	80.003	20.009	100.412	19.991	12.544	0.477
247.500	194.568	80.004	20.010	100.407	19.989	13.183	0.488
248.000	194.861	80.005	20.010	100.400	19.989	13.033	0.532
248.500	195.082	80.003	20.009	100.396	19.990	12.883	0.534
249.000	195.345	80.005	20.009	100.395	19.993	11.990	0.499
249.500	195.618	80.004	20.009	100.397	19.993	11.931	0.510
250.000	195.854	80.003	20.009	100.405	19.991	12.485	0.522
250.500	196.071	80.004	20.009	100.411	19.992	12.284	0.481
251.000	196.371	80.003	20.010	100.408	19.993	11.849	0.485
251.500	196.609	80.004	20.010	100.400	19.993	12.102	0.528
252.000	196.844	80.004	20.009	100.394	19.992	12.174	0.506
252.500	197.113	80.003	20.009	100.393	19.994	11.640	0.489
253.000	197.381	80.005	20.009	100.396	19.993	11.874	0.520
253.500	197.630	80.003	20.009	100.403	19.993	12.063	0.526
254.000	197.874	80.004	20.010	100.405	19.994	11.758	0.505
254.500	198.114	80.003	20.010	100.403	19.994	11.745	0.488
255.000	198.329	80.004	20.009	100.397	19.995	11.211	0.470
255.500	198.639	80.004	20.009	100.393	19.997	10.813	0.491
256.000	198.886	80.002	20.009	100.393	19.999	9.973	0.541
256.500	199.181	80.004	20.009	100.399	20.000	9.739	0.549
257.000	199.340	80.003	20.009	100.401	19.999	9.986	0.497
257.500	199.579	80.003	20.009	100.400	20.000	9.850	0.426
258.000	199.899	80.004	20.009	100.395	19.999	10.195	0.479
258.500	200.048	80.003	20.009	100.388	20.001	9.375	0.514
259.000	200.358	80.005	20.009	100.384	19.999	10.143	0.464
259.500	200.617	80.003	20.009	100.390	20.000	9.914	0.514
260.000	200.847	80.004	20.009	100.399	20.000	9.875	0.529
260.500	201.129	80.003	20.009	100.405	19.999	10.058	0.500
261.000	201.293	80.004	20.009	100.405	20.001	9.388	0.479
261.500	201.527	80.003	20.009	100.402	20.002	9.135	0.423
262.000	201.887	80.004	20.009	100.393	20.003	8.789	0.496
262.500	202.112	80.004	20.009	100.389	20.003	8.990	0.589
263.000	202.330	80.003	20.009	100.391	20.000	9.724	0.514
263.500	202.566	80.005	20.009	100.398	20.001	9.379	0.449
264.000	202.844	80.004	20.009	100.405	20.001	9.425	0.484
264.500	203.100	80.004	20.010	100.405	20.004	8.580	0.524
265.000	203.369	80.003	20.009	100.402	20.004	8.523	0.529
265.500	203.617	80.003	20.009	100.397	20.004	8.601	0.521
266.000	203.880	80.005	20.009	100.397	20.005	8.406	0.514
266.500	204.146	80.003	20.009	100.400	20.001	9.557	0.520
267.000	204.385	80.004	20.009	100.408	20.001	9.439	0.517
267.500	204.657	80.004	20.009	100.409	20.002	9.238	0.508
268.000	204.885	80.004	20.010	100.405	20.004	8.464	0.505
268.500	205.121	80.004	20.010	100.398	20.006	8.067	0.482
269.000	205.436	80.003	20.009	100.390	20.003	8.737	0.508
269.500	205.614	80.004	20.009	100.386	20.006	8.066	0.522
270.000	205.851	80.004	20.009	100.392	20.005	8.340	0.454
270.500	206.175	80.003	20.009	100.398	20.004	8.601	0.488
271.000	206.438	80.004	20.009	100.399	20.005	8.282	0.574
271.500	206.695	80.005	20.009	100.398	20.005	8.399	0.554
272.000	206.935	80.003	20.010	100.394	20.005	8.191	0.509
272.500	207.204	80.004	20.009	100.387	20.007	7.788	0.503
273.000	207.423	80.004	20.009	100.383	20.007	7.742	0.498
273.500	207.703	80.004	20.009	100.390	20.009	7.189	0.494
274.000	207.950	80.004	20.009	100.395	20.005	8.315	0.513
274.500	208.208	80.004	20.010	100.396	20.003	8.783	0.516
275.000	208.429	80.005	20.009	100.389	20.009	7.092	0.492
275.500	208.731	80.003	20.009	100.378	20.009	7.007	0.501
276.000	208.945	80.005	20.010	100.367	20.008	7.312	0.519
276.500	209.201	80.004	20.009	100.365	20.009	6.954	0.493
277.000	209.505	80.004	20.009	100.370	20.006	7.825	0.515
277.500	209.714	80.005	20.010	100.384	20.007	7.565	0.537
278.000	209.929	80.005	20.010	100.392	20.009	6.935	0.469
278.500	210.252	80.005	20.010	100.397	20.008	7.299	0.481
279.000	210.443	80.004	20.010	100.394	20.006	7.818	0.526
279.500	210.700	80.003	20.010	100.388	20.008	7.473	0.481
280.000	211.026	80.006	20.009	100.384	20.010	6.647	0.515
280.500	211.238	80.004	20.010	100.386	20.007	7.714	0.561
281.000	211.459	80.003	20.010	100.385	20.007	7.676	0.486
281.500	211.739	80.004	20.010	100.386	20.007	7.585	0.467
282.000	211.977	80.003	20.010	100.385	20.010	6.726	0.510
282.500	212.217	80.005	20.010	100.382	20.007	7.663	0.499
283.000	212.444	80.004	20.009	100.383	20.009	6.954	0.473
283.500	212.656	80.004	20.009	100.391	20.008	7.202	0.453
284.000	213.007	80.004	20.009	100.396	20.010	6.714	0.501
284.500	213.191	80.004	20.009	100.398	20.008	7.242	0.549
285.000	213.494	80.004	20.010	100.398	20.009	6.917	0.511
285.500	213.718	80.005	20.010	100.395	20.010	6.799	0.507
286.000	214.036	80.004	20.009	100.388	20.011	6.441	0.535
286.500	214.310	80.005	20.010	100.391	20.010	6.883	0.567
287.000	214.461	80.004	20.009	100.394	20.010	6.844	0.508
287.500	214.741	80.003	20.009	100.396	20.007	7.560	0.428
288.000	214.980	80.004	20.009	100.396	20.010	6.812	0.475
288.500	215.270	80.003	20.009	100.391	20.009	7.104	0.523
289.000	215.555	80.004	20.009	100.383	20.007	7.591	0.552
289.500	215.764	80.004	20.009	100.378	20.009	7.012	0.535
290.000	216.017	80.003	20.009	100.379	20.006	8.000	0.478
290.500	216.211	80.005	20.009	100.380	20.008	7.370	0.455
291.000	216.623	80.004	20.010	100.385	20.007	7.702	0.526
291.500	216.776	80.004	20.009	100.379	20.006	7.846	0.585
292.000	217.033	80.003	20.010	100.372	20.005	8.314	0.487
292.500	217.381	80.005	20.009	100.367	20.004	8.581	0.508
293.000	217.589	80.003	20.009	100.364	20.006	7.838	0.581
293.500	217.800	80.004	20.009	100.367	20.006	7.845	0.488
294.000	218.075	80.004	20.010	100.375	20.009	7.130	0.453
294.500	218.340	80.004	20.009	100.382	20.007	7.540	0.513
295.000	218.550	80.005	20.009	100.383	20.008	7.260	0.508
295.500	218.787	80.004	20.009	100.383	20.008	7.338	0.461
296.000	219.117	80.003	20.009	100.384	20.009	7.188	0.507
296.500	219.340	80.005	20.009	100.389	20.008	7.383	0.560
297.000	219.574	80.004	20.009	100.396	20.010	6.804	0.505
297.500	219.803	80.003	20.009	100.404	20.013	5.757	0.460
298.000	220.077	80.005	20.010	100.405	20.011	6.310	0.483
298.500	220.272	80.004	20.009	100.402	20.011	6.518	0.486
299.000	220.594	80.005	20.009	100.396	20.010	6.648	0.493
299.501	220.804	80.005	20.009	100.391	20.011	6.277	0.525
300.001	221.087	80.003	20.010	100.390	20.010	6.817	0.513
300.500	221.296	80.004	20.009	100.394	20.009	7.098	0.492
301.000	221.568	80.005	20.010	100.394	20.008	7.300	0.486
301.500	221.836	80.002	20.010	100.389	20.006	7.840	0.510
302.000	222.085	80.004	20.010	100.379	20.008	7.326	0.528
302.500	222.345	80.005	20.010	100.371	20.007	7.546	0.513
303.000	222.575	80.003	20.009	100.367	20.004	8.730	0.500
303.500	222.892	80.005	20.010	100.373	20.008	7.201	0.519
304.000	223.050	80.004	20.009	100.382	20.007	7.552	0.511
304.500	223.335	80.005	20.010	100.390	20.010	6.726	0.459
305.000	223.568	80.002	20.010	100.387	20.008	7.305	0.480
305.501	223.835	80.005	20.010	100.384	20.008	7.402	0.509
306.001	224.078	80.005	20.009	100.377	20.010	6.595	0.505
306.500	224.228	80.003	20.009	100.377	20.009	7.063	0.451
307.000	224.505	80.005	20.009	100.382	20.008	7.446	0.410
307.500	224.755	80.004	20.009	100.387	20.008	7.421	0.477
308.000	224.990	80.003	20.009	100.387	20.007	7.669	0.506
308.500	225.222	80.005	20.010	100.388	20.009	6.895	0.476
309.000	225.484	80.004	20.010	100.383	20.008	7.232	0.480
309.500	225.734	80.003	20.009	100.379	20.008	7.304	0.503
310.000	225.941	80.004	20.009	100.379	20.009	7.050	0.484
310.500	226.295	80.004	20.009	100.381	20.010	6.726	0.509
311.000	226.502	80.004	20.009	100.380	20.005	8.118	0.561
311.500	226.713	80.003	20.010	100.377	20.011	6.440	0.490
312.000	227.096	80.004	20.010	100.377	20.009	6.902	0.506
312.500	227.281	80.005	20.010	100.376	20.006	7.982	0.581
313.000	227.542	80.004	20.009	100.381	20.012	6.271	0.508
313.500	227.805	80.005	20.009	100.389	20.009	7.182	0.485
314.000	228.117	80.005	20.009	100.394	20.007	7.800	0.549
314.500	228.338	80.004	20.010	100.394	20.008	7.215	0.553
315.000	228.544	80.005	20.010	100.392	20.013	5.848	0.480
315.500	228.855	80.004	20.010	100.386	20.010	6.732	0.473
316.000	228.991	80.003	20.010	100.378	20.011	6.432	0.482
316.500	229.270	80.005	20.009	100.377	20.010	6.783	0.431
317.000	229.480	80.004	20.009	100.378	20.008	7.433	0.452
317.500	229.703	80.004	20.009	100.380	20.006	7.941	0.461
318.000	229.938	80.003	20.009	100.374	20.009	7.181	0.445
318.500	230.238	80.003	20.009	100.367	20.010	6.667	0.496
319.000	230.487	80.005	20.010	100.358	20.013	5.861	0.542
319.500	230.734	80.003	20.009	100.356	20.012	6.134	0.523
320.000	230.983	80.004	20.009	100.356	20.012	6.206	0.496
320.500	231.281	80.005	20.009	100.363	20.011	6.518	0.522
321.000	231.572	80.004	20.010	100.369	20.011	6.532	0.568
321.500	231.767	80.004	20.010	100.369	20.012	6.220	0.537
322.000	232.063	80.004	20.010	100.363	20.012	6.064	0.489
322.500	232.267	80.005	20.010	100.361	20.011	6.539	0.496
323.000	232.542	80.004	20.010	100.362	20.011	6.395	0.489
323.500	232.713	80.003	20.009	100.370	20.009	7.130	0.462
324.000	233.017	80.005	20.010	100.380	20.015	5.211	0.460
324.500	233.315	80.004	20.010	100.387	20.010	6.760	0.539
325.000	233.523	80.003	20.010	100.389	20.009	7.098	0.555
325.500	233.773	80.005	20.010	100.387	20.013	5.901	0.482
326.000	234.064	80.003	20.010	100.384	20.011	6.505	0.499
326.500	234.222	80.004	20.009	100.386	20.010	6.603	0.495
327.000	234.562	80.005	20.009	100.391	20.011	6.414	0.474
327.500	234.742	80.003	20.009	100.392	20.010	6.628	0.509
328.000	235.030	80.006	20.009	100.385	20.010	6.785	0.494
328.500	235.286	80.003	20.010	100.375	20.011	6.401	0.506
329.000	235.503	80.003	20.009	100.363	20.013	5.913	0.509
329.500	235.798	80.003	20.009	100.354	20.013	5.756	0.493
330.000	236.023	80.004	20.010	100.354	20.008	7.369	0.516
330.500	236.262	80.004	20.009	100.361	20.010	6.621	0.492
331.000	236.615	80.003	20.010	100.369	20.010	6.627	0.528
331.500	236.730	80.004	20.010	100.376	20.009	7.162	0.530
332.000	237.094	80.004	20.010	100.374	20.010	6.661	0.473
332.500	237.271	80.003	20.010	100.375	20.009	7.123	0.510
333.000	237.562	80.005	20.010	100.379	20.010	6.843	0.505
333.500	237.746	80.004	20.010	100.387	20.008	7.292	0.471
334.000	237.971	80.002	20.009	100.396	20.012	6.088	0.442
334.500	238.283	80.005	20.009	100.407	20.004	8.670	0.473
335.000	238.561	80.004	20.010	100.409	20.007	7.741	0.564
335.500	238.770	80.003	20.009	100.404	20.009	7.130	0.539
336.000	239.053	80.005	20.009	100.396	20.008	7.455	0.489
336.500	239.367	80.002	20.009	100.392	20.007	7.682	0.544
337.000	239.485	80.004	20.009	100.392	20.005	8.267	0.514
337.500	239.759	80.005	20.009	100.392	20.006	8.110	0.412
338.000	239.969	80.003	20.009	100.392	20.008	7.252	0.438
338.500	240.246	80.005	20.009	100.392	20.006	7.844	0.485
339.000	240.493	80.003	20.009	100.385	20.006	7.858	0.505
339.500	240.704	80.004	20.009	100.379	20.006	7.844	0.491
340.000	241.077	80.003	20.009	100.376	20.004	8.657	0.521
340.500	241.221	80.002	20.009	100.377	20.006	8.103	0.551
341.000	241.440	80.004	20.009	100.377	20.008	7.486	0.440
341.500	241.783	80.004	20.009	100.381	20.006	7.869	0.463
342.000	242.032	80.004	20.010	100.374	20.006	8.052	0.577
342.500	242.272	80.003	20.009	100.366	20.008	7.266	0.540
343.000	242.593	80.004	20.009	100.360	20.010	6.784	0.525
343.500	242.862	80.004	20.009	100.358	20.006	7.922	0.576
344.000	243.102	80.005	20.009	100.361	20.009	7.194	0.550
344.500	243.353	80.003	20.009	100.375	20.008	7.480	0.500
345.000	243.588	80.003	20.009	100.383	20.009	6.973	0.488
345.500	243.914	80.005	20.009	100.383	20.003	8.853	0.524
346.000	244.074	80.005	20.009	100.377	20.009	6.966	0.523
346.500	244.325	80.003	20.009	100.371	20.011	6.367	0.449
347.000	244.576	80.004	20.009	100.366	20.005	8.298	0.457
347.500	244.792	80.003	20.009	100.369	20.009	7.141	0.485
348.000	245.086	80.003	20.009	100.375	20.006	7.986	0.488
348.500	245.245	80.004	20.009	100.381	20.008	7.284	0.481
349.000	245.571	80.005	20.009	100.377	20.008	7.343	0.469
349.500	245.860	80.004	20.009	100.367	20.011	6.562	0.550
350.000	246.071	80.004	20.009	100.363	20.008	7.277	0.557
350.500	246.301	80.003	20.009	100.363	20.012	6.197	0.470
351.000	246.562	80.002	20.009	100.365	20.012	6.190	0.466
351.500	246.737	80.003	20.009	100.372	20.008	7.205	0.463
352.000	247.121	80.004	20.009	100.378	20.012	6.120	0.498
352.500	247.293	80.003	20.009	100.369	20.011	6.360	0.558
353.000	247.553	80.003	20.009	100.362	20.010	6.679	0.494
353.500	247.743	80.003	20.009	100.357	20.015	5.319	0.441
354.000	248.121	80.004	20.009	100.357	20.013	5.754	0.509
354.500	248.272	80.003	20.009	100.358	20.011	6.404	0.549
355.001	248.539	80.003	20.009	100.366	20.012	6.060	0.474
355.500	248.794	80.004	20.009	100.372	20.013	5.892	0.470
356.000	249.120	80.002	20.009	100.368	20.011	6.432	0.551
356.500	249.342	80.004	20.009	100.366	20.012	6.256	0.564
357.000	249.544	80.003	20.009	100.367	20.010	6.757	0.486
357.500	249.812	80.002	20.009	100.367	20.014	5.462	0.447
358.000	250.017	80.004	20.009	100.369	20.011	6.418	0.472
358.500	250.358	80.003	20.009	100.375	20.014	5.560	0.509
359.000	250.615	80.003	20.009	100.371	20.013	5.788	0.572
359.500	250.871	80.004	20.010	100.363	20.016	4.773	0.556
360.000	251.074	80.003	20.009	100.355	20.010	6.731	0.486
360.500	251.327	80.003	20.009	100.353	20.009	7.030	0.457
361.000	251.645	80.005	20.009	100.354	20.009	7.140	0.513
361.500	251.784	80.002	20.009	100.360	20.009	6.906	0.514
362.000	252.193	80.006	20.009	100.360	20.014	5.371	0.503
362.500	252.444	80.003	20.009	100.358	20.013	5.807	0.604
363.000	252.614	80.004	20.010	100.352	20.014	5.521	0.541
363.500	252.915	80.004	20.010	100.344	20.008	7.374	0.446
364.000	253.078	80.003	20.009	100.342	20.012	6.060	0.468
364.500	253.319	80.004	20.009	100.350	20.014	5.482	0.434
365.000	253.585	80.005	20.009	100.356	20.014	5.600	0.455
365.500	253.843	80.003	20.009	100.357	20.014	5.619	0.515
366.000	254.061	80.004	20.010	100.352	20.014	5.587	0.500
366.500	254.395	80.004	20.009	100.345	20.014	5.398	0.515
367.000	254.632	80.003	20.010	100.336	20.013	5.801	0.562
367.500	254.809	80.004	20.009	100.331	20.010	6.640	0.492
368.000	255.054	80.003	20.009	100.337	20.015	5.190	0.418
368.500	255.328	80.003	20.009	100.347	20.010	6.615	0.470
369.000	255.595	80.004	20.009	100.349	20.015	5.139	0.530
369.500	255.897	80.004	20.009	100.349	20.017	4.540	0.555
370.000	256.170	80.002	20.010	100.349	20.012	6.211	0.572
370.500	256.362	80.003	20.009	100.345	20.016	4.897	0.520
371.000	256.533	80.002	20.009	100.345	20.015	5.157	0.414
371.501	256.862	80.004	20.009	100.352	20.010	6.868	0.431
372.000	257.192	80.004	20.010	100.355	20.014	5.658	0.580
372.500	257.464	80.003	20.010	100.353	20.012	6.270	0.630
373.000	257.696	80.003	20.010	100.349	20.012	6.094	0.553
373.500	257.886	80.004	20.009	100.345	20.010	6.699	0.463
374.000	258.201	80.004	20.010	100.340	20.011	6.276	0.463
374.500	258.407	80.006	20.009	100.342	20.016	5.033	0.512
375.000	258.554	80.003	20.009	100.345	20.017	4.696	0.437
375.500	259.007	80.003	20.010	100.348	20.011	6.302	0.477
376.000	259.113	80.003	20.010	100.346	20.010	6.699	0.580
376.500	259.282	80.005	20.009	100.345	20.011	6.458	0.417
377.000	259.682	80.003	20.010	100.341	20.014	5.501	0.422
377.500	259.900	80.003	20.009	100.348	20.014	5.371	0.594
378.000	260.248	80.004	20.010	100.357	20.015	5.325	0.592
378.500	260.364	80.003	20.009	100.363	20.012	6.021	0.514
379.000	260.760	80.003	20.010	100.364	20.013	5.722	0.488
379.500	260.936	80.005	20.010	100.363	20.009	7.179	0.542
380.000	261.219	80.006	20.010	100.359	20.010	6.802	0.515
380.500	261.522	80.004	20.010	100.358	20.009	7.120	0.523
381.000	261.632	80.004	20.009	100.362	20.013	5.833	0.500
381.500	261.934	80.003	20.010	100.369	20.014	5.482	0.413
382.000	262.153	80.004	20.010	100.377	20.014	5.639	0.467
382.500	262.509	80.004	20.010	100.374	20.008	7.304	0.548
383.000	262.626	80.003	20.009	100.365	20.006	7.843	0.524
383.500	262.770	80.003	20.010	100.356	20.010	6.789	0.367
384.000	263.148	80.003	20.009	100.355	20.011	6.418	0.391
384.500	263.431	80.003	20.010	100.356	20.012	6.002	0.591
385.000	263.643	80.004	20.010	100.362	20.012	6.165	0.578
385.500	264.015	80.004	20.010	100.367	20.008	7.336	0.540
386.000	264.214	80.003	20.010	100.366	20.010	6.855	0.578
386.500	264.414	80.003	20.010	100.359	20.011	6.406	0.485
387.000	264.673	80.004	20.009	100.352	20.009	6.900	0.429
387.500	264.844	80.005	20.010	100.352	20.008	7.414	0.445
388.000	265.201	80.005	20.009	100.358	20.013	5.964	0.479
388.500	265.425	80.004	20.009	100.363	20.007	7.798	0.554
389.000	265.652	80.004	20.010	100.362	20.009	6.972	0.516
389.500	265.864	80.004	20.010	100.358	20.008	7.395	0.445
390.000	266.191	80.004	20.010	100.345	20.009	6.992	0.489
390.500	266.409	80.004	20.009	100.336	20.007	7.518	0.543
391.000	266.740	80.004	20.010	100.330	20.008	7.303	0.547
391.500	266.861	80.003	20.010	100.330	20.009	7.082	0.500
392.000	267.107	80.005	20.010	100.334	20.010	6.718	0.409
392.500	267.296	80.003	20.010	100.340	20.003	8.806	0.401
393.000	267.648	80.005	20.010	100.341	20.005	8.123	0.489
393.500	267.878	80.004	20.010	100.343	20.010	6.711	0.561
394.000	268.140	80.004	20.009	100.350	20.004	8.674	0.537
394.500	268.413	80.004	20.010	100.357	20.006	7.926	0.513
395.000	268.666	80.004	20.009	100.364	20.006	7.997	0.530
395.500	268.800	80.003	20.010	100.363	20.005	8.335	0.457
396.000	269.118	80.004	20.010	100.359	20.006	8.056	0.419
396.500	269.317	80.005	20.010	100.352	19.998	10.358	0.484
397.000	269.517	80.004	20.010	100.345	20.002	9.259	0.458
397.500	269.876	80.004	20.010	100.338	20.004	8.627	0.479
398.000	270.215	80.004	20.010	100.344	20.002	9.063	0.628
398.500	270.323	80.005	20.010	100.355	20.003	8.900	0.572
399.000	270.421	80.004	20.010	100.360	20.001	9.609	0.327
399.500	270.874	80.004	20.010	100.361	19.998	10.345	0.378
400.000	271.113	80.004	20.010	100.359	19.999	9.987	0.622
400.500	271.477	80.004	20.010	100.357	19.996	11.073	0.648
401.000	271.704	80.004	20.010	100.356	19.997	10.617	0.597
401.500	271.833	80.004	20.010	100.359	19.997	10.636	0.473
402.000	272.042	80.003	20.009	100.366	19.995	11.326	0.347
402.500	272.428	80.003	20.010	100.368	19.996	10.988	0.467
403.000	272.697	80.004	20.010	100.364	19.993	12.081	0.625
403.500	272.811	80.004	20.010	100.358	19.993	11.983	0.518
404.000	273.265	80.004	20.010	100.351	19.999	10.253	0.475
404.500	273.393	80.003	20.010	100.349	19.995	11.319	0.575
405.001	273.596	80.004	20.009	100.352	19.989	13.218	0.457
405.500	273.849	80.003	20.010	100.357	19.995	11.438	0.393
406.000	274.172	80.004	20.010	100.358	19.994	11.654	0.515
406.500	274.342	80.004	20.010	100.352	19.998	10.504	0.534
407.000	274.664	80.005	20.010	100.340	19.991	12.527	0.493
407.500	274.827	80.003	20.009	100.333	19.993	12.007	0.489
408.000	275.169	80.004	20.010	100.328	19.993	11.947	0.495
408.500	275.325	80.004	20.010	100.329	19.986	14.042	0.501
409.000	275.574	80.004	20.009	100.335	19.995	11.453	0.451
409.500	275.952	80.004	20.009	100.339	19.991	12.618	0.516
410.000	276.105	80.004	20.010	100.332	19.989	13.320	0.579
410.500	276.416	80.004	20.010	100.325	19.995	11.304	0.498
411.000	276.646	80.004	20.010	100.321	19.988	13.378	0.503
411.500	276.921	80.004	20.010	100.321	19.988	13.592	0.523
412.000	277.234	80.005	20.010	100.325	19.990	12.773	0.546
412.500	277.388	80.005	20.010	100.332	19.984	14.640	0.528
413.000	277.588	80.004	20.009	100.336	19.991	12.566	0.411
413.500	277.830	80.004	20.010	100.332	19.988	13.431	0.398
414.000	278.128	80.002	20.010	100.329	19.988	13.398	0.490
414.500	278.373	80.004	20.010	100.325	19.987	13.728	0.541
415.000	278.612	80.003	20.009	100.327	19.986	14.104	0.514
415.500	278.814	80.003	20.009	100.330	19.988	13.526	0.463
416.000	279.175	80.003	20.010	100.335	19.989	13.123	0.502
416.500	279.293	80.004	20.010	100.333	19.990	12.974	0.521
417.000	279.614	80.003	20.010	100.329	19.991	12.415	0.459
417.500	279.892	80.005	20.010	100.327	19.989	13.195	0.519
418.000	280.110	80.004	20.010	100.331	19.985	14.332	0.547
418.500	280.363	80.004	20.009	100.340	19.985	14.526	0.484
419.000	280.663	80.005	20.010	100.352	19.980	15.800	0.513
419.500	280.890	80.005	20.010	100.362	19.981	15.527	0.540
420.000	281.092	80.005	20.009	100.368	19.986	14.123	0.478
420.500	281.406	80.005	20.009	100.366	19.980	15.904	0.472
421.000	281.528	80.005	20.010	100.359	19.978	16.670	0.476
421.500	281.799	80.005	20.009	100.360	19.980	15.812	0.415
422.001	282.097	80.005	20.009	100.362	19.979	16.150	0.481
422.501	282.551	80.004	20.009	100.363	19.982	15.182	0.660
423.000	282.614	80.004	20.009	100.361	19.980	16.010	0.634
423.500	282.887	80.003	20.010	100.361	19.982	15.453	0.427
424.000	283.109	80.004	20.009	100.355	19.976	17.046	0.416
424.500	283.303	80.006	20.009	100.351	19.973	18.243	0.455
425.000	283.677	80.007	20.010	100.353	19.983	14.964	0.491
425.500	283.926	80.006	20.010	100.360	19.981	15.523	0.596
426.000	284.068	80.005	20.009	100.366	19.971	18.652	0.508
426.500	284.408	80.004	20.009	100.365	19.972	18.327	0.437
427.000	284.665	80.005	20.010	100.359	19.974	17.774	0.539
427.500	284.764	80.004	20.009	100.351	19.976	17.214	0.476
428.000	285.156	80.003	20.009	100.345	19.975	17.504	0.424
428.500	285.417	80.005	20.010	100.345	19.977	16.962	0.572
429.000	285.726	80.005	20.009	100.349	19.977	16.818	0.612
429.500	285.971	80.004	20.010	100.352	19.972	18.541	0.562
430.000	286.096	80.004	20.009	100.352	19.972	18.302	0.462
430.500	286.358	80.004	20.010	100.350	19.969	19.448	0.379
431.000	286.646	80.004	20.010	100.344	19.976	17.141	0.468
431.500	286.978	80.004	20.009	100.338	19.972	18.279	0.585
432.000	287.224	80.003	20.009	100.337	19.971	18.623	0.599
432.500	287.489	80.004	20.009	100.334	19.970	18.928	0.544
433.000	287.854	80.006	20.009	100.334	19.972	18.468	0.570
433.500	287.960	80.004	20.009	100.331	19.970	18.892	0.551
434.000	288.172	80.004	20.009	100.324	19.972	18.289	0.394
434.500	288.369	80.004	20.009	100.324	19.974	17.684	0.363
435.000	288.458	80.004	20.009	100.326	19.972	18.451	0.348
435.500	288.730	80.003	20.009	100.334	19.973	18.131	0.324
436.000	289.187	80.003	20.009	100.346	19.974	17.844	0.544
436.500	289.342	80.005	20.009	100.358	19.968	19.536	0.671
437.000	289.584	80.002	20.009	100.360	19.967	20.019	0.505
437.500	289.918	80.005	20.010	100.360	19.969	19.264	0.486
438.001	290.297	80.005	20.010	100.354	19.964	20.793	0.644
438.501	290.419	80.003	20.009	100.352	19.967	19.946	0.607
439.000	290.652	80.003	20.009	100.353	19.968	19.607	0.428
439.500	290.873	80.003	20.009	100.359	19.970	19.113	0.404
440.000	291.152	80.004	20.009	100.358	19.964	20.791	0.477
440.500	291.240	80.004	20.010	100.351	19.963	21.273	0.433
441.001	291.830	80.005	20.009	100.338	19.966	20.219	0.523
441.500	292.133	80.004	20.010	100.324	19.963	21.070	0.786
442.000	292.123	80.004	20.009	100.318	19.966	20.170	0.593
442.500	292.304	80.004	20.009	100.320	19.962	21.483	0.232
443.000	292.582	80.003	20.009	100.329	19.967	19.884	0.315
443.500	293.049	80.004	20.010	100.335	19.962	21.394	0.602
444.000	293.182	80.003	20.009	100.343	19.964	20.726	0.672
444.500	293.570	80.005	20.010	100.341	19.964	20.811	0.560
445.000	293.607	80.003	20.009	100.339	19.964	20.817	0.473
445.500	293.955	80.005	20.010	100.339	19.967	19.951	0.405
446.000	294.239	80.004	20.009	100.348	19.963	21.166	0.509
446.500	294.349	80.004	20.009	100.354	19.968	19.697	0.513
447.000	294.686	80.005	20.009	100.360	19.966	20.329	0.420
447.500	294.915	80.004	20.009	100.359	19.964	20.857	0.506
448.000	295.240	80.005	20.010	100.359	19.968	19.634	0.560
448.500	295.371	80.004	20.010	100.350	19.961	21.662	0.505
449.000	295.678	80.004	20.010	100.348	19.960	22.161	0.447
449.501	295.853	80.005	20.009	100.353	19.965	20.658	0.460
450.001	296.269	80.004	20.009	100.361	19.963	21.139	0.536
450.500	296.419	80.004	20.009	100.362	19.965	20.555	0.579
451.000	296.747	80.004	20.010	100.362	19.960	21.980	0.522
451.500	296.903	80.003	20.009	100.357	19.963	21.076	0.481
452.000	297.292	80.005	20.009	100.351	19.958	22.845	0.515
452.500	297.382	80.004	20.009	100.351	19.957	22.878	0.512
453.000	297.631	80.004	20.009	100.354	19.960	21.975	0.409
453.500	297.972	80.005	20.009	100.356	19.962	21.495	0.464
454.000	298.177	80.005	20.010	100.355	19.958	22.680	0.568
454.500	298.464	80.004	20.010	100.349	19.963	21.262	0.519
455.000	298.668	80.002	20.009	100.338	19.958	22.580	0.491
455.500	298.937	80.005	20.009	100.333	19.956	23.392	0.482
456.000	299.212	80.004	20.010	100.337	19.956	23.247	0.509
456.500	299.402	80.004	20.009	100.346	19.964	20.860	0.505
457.000	299.650	80.004	20.009	100.355	19.961	21.661	0.451
457.500	299.985	80.004	20.010	100.357	19.960	22.097	0.510
458.000	300.285	80.004	20.010	100.355	19.959	22.447	0.609
458.500	300.401	80.004	20.009	100.349	19.959	22.239	0.526
459.000	300.730	80.004	20.009	100.343	19.961	21.699	0.431
459.500	300.957	80.004	20.009	100.344	19.960	21.948	0.500
460.000	301.219	80.004	20.009	100.353	19.958	22.619	0.523
460.500	301.435	80.004	20.009	100.356	19.960	22.029	0.484
461.000	301.653	80.004	20.009	100.356	19.962	21.438	0.456
461.500	302.026	80.005	20.009	100.349	19.960	22.035	0.513
462.000	302.281	80.004	20.010	100.344	19.958	22.580	0.609
462.500	302.641	80.004	20.009	100.337	19.956	23.365	0.621
463.000	302.748	80.003	20.009	100.339	19.962	21.577	0.541
463.500	303.120	80.005	20.010	100.342	19.957	22.885	0.473
464.001	303.273	80.004	20.009	100.348	19.955	23.621	0.503
464.500	303.455	80.003	20.009	100.347	19.954	24.069	0.430
465.000	303.713	80.004	20.009	100.347	19.955	23.582	0.387
465.500	304.116	80.005	20.009	100.351	19.956	23.411	0.551
466.000	304.305	80.005	20.009	100.355	19.958	22.733	0.627
466.500	304.666	80.004	20.009	100.362	19.953	24.216	0.571
467.000	304.888	80.005	20.009	100.365	19.956	23.431	0.566
467.500	305.149	80.004	20.009	100.365	19.957	23.016	0.533
468.000	305.284	80.005	20.009	100.357	19.958	22.847	0.439
468.500	305.485	80.003	20.009	100.350	19.955	23.485	0.366
469.000	305.824	80.004	20.009	100.343	19.957	23.113	0.438
469.500	306.059	80.004	20.008	100.343	19.955	23.547	0.557
470.000	306.412	80.004	20.009	100.345	19.954	23.951	0.581
470.500	306.595	80.004	20.009	100.346	19.955	23.673	0.562
471.000	306.822	80.005	20.010	100.342	19.955	23.712	0.473
471.500	307.038	80.004	20.009	100.341	19.951	24.824	0.426
472.001	307.237	80.004	20.009	100.343	19.954	23.900	0.429
472.500	307.809	80.005	20.009	100.349	19.951	24.893	0.593
473.000	307.933	80.005	20.009	100.355	19.952	24.586	0.734
473.500	308.257	80.004	20.009	100.365	19.955	23.748	0.572
474.000	308.416	80.005	20.009	100.367	19.951	24.901	0.466
474.500	308.610	80.004	20.009	100.363	19.954	23.804	0.418
475.000	308.927	80.003	20.009	100.355	19.949	25.606	0.432
475.500	309.174	80.005	20.009	100.348	19.949	25.320	0.537
476.000	309.476	80.006	20.010	100.349	19.948	25.877	0.556
476.500	309.700	80.005	20.009	100.354	19.950	25.284	0.538
477.000	309.963	80.004	20.009	100.357	19.943	27.164	0.507
477.500	310.173	80.004	20.009	100.356	19.945	26.664	0.480
478.001	310.443	80.004	20.009	100.357	19.948	25.866	0.476
478.500	310.776	80.004	20.009	100.350	19.950	25.158	0.542
479.000	310.993	80.004	20.009	100.342	19.951	24.747	0.577
479.500	311.269	80.005	20.009	100.342	19.943	27.412	0.521
480.000	311.383	80.003	20.009	100.350	19.947	26.032	0.442
480.500	311.748	80.004	20.009	100.356	19.937	29.031	0.435
481.000	312.109	80.006	20.009	100.358	19.943	27.173	0.603
481.500	312.238	80.003	20.010	100.358	19.945	26.744	0.608
482.000	312.547	80.005	20.009	100.354	19.944	26.977	0.464
482.500	312.788	80.005	20.010	100.349	19.938	28.944	0.493
483.000	313.025	80.004	20.009	100.351	19.936	29.421	0.514
483.500	313.322	80.005	20.009	100.356	19.937	29.100	0.506
484.000	313.549	80.004	20.009	100.358	19.934	30.153	0.529
484.500	313.790	80.003	20.009	100.357	19.933	30.297	0.496
485.000	314.069	80.005	20.010	100.354	19.932	30.539	0.495
485.500	314.348	80.004	20.010	100.346	19.930	31.282	0.539
486.000	314.638	80.003	20.010	100.340	19.929	31.540	0.563
486.500	314.859	80.006	20.009	100.346	19.931	30.836	0.540
487.000	315.095	80.003	20.009	100.354	19.930	31.206	0.484
487.500	315.317	80.005	20.009	100.363	19.931	31.122	0.457
488.000	315.582	80.004	20.009	100.364	19.933	30.486	0.473
488.500	315.842	80.005	20.010	100.363	19.921	34.010	0.506
489.000	316.132	80.005	20.009	100.356	19.920	34.464	0.537
489.500	316.394	80.004	20.009	100.350	19.921	34.067	0.551
490.000	316.701	80.004	20.009	100.350	19.921	34.064	0.561
490.500	316.901	80.004	20.009	100.356	19.918	34.933	0.538
491.000	317.230	80.005	20.010	100.363	19.916	35.521	0.518
491.500	317.530	80.005	20.009	100.364	19.914	36.251	0.579
492.000	317.710	80.004	20.010	100.362	19.910	37.474	0.555
492.500	317.990	80.004	20.009	100.354	19.915	36.006	0.470
493.000	318.184	80.005	20.010	100.351	19.906	38.533	0.467
493.500	318.435	80.006	20.009	100.354	19.907	38.200	0.459
494.000	318.754	80.004	20.009	100.360	19.912	36.913	0.507
494.500	318.928	80.004	20.008	100.361	19.907	38.189	0.532
495.000	319.298	80.003	20.009	100.358	19.907	38.458	0.518
495.500	319.459	80.005	20.009	100.346	19.900	40.503	0.537
496.000	319.776	80.003	20.009	100.332	19.904	39.207	0.505
496.500	319.909	80.005	20.009	100.322	19.897	41.506	0.464
497.000	320.229	80.004	20.009	100.323	19.896	41.672	0.452
497.500	320.666	80.004	20.009	100.325	19.892	43.007	0.605
498.000	320.886	80.004	20.009	100.331	19.890	43.693	0.707
498.500	321.020	80.005	20.010	100.335	19.890	43.446	0.506
499.000	321.297	80.005	20.010	100.330	19.889	43.771	0.382
499.500	321.536	80.005	20.009	100.323	19.886	44.655	0.463
500.000	321.729	80.004	20.009	100.320	19.882	45.922	0.474
500.500	322.058	80.004	20.009	100.322	19.882	45.923	0.477
501.000	322.328	80.003	20.009	100.326	19.878	47.217	0.560
501.500	322.506	80.005	20.010	100.326	19.877	47.392	0.523
502.000	322.798	80.005	20.009	100.325	19.875	48.119	0.459
502.500	323.116	80.005	20.009	100.322	19.870	49.786	0.540
503.000	323.378	80.004	20.009	100.314	19.873	48.645	0.595
503.501	323.665	80.005	20.009	100.309	19.872	49.010	0.564
504.001	323.907	80.004	20.009	100.315	19.865	51.206	0.539
504.501	324.001	80.004	20.009	100.321	19.862	52.078	0.433
505.000	324.165	80.003	20.009	100.325	19.867	50.678	0.297
505.500	324.401	80.003	20.008	100.326	19.862	52.124	0.329
506.000	324.760	80.004	20.009	100.322	19.860	52.707	0.498
506.500	324.964	80.003	20.008	100.318	19.854	54.661	0.579
507.000	325.286	80.005	20.008	100.319	19.853	54.862	0.544
507.500	325.555	80.004	20.008	100.323	19.852	55.083	0.558
508.000	325.870	80.006	20.009	100.330	19.854	54.615	0.588
508.500	326.200	80.005	20.008	100.339	19.848	56.461	0.615
509.000	326.310	80.004	20.009	100.334	19.841	58.480	0.543
509.500	326.718	80.004	20.009	100.326	19.840	58.731	0.479
510.000	326.903	80.005	20.008	100.319	19.835	60.285	0.555
510.500	327.143	80.004	20.008	100.310	19.835	60.499	0.509
511.000	327.440	80.005	20.009	100.301	19.833	60.924	0.481
511.500	327.655	80.003	20.009	100.301	19.831	61.512	0.525
512.000	327.967	80.005	20.009	100.302	19.829	62.194	0.520
512.500	328.056	80.005	20.009	100.302	19.827	62.905	0.464
513.000	328.429	80.005	20.009	100.302	19.819	65.361	0.431
513.500	328.582	80.004	20.009	100.303	19.821	64.802	0.494
514.000	328.739	80.004	20.008	100.304	19.813	67.110	0.418
514.500	329.108	80.004	20.008	100.304	19.816	66.302	0.418
515.000	329.399	80.004	20.009	100.302	19.811	67.704	0.593
515.500	329.590	80.003	20.008	100.294	19.804	69.831	0.571
516.001	329.853	80.006	20.009	100.287	19.809	68.357	0.469
516.500	330.083	80.003	20.009	100.288	19.801	70.746	0.473
517.000	330.369	80.006	20.009	100.287	19.798	71.655	0.504
517.500	330.522	80.004	20.009	100.290	19.793	73.364	0.478
518.000	330.806	80.003	20.009	100.298	19.794	72.959	0.438
518.500	330.966	80.004	20.009	100.304	19.789	74.567	0.440
519.000	331.415	80.005	20.009	100.300	19.785	75.720	0.526
519.500	331.645	80.005	20.009	100.295	19.786	75.363	0.644
520.000	331.890	80.005	20.009	100.294	19.778	77.975	0.577
520.500	332.141	80.005	20.009	100.294	19.777	78.281	0.486
521.000	332.443	80.004	20.009	100.295	19.772	79.675	0.525
521.500	332.734	80.006	20.009	100.294	19.770	80.385	0.572
522.000	332.867	80.003	20.009	100.290	19.769	80.757	0.508
522.500	333.160	80.004	20.009	100.286	19.768	81.108	0.425
523.000	333.444	80.005	20.009	100.286	19.763	82.415	0.502
523.500	333.730	80.003	20.009	100.286	19.755	84.853	0.574
524.000	333.986	80.005	20.009	100.290	19.753	85.462	0.556
524.500	334.195	80.005	20.009	100.296	19.754	85.386	0.504
525.000	334.340	80.003	20.009	100.296	19.750	86.479	0.409
525.500	334.676	80.005	20.010	100.289	19.745	88.118	0.418
526.000	334.822	80.003	20.009	100.287	19.745	88.150	0.482
526.500	335.079	80.004	20.009	100.287	19.735	90.971	0.443
527.000	335.427	80.004	20.009	100.289	19.734	91.522	0.504
527.500	335.738	80.004	20.010	100.296	19.735	91.053	0.631
528.000	336.003	80.005	20.009	100.302	19.727	93.683	0.618
528.500	336.283	80.005	20.009	100.296	19.729	92.786	0.561
529.000	336.356	80.004	20.009	100.287	19.721	95.242	0.449
529.500	336.636	80.005	20.009	100.284	19.719	95.851	0.353
530.000	336.864	80.005	20.008	100.283	19.715	97.347	0.430
530.500	337.185	80.004	20.008	100.283	19.714	97.523	0.529
531.000	337.444	80.005	20.009	100.288	19.708	99.448	0.565
531.500	337.660	80.004	20.009	100.292	19.706	100.050	0.527
532.000	337.963	80.004	20.009	100.287	19.704	100.572	0.496
532.501	338.163	80.004	20.009	100.279	19.699	102.089	0.511
533.000	338.392	80.004	20.009	100.278	19.695	103.512	0.466
533.500	338.614	80.005	20.009	100.280	19.693	103.965	0.440
534.000	338.892	80.004	20.008	100.283	19.693	104.130	0.475
534.500	339.235	80.005	20.009	100.285	19.688	105.583	0.561
535.000	339.408	80.004	20.009	100.287	19.681	107.663	0.569
535.500	339.724	80.005	20.009	100.288	19.677	108.813	0.503
536.000	339.874	80.004	20.009	100.289	19.675	109.470	0.477
536.500	340.193	80.005	20.009	100.289	19.667	111.836	0.467
537.000	340.499	80.004	20.009	100.295	19.667	112.048	0.547
537.500	340.689	80.005	20.009	100.297	19.662	113.421	0.560
538.000	340.904	80.004	20.009	100.290	19.659	114.304	0.451
538.500	341.166	80.005	20.009	100.285	19.656	115.423	0.442
539.000	341.478	80.003	20.008	100.284	19.655	115.641	0.526
539.500	341.642	80.004	20.009	100.285	19.652	116.427	0.524
540.000	341.965	80.003	20.008	100.290	19.645	118.577	0.481
540.500	342.239	80.004	20.008	100.296	19.645	118.840	0.542
541.000	342.478	80.005	20.009	100.294	19.648	117.861	0.556
541.500	342.686	80.003	20.009	100.287	19.641	119.804	0.480
542.000	342.983	80.005	20.009	100.279	19.637	121.232	0.476
542.500	343.090	80.005	20.010	100.277	19.629	123.631	0.454
543.000	343.468	80.006	20.008	100.278	19.626	124.546	0.444
543.501	343.699	80.003	20.008	100.286	19.628	124.039	0.547
544.000	343.879	80.004	20.008	100.293	19.619	126.799	0.510
544.500	344.238	80.005	20.009	100.298	19.613	128.413	0.475
545.000	344.453	80.006	20.009	100.294	19.618	127.068	0.556
545.500	344.691	80.003	20.009	100.289	19.606	130.739	0.513
546.000	344.961	80.004	20.009	100.289	19.605	131.037	0.481
546.500	345.312	80.005	20.009	100.293	19.607	130.487	0.564
547.000	345.480	80.005	20.009	100.296	19.603	131.629	0.570
547.500	345.732	80.004	20.009	100.299	19.598	133.088	0.470
548.000	345.884	80.004	20.009	100.294	19.592	135.052	0.412
548.500	346.198	80.004	20.009	100.287	19.592	135.016	0.435
549.000	346.372	80.003	20.009	100.281	19.590	135.726	0.476
549.500	346.795	80.004	20.009	100.282	19.582	138.160	0.542
550.000	346.950	80.004	20.008	100.285	19.583	137.763	0.588
550.500	347.262	80.004	20.008	100.293	19.577	139.587	0.522
551.000	347.466	80.004	20.009	100.298	19.576	139.938	0.491
551.500	347.731	80.005	20.009	100.293	19.573	140.902	0.493
552.000	347.991	80.003	20.009	100.291	19.570	141.701	0.497
552.500	348.160	80.005	20.009	100.290	19.567	142.509	0.477
553.000	348.426	80.004	20.009	100.289	19.563	143.803	0.432
553.500	348.682	80.005	20.009	100.292	19.561	144.391	0.478
554.000	349.000	80.003	20.009	100.299	19.559	145.071	0.548
554.500	349.258	80.005	20.009	100.299	19.558	145.518	0.575
555.000	349.448	80.005	20.009	100.291	19.552	147.186	0.512
555.500	349.759	80.004	20.009	100.287	19.547	148.926	0.474
556.000	349.978	80.005	20.009	100.286	19.548	148.478	0.516
556.500	350.129	80.004	20.008	100.286	19.547	148.648	0.450
557.000	350.566	80.002	20.008	100.290	19.550	147.770	0.479
557.500	350.757	80.005	20.009	100.296	19.548	148.519	0.608
558.000	350.947	80.004	20.009	100.296	19.544	149.599	0.505
558.500	351.307	80.007	20.011	100.290	19.537	151.823	0.465
559.000	351.440	80.004	20.009	100.290	19.536	152.057	0.521
559.500	351.727	80.003	20.009	100.291	19.538	151.525	0.457
560.000	351.908	80.005	20.009	100.300	19.534	152.754	0.445
560.500	352.196	80.004	20.009	100.312	19.533	152.996	0.469
561.000	352.485	80.003	20.008	100.323	19.533	152.989	0.523
561.500	352.599	80.004	20.009	100.320	19.525	155.641	0.490
562.000	352.903	80.005	20.009	100.316	19.519	157.322	0.410
562.500	353.172	80.004	20.009	100.309	19.520	157.110	0.495
563.000	353.414	80.003	20.008	100.304	19.519	157.432	0.542
563.500	353.610	80.005	20.008	100.307	19.515	158.515	0.475
564.000	353.861	80.003	20.009	100.311	19.509	160.541	0.442
564.500	354.062	80.004	20.008	100.312	19.508	160.918	0.449
565.000	354.421	80.002	20.009	100.312	19.505	161.755	0.506
565.500	354.707	80.005	20.009	100.309	19.500	163.127	0.602
566.000	354.794	80.003	20.008	100.305	19.493	165.242	0.509
566.501	355.070	80.005	20.009	100.311	19.493	165.287	0.368
567.000	355.287	80.003	20.008	100.318	19.488	167.058	0.429
567.500	355.566	80.004	20.008	100.326	19.487	167.129	0.495
568.000	355.916	80.003	20.009	100.329	19.481	169.020	0.562
568.500	356.119	80.004	20.009	100.327	19.480	169.265	0.591
569.000	356.338	80.004	20.009	100.319	19.476	170.608	0.488
569.500	356.672	80.005	20.009	100.311	19.477	170.338	0.488
570.000	356.955	80.005	20.009	100.306	19.474	171.231	0.585
570.500	357.226	80.003	20.008	100.312	19.468	172.937	0.586
571.000	357.260	80.004	20.009	100.312	19.468	173.016	0.430
571.500	357.434	80.003	20.009	100.313	19.460	175.506	0.256
572.000	357.931	80.004	20.009	100.312	19.458	176.240	0.439
572.500	358.235	80.005	20.009	100.309	19.460	175.537	0.736
573.000	358.559	80.005	20.009	100.300	19.455	177.017	0.715
573.500	358.801	80.004	20.008	100.302	19.457	176.306	0.597
574.000	359.016	80.005	20.009	100.305	19.445	180.061	0.511
574.500	359.015	80.004	20.009	100.305	19.446	179.741	0.336
575.000	359.536	80.004	20.009	100.308	19.442	181.159	0.367
575.500	359.607	80.003	20.009	100.309	19.447	179.450	0.556
576.000	359.937	80.004	20.009	100.308	19.439	181.887	0.496
576.500	360.246	80.004	20.009	100.310	19.440	181.736	0.520
577.000	360.605	80.005	20.009	100.317	19.438	182.320	0.653
577.500	360.722	80.005	20.009	100.321	19.432	184.022	0.572
578.000	360.898	80.004	20.009	100.319	19.431	184.308	0.385
578.500	361.239	80.005	20.009	100.320	19.430	184.645	0.405
579.000	361.459	80.005	20.009	100.314	19.427	185.554	0.539
579.500	361.651	80.003	20.008	100.313	19.425	186.193	0.486
580.000	361.845	80.002	20.008	100.319	19.424	186.547	0.399
580.500	362.093	80.003	20.009	100.330	19.424	186.643	0.414
581.000	362.386	80.004	20.008	100.337	19.419	188.033	0.492
581.500	362.539	80.003	20.009	100.340	19.423	186.997	0.494
582.001	362.678	80.004	20.009	100.334	19.418	188.348	0.369
582.500	363.024	80.003	20.008	100.328	19.419	187.969	0.388
583.000	363.248	80.004	20.008	100.326	19.417	188.782	0.527
583.500	363.552	80.003	20.009	100.327	19.421	187.499	0.549
584.000	363.748	80.003	20.008	100.332	19.419	187.948	0.514
584.500	364.024	80.004	20.009	100.336	19.416	189.055	0.486
585.000	364.189	80.004	20.009	100.331	19.418	188.369	0.456
585.500	364.621	80.003	20.009	100.320	19.415	189.475	0.519
586.000	364.762	80.004	20.009	100.311	19.412	190.218	0.585
586.500	365.014	80.004	20.009	100.306	19.415	189.478	0.483
587.000	365.231	80.003	20.008	100.308	19.412	190.419	0.431
587.500	365.399	80.004	20.009	100.307	19.412	190.303	0.427
588.000	365.828	80.006	20.009	100.312	19.408	191.589	0.491
588.500	366.127	80.005	20.009	100.312	19.412	190.393	0.662
589.000	366.215	80.005	20.009	100.308	19.411	190.594	0.557
589.500	366.644	80.004	20.009	100.307	19.412	190.442	0.452
590.000	366.736	80.004	20.009	100.313	19.411	190.637	0.519
590.500	367.074	80.005	20.009	100.320	19.413	189.887	0.475
591.000	367.391	80.006	20.010	100.327	19.414	189.590	0.542
591.500	367.608	80.004	20.009	100.330	19.414	189.751	0.595
592.000	367.763	80.005	20.009	100.322	19.416	189.106	0.453
592.500	368.081	80.005	20.009	100.313	19.417	188.806	0.423
593.000	368.356	80.005	20.009	100.304	19.426	186.043	0.533
593.500	368.603	80.004	20.009	100.303	19.421	187.709	0.558
594.000	368.759	80.004	20.008	100.310	19.425	186.331	0.463
594.500	369.100	80.006	20.009	100.319	19.430	184.943	0.450
595.000	369.220	80.004	20.008	100.329	19.428	185.621	0.479
595.500	369.451	80.005	20.009	100.331	19.433	183.986	0.406
596.000	369.776	80.005	20.009	100.324	19.432	184.201	0.453
596.500	369.992	80.003	20.009	100.316	19.432	184.231	0.549
597.000	370.206	80.004	20.008	100.316	19.431	184.647	0.486
597.500	370.530	80.004	20.009	100.317	19.432	184.276	0.484
598.000	370.698	80.004	20.008	100.322	19.429	184.977	0.515
598.500	370.997	80.005	20.008	100.330	19.437	182.759	0.480
599.000	371.219	80.005	20.010	100.337	19.441	181.538	0.494
599.500	371.466	80.004	20.009	100.338	19.437	182.684	0.495
600.000	371.840	80.007	20.009	100.340	19.436	182.942	0.545
600.500	371.988	80.003	20.009	100.348	19.446	180.024	0.572
601.000	372.211	80.005	20.008	100.357	19.441	181.344	0.446
601.500	372.489	80.004	20.008	100.365	19.446	179.848	0.436
602.000	372.679	80.005	20.009	100.371	19.444	180.580	0.485
602.500	373.111	80.004	20.009	100.376	19.450	178.796	0.545
603.000	373.210	80.006	20.009	100.377	19.448	179.276	0.576
603.500	373.512	80.004	20.009	100.375	19.454	177.577	0.466
604.000	373.608	80.005	20.008	100.380	19.452	178.106	0.400
604.500	373.998	80.003	20.009	100.390	19.456	176.798	0.442
605.000	374.181	80.004	20.008	100.396	19.458	176.352	0.529
605.500	374.419	80.004	20.009	100.396	19.461	175.214	0.497
606.000	374.688	80.005	20.009	100.397	19.458	176.158	0.464
606.500	374.925	80.004	20.009	100.394	19.457	176.491	0.507
607.000	375.235	80.005	20.009	100.391	19.463	174.813	0.526
607.500	375.337	80.005	20.009	100.393	19.461	175.343	0.479
608.000	375.560	80.003	20.009	100.401	19.457	176.543	0.368
608.500	375.920	80.005	20.009	100.403	19.459	175.961	0.454
609.000	376.201	80.005	20.009	100.400	19.470	172.731	0.612
609.500	376.392	80.005	20.010	100.388	19.468	173.154	0.556
610.000	376.561	80.004	20.009	100.377	19.469	172.996	0.416
610.500	376.946	80.004	20.009	100.370	19.474	171.431	0.457
611.000	377.187	80.006	20.009	100.369	19.478	170.191	0.590
611.500	377.395	80.004	20.008	100.376	19.481	169.234	0.537
612.000	377.603	80.004	20.008	100.385	19.481	169.328	0.432
612.500	377.887	80.004	20.009	100.385	19.488	167.177	0.454
613.000	378.202	80.005	20.010	100.384	19.481	169.364	0.546
613.500	378.256	80.005	20.009	100.382	19.488	166.921	0.484
614.000	378.405	80.003	20.008	100.381	19.491	166.028	0.286
614.500	378.920	80.005	20.009	100.385	19.496	164.567	0.434
615.000	379.167	80.004	20.008	100.387	19.497	164.450	0.713
615.500	379.330	80.004	20.009	100.386	19.505	161.895	0.586
616.000	379.469	80.004	20.009	100.382	19.503	162.522	0.356
616.500	379.945	80.005	20.009	100.374	19.508	161.035	0.459
617.000	380.155	80.005	20.009	100.368	19.512	159.783	0.651
617.500	380.420	80.004	20.009	100.375	19.512	159.656	0.580
618.000	380.579	80.004	20.009	100.384	19.521	157.004	0.449
618.500	380.852	80.003	20.009	100.395	19.523	156.469	0.428
619.000	381.016	80.005	20.008	100.399	19.524	156.134	0.435
619.500	381.345	80.004	20.008	100.400	19.528	154.778	0.465
620.000	381.540	80.004	20.009	100.393	19.537	152.011	0.509
620.500	381.765	80.004	20.008	100.394	19.537	152.151	0.472
621.000	382.062	80.004	20.008	100.396	19.533	153.208	0.471
621.500	382.251	80.003	20.008	100.402	19.540	151.040	0.504
622.000	382.530	80.004	20.009	100.404	19.551	147.729	0.477
622.500	382.655	80.003	20.008	100.404	19.552	147.493	0.436
623.000	382.978	80.004	20.008	100.396	19.553	147.057	0.426
623.500	383.273	80.006	20.009	100.390	19.559	145.272	0.533
624.000	383.370	80.004	20.009	100.391	19.561	144.605	0.505
624.501	383.484	80.004	20.008	100.399	19.561	144.556	0.302
625.000	384.034	80.006	20.008	100.408	19.562	144.364	0.437
625.500	384.254	80.006	20.009	100.413	19.571	141.611	0.717
626.000	384.395	80.005	20.009	100.414	19.578	139.586	0.566
626.500	384.738	80.006	20.010	100.412	19.582	138.228	0.423
627.000	384.836	80.003	20.008	100.415	19.585	137.371	0.463
627.500	385.061	80.002	20.008	100.421	19.592	135.143	0.382
628.000	385.289	80.003	20.009	100.425	19.593	134.967	0.387
628.500	385.755	80.005	20.009	100.431	19.602	131.956	0.573
629.000	385.699	80.004	20.009	100.432	19.607	130.650	0.552
629.500	386.247	80.005	20.010	100.430	19.602	132.206	0.451
630.000	386.301	80.003	20.009	100.424	19.609	130.082	0.547
630.500	386.646	80.004	20.008	100.427	19.611	129.450	0.501
631.000	386.815	80.004	20.008	100.433	19.618	127.194	0.456
631.500	387.080	80.005	20.008	100.436	19.624	125.393	0.474
632.000	387.427	80.004	20.009	100.434	19.622	125.993	0.523
632.500	387.619	80.004	20.009	100.433	19.627	124.409	0.575
633.000	387.927	80.005	20.009	100.424	19.633	122.503	0.519
633.500	388.115	80.004	20.009	100.417	19.638	120.944	0.498
634.000	388.472	80.004	20.009	100.415	19.637	121.430	0.521
634.500	388.577	80.004	20.008	100.414	19.646	118.570	0.503
635.000	388.809	80.006	20.008	100.410	19.654	116.115	0.399
635.500	389.074	80.003	20.010	100.414	19.655	115.760	0.417
636.000	389.420	80.004	20.009	100.414	19.664	112.934	0.554
636.500	389.657	80.005	20.009	100.412	19.663	113.460	0.597
637.000	389.792	80.005	20.009	100.415	19.671	110.794	0.477
637.500	389.988	80.003	20.009	100.422	19.674	109.866	0.351
638.000	390.549	80.005	20.009	100.428	19.687	105.924	0.544
638.500	390.640	80.006	20.009	100.428	19.683	107.352	0.704
639.000	390.973	80.009	20.012	100.427	19.688	105.619	0.538
639.500	391.176	80.006	20.011	100.424	19.692	104.548	0.480
640.000	391.310	80.005	20.010	100.426	19.697	102.801	0.437
640.500	391.545	80.008	20.011	100.429	19.701	101.548	0.353
641.000	391.682	80.005	20.009	100.438	19.705	100.452	0.370
641.500	392.209	80.005	20.009	100.445	19.708	99.598	0.517
642.000	392.382	80.003	20.009	100.447	19.713	97.882	0.682
642.500	392.719	80.005	20.009	100.442	19.716	97.038	0.605
643.000	392.855	80.005	20.009	100.436	19.722	95.199	0.492
643.500	393.095	80.005	20.008	100.435	19.723	94.882	0.425
644.000	393.252	80.003	20.008	100.437	19.726	94.104	0.387
644.500	393.565	80.003	20.009	100.444	19.733	91.904	0.433
645.000	393.948	80.005	20.009	100.450	19.737	90.754	0.583
645.500	393.927	80.004	20.009	100.454	19.739	89.931	0.529
646.000	394.271	80.004	20.009	100.455	19.742	89.137	0.343
646.500	394.514	80.003	20.009	100.457	19.749	86.888	0.455
647.000	394.833	80.005	20.009	100.466	19.752	85.867	0.575
647.500	394.894	80.003	20.008	100.476	19.755	84.953	0.471
648.000	395.213	80.004	20.008	100.481	19.755	85.181	0.379
648.500	395.624	80.005	20.009	100.479	19.759	83.835	0.555
649.000	395.701	80.004	20.009	100.473	19.766	81.814	0.610
649.500	396.078	80.004	20.009	100.465	19.773	79.413	0.471
650.000	396.224	80.005	20.009	100.457	19.775	78.874	0.488
650.500	396.460	80.004	20.008	100.459	19.780	77.258	0.452
651.000	396.952	80.004	20.009	100.462	19.784	76.196	0.555
651.500	397.019	80.003	20.008	100.465	19.785	75.851	0.643
652.000	397.306	80.003	20.009	100.457	19.792	73.730	0.456
652.500	397.541	80.004	20.009	100.448	19.794	72.949	0.438
653.000	397.819	80.003	20.008	100.439	19.797	72.189	0.518
653.500	398.084	80.006	20.009	100.436	19.804	70.134	0.528
654.000	398.538	80.005	20.009	100.433	19.811	67.873	0.631
654.500	398.587	80.005	20.009	100.432	19.811	68.013	0.611
655.000	398.757	80.004	20.009	100.434	19.813	67.304	0.361
655.500	399.196	80.007	20.009	100.429	19.816	66.256	0.414
656.000	399.254	80.003	20.009	100.426	19.823	64.037	0.553
656.500	399.544	80.003	20.009	100.428	19.823	64.269	0.422
657.000	399.815	80.005	20.009	100.438	19.826	63.177	0.454
657.500	400.035	80.004	20.009	100.444	19.828	62.767	0.526
658.000	400.305	80.004	20.009	100.448	19.835	60.592	0.491
658.500	400.465	80.003	20.008	100.444	19.837	60.003	0.460
659.000	400.761	80.003	20.009	100.437	19.845	57.270	0.442
659.500	400.975	80.004	20.009	100.432	19.842	58.475	0.483
660.000	401.234	80.004	20.009	100.433	19.853	54.878	0.492
660.500	401.478	80.003	20.008	100.438	19.851	55.693	0.488
661.000	401.749	80.003	20.009	100.439	19.849	56.233	0.509
661.500	401.925	80.003	20.008	100.440	19.854	54.778	0.481
662.000	402.137	80.003	20.009	100.436	19.864	51.710	0.417
662.500	402.540	80.006	20.009	100.429	19.864	51.721	0.502
663.000	402.718	80.004	20.009	100.430	19.870	49.743	0.598
663.500	403.001	80.005	20.008	100.436	19.866	50.981	0.521
664.000	403.200	80.004	20.009	100.435	19.870	49.883	0.472
664.500	403.365	80.004	20.009	100.434	19.872	49.211	0.423
665.000	403.697	80.003	20.009	100.427	19.874	48.500	0.431
665.500	403.952	80.004	20.008	100.418	19.882	45.975	0.542
666.000	404.173	80.003	20.009	100.410	19.883	45.755	0.531
666.500	404.436	80.004	20.008	100.412	19.888	44.090	0.480
667.000	404.624	80.003	20.008	100.417	19.887	44.535	0.468
667.500	404.764	80.003	20.008	100.423	19.888	44.138	0.389
668.000	405.116	80.004	20.008	100.423	19.891	43.430	0.410
668.500	405.346	80.003	20.009	100.423	19.898	41.205	0.537
669.000	405.619	80.005	20.009	100.422	19.897	41.551	0.542
669.500	405.860	80.004	20.008	100.420	19.901	40.363	0.509
670.000	406.244	80.005	20.009	100.421	19.901	40.137	0.570
670.500	406.411	80.005	20.009	100.421	19.909	37.917	0.588
671.000	406.525	80.004	20.009	100.419	19.904	39.411	0.416
671.500	406.873	80.003	20.009	100.414	19.911	37.280	0.371
672.000	407.084	80.004	20.008	100.413	19.914	36.162	0.511
672.500	407.335	80.003	20.009	100.416	19.918	34.984	0.511
673.000	407.608	80.004	20.009	100.419	19.917	35.385	0.493
673.500	407.792	80.005	20.009	100.422	19.923	33.303	0.490
674.000	408.110	80.004	20.009	100.422	19.925	32.860	0.479
674.500	408.295	80.004	20.009	100.414	19.929	31.617	0.502
675.000	408.625	80.003	20.009	100.408	19.930	31.148	0.509
675.500	408.824	80.004	20.009	100.405	19.932	30.746	0.522
676.000	409.234	80.004	20.008	100.405	19.934	30.130	0.569
676.500	409.353	80.004	20.008	100.408	19.938	28.810	0.569
677.000	409.513	80.005	20.009	100.411	19.940	28.172	0.404
677.500	409.784	80.004	20.009	100.406	19.940	28.347	0.355
678.000	410.104	80.003	20.009	100.404	19.943	27.176	0.511
678.500	410.406	80.005	20.009	100.402	19.948	25.764	0.606
679.000	410.582	80.002	20.008	100.405	19.946	26.325	0.550
679.500	410.850	80.005	20.009	100.408	19.955	23.749	0.461
680.000	411.098	80.006	20.009	100.414	19.951	24.777	0.480
680.500	411.386	80.003	20.010	100.413	19.949	25.479	0.526
681.000	411.556	80.004	20.009	100.415	19.954	23.825	0.497
681.500	411.833	80.002	20.009	100.416	19.961	21.859	0.453
682.000	412.100	80.005	20.009	100.419	19.958	22.769	0.495
682.500	412.306	80.002	20.009	100.428	19.959	22.255	0.508
683.000	412.532	80.003	20.008	100.432	19.962	21.429	0.452
683.500	412.801	80.004	20.009	100.430	19.959	22.391	0.464
684.000	413.012	80.004	20.009	100.423	19.966	20.283	0.488
684.500	413.338	80.004	20.009	100.414	19.965	20.634	0.508
685.000	413.496	80.004	20.009	100.400	19.970	19.034	0.511
685.500	413.768	80.003	20.009	100.397	19.967	20.024	0.457
686.000	414.028	80.004	20.009	100.392	19.969	19.300	0.481
686.500	414.338	80.005	20.009	100.391	19.975	17.381	0.551
687.000	414.453	80.004	20.010	100.388	19.977	16.860	0.498
687.500	414.828	80.005	20.010	100.389	19.977	16.847	0.458
688.000	415.129	80.004	20.009	100.386	19.977	17.003	0.583
688.500	415.354	80.003	20.010	100.390	19.980	15.820	0.601
689.000	415.488	80.004	20.009	100.398	19.977	16.874	0.443
689.500	415.819	80.004	20.009	100.401	19.982	15.455	0.412
690.000	416.148	80.003	20.010	100.399	19.982	15.369	0.562
690.500	416.308	80.003	20.009	100.397	19.984	14.718	0.575
691.000	416.580	80.004	20.009	100.396	19.981	15.700	0.460
691.500	416.798	80.005	20.009	100.395	19.982	15.251	0.461
692.000	417.063	80.005	20.009	100.401	19.987	13.774	0.487
692.500	417.368	80.003	20.009	100.405	19.986	13.957	0.526
693.000	417.658	80.004	20.009	100.404	19.984	14.613	0.583
693.500	417.851	80.004	20.009	100.399	19.989	13.025	0.539
694.000	418.111	80.004	20.009	100.394	19.991	12.472	0.468
694.500	418.438	80.003	20.009	100.390	19.992	12.238	0.520
695.000	418.564	80.004	20.009	100.387	19.993	11.809	0.520
695.500	418.904	80.003	20.009	100.388	19.993	11.919	0.459
696.000	419.088	80.004	20.009	100.386	20.001	9.520	0.495
696.500	419.298	80.003	20.009	100.385	19.994	11.639	0.460
697.000	419.583	80.004	20.009	100.381	19.998	10.489	0.445
697.500	419.920	80.004	20.009	100.381	19.999	10.230	0.558
698.000	420.040	80.003	20.009	100.383	19.994	11.512	0.539
698.500	420.345	80.006	20.009	100.385	19.997	10.809	0.441
699.000	420.503	80.003	20.009	100.380	20.003	8.975	0.444
699.500	420.654	80.003	20.009	100.375	20.000	9.833	0.386
700.000	421.017	80.003	20.009	100.375	19.999	10.054	0.412
700.500	421.275	80.004	20.009	100.376	20.003	8.896	0.568
701.000	421.719	80.004	20.009	100.375	20.002	9.169	0.662
701.500	421.758	80.003	20.008	100.380	20.002	9.091	0.592
702.000	422.017	80.004	20.009	100.382	20.005	8.382	0.390
702.500	422.312	80.004	20.009	100.373	20.007	7.790	0.426
703.000	422.602	80.003	20.009	100.362	20.006	8.102	0.570
703.500	422.854	80.003	20.009	100.357	20.007	7.777	0.564
704.000	423.121	80.004	20.009	100.357	20.005	8.135	0.531
704.500	423.386	80.004	20.009	100.356	20.007	7.667	0.526
705.000	423.520	80.005	20.009	100.355	20.008	7.491	0.465
705.500	423.851	80.004	20.009	100.357	20.003	8.922	0.432
706.000	424.093	80.004	20.009	100.354	20.008	7.329	0.519
706.501	424.274	80.005	20.009	100.348	20.007	7.641	0.498
707.000	424.428	80.003	20.009	100.343	20.007	7.628	0.378
707.500	424.718	80.005	20.009	100.343	20.010	6.848	0.390
708.000	424.934	80.003	20.009	100.341	20.010	6.718	0.475
708.500	425.188	80.004	20.009	100.341	20.015	5.332	0.488
709.000	425.363	80.003	20.009	100.339	20.018	4.253	0.450
709.500	425.788	80.004	20.010	100.340	20.015	5.234	0.514
710.000	425.923	80.003	20.009	100.348	20.009	7.133	0.580
710.500	426.172	80.004	20.009	100.357	20.016	4.968	0.472
711.000	426.446	80.004	20.009	100.359	20.015	5.189	0.454
711.500	426.664	80.004	20.009	100.359	20.007	7.745	0.507
712.000	426.922	80.002	20.008	100.359	20.014	5.436	0.484
712.501	427.036	80.003	20.009	100.352	20.014	5.514	0.424
713.000	427.396	80.004	20.008	100.352	20.017	4.539	0.424
713.500	427.576	80.003	20.008	100.352	20.013	5.709	0.507
714.000	427.887	80.003	20.009	100.350	20.014	5.442	0.515
714.500	428.140	80.004	20.009	100.346	20.021	3.427	0.527
715.000	428.420	80.003	20.009	100.345	20.015	5.117	0.549
715.500	428.524	80.004	20.008	100.336	20.019	3.979	0.459
716.000	428.831	80.003	20.009	100.337	20.016	4.896	0.398
716.500	429.236	80.004	20.009	100.345	20.015	5.137	0.561
717.000	429.415	80.005	20.009	100.349	20.014	5.553	0.648
717.500	429.645	80.003	20.009	100.349	20.019	4.031	0.496
718.000	429.911	80.005	20.009	100.348	20.016	4.857	0.452
718.500	430.146	80.004	20.009	100.346	20.015	5.293	0.498
719.000	430.274	80.004	20.008	100.343	20.017	4.434	0.432
719.500	430.541	80.003	20.008	100.349	20.012	5.969	0.379
720.000	430.821	80.004	20.008	100.352	20.023	2.893	0.471
720.500	431.034	80.004	20.009	100.351	20.023	2.783	0.520
721.000	431.265	80.004	20.009	100.348	20.019	4.102	0.468
721.500	431.520	80.004	20.009	100.343	20.025	2.256	0.465
722.000	431.675	80.002	20.008	100.338	20.020	3.595	0.448
722.500	431.967	80.004	20.009	100.338	20.022	3.199	0.429
723.000	432.273	80.004	20.009	100.344	20.020	3.570	0.522
723.500	432.539	80.003	20.009	100.347	20.027	1.385	0.585
724.000	432.863	80.005	20.009	100.348	20.018	4.273	0.581
724.500	433.060	80.006	20.009	100.346	20.020	3.557	0.555
725.000	433.455	80.003	20.009	100.343	20.019	4.084	0.556
725.500	433.535	80.004	20.008	100.337	20.023	2.679	0.533
726.000	433.635	80.002	20.009	100.336	20.025	2.159	0.327
726.500	434.092	80.005	20.009	100.336	20.016	4.775	0.368
727.000	434.153	80.003	20.009	100.335	20.018	4.209	0.538
727.500	434.230	80.004	20.009	100.333	20.017	4.547	0.328
728.000	434.725	80.004	20.009	100.335	20.027	1.398	0.355
728.500	434.938	80.005	20.009	100.335	20.024	2.582	0.640
729.000	435.103	80.004	20.008	100.338	20.023	2.627	0.543
729.500	435.315	80.005	20.009	100.340	20.021	3.491	0.377
730.000	435.625	80.003	20.009	100.342	20.026	1.879	0.449
730.500	435.961	80.004	20.009	100.339	20.024	2.380	0.584
731.000	436.189	80.004	20.009	100.335	20.022	3.199	0.605
731.500	436.362	80.003	20.009	100.331	20.026	1.690	0.483
732.000	436.537	80.002	20.009	100.330	20.029	0.995	0.375
732.500	436.886	80.005	20.009	100.332	20.027	1.404	0.437
733.000	437.163	80.005	20.009	100.335	20.025	2.256	0.575
733.500	437.410	80.003	20.009	100.333	20.025	2.009	0.574
734.000	437.679	80.005	20.010	100.326	20.024	2.353	0.520
734.500	437.867	80.005	20.010	100.324	20.029	0.988	0.487
735.000	438.076	80.004	20.009	100.328	20.027	1.495	0.428
735.500	438.267	80.003	20.009	100.336	20.025	2.230	0.399
736.000	438.608	80.003	20.009	100.350	20.028	1.203	0.466
736.500	438.749	80.002	20.008	100.359	20.027	1.372	0.507
737.000	439.122	80.004	20.010	100.360	20.027	1.639	0.497
737.500	439.396	80.002	20.009	100.356	20.028	1.339	0.580
738.000	439.592	80.005	20.009	100.348	20.025	2.269	0.559
738.500	439.851	80.004	20.008	100.349	20.029	1.008	0.463
739.000	440.181	80.005	20.008	100.362	20.028	1.203	0.522
739.500	440.439	80.003	20.008	100.378	20.031	0.286	0.588
740.000	440.525	80.005	20.009	100.380	20.026	1.729	0.466
740.500	440.951	80.004	20.009	100.378	20.034	-0.611	0.428
741.000	440.976	80.004	20.009	100.363	20.033	-0.215	0.481
741.500	441.488	80.004	20.009	100.345	20.030	0.624	0.494
742.000	441.693	80.003	20.008	100.330	20.029	0.969	0.628
742.500	441.793	80.005	20.009	100.327	20.031	0.143	0.511
743.000	441.903	80.003	20.008	100.329	20.032	0.059	0.258
743.500	442.228	80.004	20.008	100.330	20.034	-0.702	0.322
744.000	442.598	80.004	20.009	100.327	20.033	-0.273	0.565
744.500	442.798	80.003	20.008	100.318	20.024	2.386	0.633
745.000	443.047	80.004	20.008	100.315	20.033	-0.364	0.510
745.500	443.389	80.005	20.009	100.315	20.028	1.157	0.520
746.000	443.677	80.004	20.009	100.320	20.032	-0.085	0.610
746.501	443.818	80.004	20.009	100.320	20.032	-0.065	0.530
747.000	444.006	80.004	20.009	100.320	20.025	2.249	0.379
747.500	444.392	80.004	20.009	100.316	20.028	1.105	0.451
748.000	444.628	80.005	20.009	100.315	20.024	2.366	0.598
748.500	444.923	80.004	20.009	100.316	20.024	2.418	0.577
749.001	445.023	80.003	20.009	100.324	20.029	0.754	0.463
749.500	445.389	80.004	20.009	100.334	20.029	0.988	0.431
750.000	445.527	80.004	20.009	100.335	20.023	2.757	0.485
750.500	445.865	80.004	20.009	100.330	20.029	0.910	0.490
751.000	446.040	80.004	20.009	100.328	20.027	1.547	0.494
751.500	446.354	80.004	20.009	100.327	20.026	1.827	0.501
752.000	446.540	80.003	20.009	100.326	20.024	2.503	0.494
752.500	446.785	80.003	20.009	100.325	20.031	0.189	0.466
753.000	447.131	80.007	20.010	100.324	20.026	1.716	0.511
753.500	447.296	80.002	20.009	100.318	20.025	2.022	0.551
754.000	447.337	80.004	20.009	100.317	20.028	1.073	0.359
754.500	447.820	80.005	20.009	100.318	20.022	3.140	0.364
755.000	447.988	80.003	20.008	100.325	20.027	1.586	0.587
755.500	448.301	80.004	20.008	100.328	20.029	0.793	0.566
756.000	448.619	80.004	20.010	100.327	20.030	0.579	0.556
756.500	448.856	80.004	20.009	100.322	20.029	1.047	0.593
757.000	449.149	80.004	20.009	100.320	20.026	1.762	0.542
757.500	449.296	80.004	20.009	100.319	20.030	0.689	0.485
758.000	449.525	80.004	20.009	100.319	20.030	0.741	0.409
758.500	449.805	80.004	20.009	100.321	20.030	0.455	0.443
759.000	450.079	80.005	20.009	100.319	20.028	1.326	0.532
759.500	450.383	80.005	20.009	100.307	20.033	-0.182	0.565
760.000	450.625	80.005	20.009	100.299	20.021	3.484	0.562
760.500	450.700	80.004	20.010	100.302	20.026	1.670	0.432
761.000	451.274	80.006	20.009	100.312	20.026	1.774	0.483
761.500	451.165	80.003	20.009	100.320	20.026	1.794	0.557
762.000	451.437	80.003	20.008	100.329	20.025	2.061	0.314
762.500	451.742	80.003	20.008	100.329	20.029	1.047	0.370
763.000	451.808	80.003	20.009	100.329	20.029	0.819	0.474
763.500	452.253	80.004	20.009	100.328	20.025	2.113	0.441
764.000	452.487	80.004	20.009	100.328	20.030	0.741	0.594
764.500	452.822	80.006	20.009	100.331	20.026	1.775	0.624
765.000	453.134	80.005	20.009	100.333	20.024	2.412	0.609
765.500	453.173	80.004	20.009	100.327	20.028	1.079	0.499
766.000	453.491	80.003	20.009	100.316	20.023	2.757	0.353
766.500	453.773	80.005	20.009	100.316	20.025	2.146	0.478
767.000	454.002	80.005	20.009	100.314	20.029	1.040	0.556
767.500	454.153	80.005	20.009	100.314	20.023	2.756	0.446
768.000	454.277	80.004	20.009	100.316	20.027	1.528	0.328
768.500	454.677	80.004	20.009	100.317	20.019	3.842	0.400
769.000	454.871	80.004	20.009	100.308	20.023	2.724	0.559
769.500	455.209	80.005	20.010	100.307	20.030	0.715	0.563
770.000	455.375	80.004	20.008	100.314	20.023	2.659	0.518
770.500	455.576	80.005	20.009	100.320	20.024	2.386	0.435
771.000	455.846	80.003	20.009	100.326	20.030	0.481	0.419
771.500	456.141	80.004	20.010	100.326	20.025	2.269	0.518
772.000	456.466	80.006	20.010	100.321	20.023	2.698	0.593
772.500	456.716	80.003	20.009	100.313	20.017	4.708	0.598
773.000	456.768	80.005	20.010	100.305	20.028	1.105	0.438
773.500	457.113	80.003	20.009	100.299	20.032	0.039	0.350
774.000	457.332	80.004	20.009	100.301	20.029	1.008	0.481
774.500	457.528	80.002	20.009	100.305	20.030	0.663	0.490
775.000	457.836	80.005	20.010	100.313	20.026	1.912	0.459
775.500	458.188	80.004	20.009	100.323	20.025	2.159	0.581
776.000	458.217	80.005	20.010	100.330	20.026	1.795	0.521
776.500	458.609	80.004	20.010	100.336	20.027	1.437	0.401
777.000	458.794	80.004	20.009	100.341	20.031	0.286	0.499
777.500	459.006	80.003	20.009	100.341	20.028	1.073	0.487
778.000	459.223	80.004	20.009	100.335	20.026	1.963	0.413
778.500	459.572	80.003	20.009	100.330	20.028	1.177	0.498
779.000	459.877	80.006	20.009	100.328	20.030	0.728	0.610
779.500	459.953	80.002	20.009	100.326	20.027	1.378	0.518
780.000	460.112	80.003	20.009	100.323	20.022	2.913	0.308
780.500	460.437	80.004	20.010	100.316	20.027	1.437	0.359
781.000	460.647	80.003	20.010	100.311	20.018	4.232	0.510
781.500	460.852	80.003	20.009	100.304	20.023	2.893	0.475
782.000	461.143	80.003	20.009	100.304	20.031	0.325	0.455
782.500	461.432	80.005	20.009	100.309	20.026	1.808	0.538
783.000	461.661	80.002	20.009	100.321	20.024	2.341	0.549
783.500	461.877	80.004	20.010	100.325	20.030	0.650	0.481
784.000	462.228	80.004	20.009	100.330	20.028	1.066	0.506
784.500	462.298	80.005	20.009	100.330	20.028	1.346	0.494
785.001	462.508	80.003	20.009	100.335	20.027	1.574	0.350
785.500	462.873	80.004	20.009	100.337	20.029	0.761	0.428
786.000	463.190	80.005	20.010	100.343	20.033	-0.410	0.629
786.500	463.491	80.006	20.010	100.344	20.033	-0.241	0.650
787.000	463.582	80.004	20.009	100.346	20.030	0.735	0.505
787.500	463.732	80.002	20.009	100.339	20.023	2.679	0.316
788.000	464.055	80.005	20.009	100.339	20.025	2.263	0.357
788.500	464.177	80.004	20.009	100.341	20.030	0.644	0.459
789.000	464.577	80.003	20.009	100.339	20.024	2.451	0.484
789.500	464.770	80.003	20.008	100.331	20.035	-0.975	0.557
790.000	465.147	80.006	20.009	100.328	20.033	-0.280	0.581
790.500	465.292	80.004	20.009	100.327	20.029	0.962	0.546
791.000	465.467	80.004	20.009	100.325	20.037	-1.534	0.421
791.500	465.754	80.004	20.009	100.326	20.028	1.352	0.391
792.000	466.082	80.004	20.009	100.327	20.030	0.702	0.539
792.500	466.093	80.004	20.009	100.323	20.024	2.366	0.477
793.000	466.583	80.005	20.009	100.320	20.031	0.280	0.420
793.500	466.702	80.003	20.009	100.320	20.029	1.047	0.555
794.000	466.864	80.005	20.009	100.321	20.026	1.801	0.445
794.500	467.091	80.003	20.009	100.329	20.028	1.339	0.335
795.000	467.461	80.005	20.009	100.336	20.027	1.593	0.493
795.500	467.783	80.004	20.010	100.338	20.033	-0.176	0.644
796.000	467.771	80.003	20.009	100.340	20.029	0.858	0.501
796.500	468.255	80.005	20.009	100.343	20.030	0.709	0.391
797.000	468.282	80.005	20.009	100.344	20.028	1.339	0.491
797.500	468.558	80.005	20.009	100.346	20.031	0.143	0.407
798.000	469.016	80.005	20.009	100.344	20.029	0.826	0.518
798.500	469.087	80.003	20.009	100.337	20.031	0.423	0.631
799.000	469.332	80.005	20.009	100.334	20.030	0.683	0.423
799.500	469.598	80.003	20.008	100.333	20.032	-0.020	0.413
800.000	469.837	80.004	20.008	100.331	20.028	1.073	0.508
800.500	470.034	80.005	20.009	100.332	20.026	1.827	0.471
801.000	470.397	80.004	20.009	100.331	20.029	1.008	0.498
801.500	470.576	80.004	20.009	100.323	20.029	0.793	0.551
802.000	471.039	80.003	20.009	100.315	20.027	1.664	0.592
802.500	471.217	80.005	20.009	100.308	20.025	2.074	0.642
803.000	471.410	80.005	20.009	100.306	20.024	2.314	0.506
803.500	471.470	80.005	20.009	100.309	20.032	0.111	0.312
804.000	471.773	80.004	20.009	100.310	20.025	2.126	0.308
804.500	472.034	80.004	20.008	100.311	20.032	0.065	0.463
805.000	472.162	80.004	20.009	100.310	20.024	2.451	0.476
805.500	472.683	80.005	20.009	100.310	20.026	1.749	0.519
806.000	472.984	80.004	20.009	100.313	20.023	2.614	0.736
806.500	473.053	80.003	20.009	100.312	20.024	2.347	0.596
807.000	473.456	80.005	20.009	100.309	20.025	1.983	0.421
807.500	473.456	80.004	20.009	100.308	20.031	0.364	0.437
808.000	473.675	80.005	20.009	100.308	20.028	1.157	0.311
808.500	473.942	80.006	20.009	100.310	20.029	1.034	0.352
809.000	474.072	80.004	20.008	100.320	20.025	2.106	0.441
809.500	474.349	80.004	20.008	100.329	20.033	-0.345	0.402
810.000	474.661	80.004	20.009	100.337	20.026	1.684	0.498
810.500	474.876	80.005	20.009	100.334	20.028	1.261	0.557
811.000	475.204	80.003	20.009	100.326	20.031	0.345	0.535
811.500	475.566	80.005	20.009	100.318	20.032	-0.013	0.617
812.000	475.860	80.007	20.009	100.310	20.034	-0.715	0.673
812.500	475.922	80.004	20.009	100.307	20.030	0.520	0.506
813.000	476.033	80.005	20.009	100.305	20.030	0.449	0.264
813.500	476.626	80.005	20.009	100.306	20.032	-0.065	0.438
814.000	476.583	80.004	20.008	100.303	20.025	2.217	0.627
814.500	477.037	80.006	20.009	100.303	20.032	-0.137	0.480
815.000	477.226	80.006	20.009	100.310	20.029	0.754	0.527
815.500	477.563	80.006	20.009	100.315	20.024	2.503	0.585
816.000	477.717	80.004	20.009	100.314	20.031	0.208	0.509
816.500	477.734	80.004	20.009	100.314	20.033	-0.234	0.331
817.000	478.070	80.003	20.008	100.319	20.027	1.502	0.262
817.500	478.458	80.006	20.009	100.318	20.029	1.047	0.538
818.000	478.609	80.006	20.010	100.321	20.030	0.520	0.632
818.500	478.920	80.005	20.009	100.324	20.028	1.164	0.500
819.000	479.158	80.007	20.010	100.325	20.036	-1.274	0.506
819.501	479.478	80.004	20.009	100.323	20.028	1.112	0.554
820.000	479.453	80.006	20.009	100.314	20.030	0.644	0.426
820.500	479.833	80.003	20.009	100.312	20.034	-0.767	0.325
821.000	479.950	80.004	20.009	100.313	20.033	-0.332	0.426
821.500	480.158	80.003	20.009	100.314	20.031	0.247	0.411
822.000	480.402	80.003	20.009	100.314	20.035	-0.865	0.389
822.500	480.677	80.005	20.010	100.316	20.028	1.235	0.485
823.000	480.984	80.004	20.009	100.314	20.029	0.832	0.551
823.500	481.321	80.004	20.008	100.318	20.034	-0.774	0.613
824.000	481.468	80.005	20.009	100.324	20.030	0.689	0.564
824.500	481.716	80.004	20.009	100.331	20.031	0.306	0.439
825.000	482.047	80.005	20.010	100.338	20.028	1.177	0.487
825.500	482.450	80.005	20.009	100.340	20.029	1.040	0.657
826.000	482.556	80.006	20.010	100.337	20.033	-0.176	0.622
826.500	482.699	80.003	20.009	100.339	20.031	0.325	0.379
827.000	483.155	80.006	20.009	100.339	20.031	0.338	0.424
827.500	483.466	80.004	20.009	100.338	20.027	1.580	0.683
828.000	483.707	80.006	20.010	100.337	20.026	1.710	0.660
828.500	483.701	80.003	20.009	100.333	20.034	-0.683	0.393
829.000	484.099	80.004	20.009	100.327	20.032	-0.098	0.313
829.500	484.336	80.004	20.008	100.327	20.035	-0.936	0.514
830.000	484.549	80.006	20.009	100.327	20.024	2.379	0.543
830.500	484.820	80.005	20.009	100.330	20.031	0.215	0.467
831.000	484.973	80.004	20.009	100.332	20.027	1.619	0.454
831.500	485.284	80.005	20.010	100.333	20.028	1.352	0.443
832.000	485.642	80.006	20.009	100.335	20.035	-0.800	0.566
832.500	485.813	80.002	20.008	100.339	20.030	0.475	0.599
833.000	485.958	80.004	20.009	100.339	20.031	0.390	0.422
833.500	486.340	80.005	20.009	100.345	20.031	0.312	0.422
834.000	486.648	80.006	20.009	100.348	20.038	-1.820	0.609
834.500	486.727	80.004	20.009	100.345	20.033	-0.442	0.538
835.000	487.126	80.003	20.008	100.340	20.030	0.468	0.433
835.500	487.282	80.004	20.009	100.338	20.032	0.033	0.517
836.000	487.596	80.004	20.009	100.337	20.026	1.840	0.512
836.500	487.941	80.005	20.009	100.333	20.034	-0.715	0.564
837.000	488.062	80.003	20.008	100.324	20.030	0.624	0.562
837.500	488.304	80.004	20.009	100.315	20.033	-0.377	0.415
838.000	488.692	80.005	20.009	100.308	20.027	1.599	0.497
838.500	488.685	80.003	20.009	100.308	20.028	1.235	0.505
839.000	488.993	80.003	20.009	100.313	20.025	2.152	0.341
839.500	489.237	80.002	20.008	100.322	20.029	0.819	0.427
840.000	489.521	80.004	20.008	100.322	20.033	-0.468	0.540
840.500	489.807	80.004	20.009	100.322	20.028	1.190	0.549
841.000	490.117	80.007	20.009	100.315	20.028	1.170	0.583
841.501	490.257	80.004	20.008	100.312	20.026	1.898	0.523
842.000	490.655	80.004	20.009	100.312	20.023	2.802	0.494
842.500	491.024	80.004	20.009	100.315	20.034	-0.501	0.652
843.000	491.034	80.004	20.008	100.315	20.034	-0.689	0.572
843.500	491.289	80.005	20.009	100.314	20.033	-0.364	0.322
844.000	491.445	80.004	20.008	100.311	20.032	0.065	0.338
844.500	491.782	80.003	20.008	100.308	20.037	-1.619	0.452
845.000	492.056	80.002	20.008	100.313	20.029	0.754	0.552
845.500	492.448	80.004	20.009	100.318	20.034	-0.689	0.638
846.000	492.528	80.005	20.009	100.320	20.029	0.897	0.569
846.500	492.934	80.004	20.009	100.319	20.037	-1.495	0.479
847.000	493.056	80.004	20.009	100.315	20.027	1.664	0.507
847.500	493.387	80.006	20.009	100.312	20.038	-1.794	0.490
848.000	493.722	80.004	20.009	100.311	20.034	-0.748	0.559
848.500	493.830	80.004	20.008	100.317	20.030	0.683	0.555
849.000	494.166	80.005	20.009	100.320	20.031	0.221	0.444
849.500	494.370	80.005	20.009	100.321	20.033	-0.462	0.492
850.000	494.614	80.003	20.008	100.319	20.034	-0.553	0.494
850.501	494.866	80.003	20.008	100.315	20.035	-0.832	0.472
851.001	495.102	80.006	20.009	100.316	20.041	-2.672	0.491
851.500	495.406	80.004	20.008	100.320	20.037	-1.534	0.514
852.000	495.553	80.005	20.010	100.326	20.035	-0.832	0.496
852.500	496.008	80.006	20.009	100.329	20.031	0.260	0.527
853.000	496.057	80.002	20.008	100.328	20.037	-1.703	0.553
853.500	496.342	80.006	20.009	100.320	20.036	-1.137	0.419
854.000	496.729	80.004	20.009	100.315	20.035	-0.962	0.503
854.500	496.765	80.004	20.008	100.316	20.032	0.110	0.547
855.000	497.021	80.005	20.009	100.315	20.029	0.858	0.357
855.500	497.310	80.004	20.008	100.316	20.029	0.904	0.418
856.000	497.620	80.004	20.008	100.317	20.034	-0.494	0.572
856.500	497.850	80.006	20.009	100.315	20.029	0.780	0.569
857.000	498.117	80.005	20.009	100.314	20.031	0.137	0.519
857.500	498.393	80.006	20.009	100.320	20.028	1.151	0.520
858.000	498.475	80.003	20.009	100.328	20.030	0.514	0.451
858.500	499.046	80.006	20.009	100.332	20.027	1.437	0.505
859.000	499.126	80.003	20.008	100.331	20.029	0.839	0.652
859.500	499.513	80.005	20.009	100.325	20.036	-1.144	0.560
860.000	499.609	80.004	20.008	100.320	20.032	0.039	0.476
860.500	500.111	80.004	20.008	100.318	20.039	-2.146	0.540
861.000	500.157	80.005	20.009	100.316	20.030	0.618	0.573
861.500	500.494	80.004	20.009	100.318	20.030	0.702	0.465
862.000	500.709	80.006	20.009	100.316	20.031	0.351	0.467
862.500	500.987	80.004	20.008	100.314	20.031	0.351	0.523
863.000	501.078	80.005	20.009	100.312	20.028	1.274	0.431
863.500	501.427	80.003	20.007	100.313	20.031	0.143	0.404
864.000	501.703	80.005	20.008	100.311	20.026	1.710	0.533
864.500	501.918	80.005	20.009	100.308	20.027	1.567	0.558
865.000	502.189	80.004	20.009	100.302	20.028	1.183	0.488
865.500	502.395	80.004	20.008	100.291	20.030	0.696	0.482
866.000	502.753	80.006	20.009	100.286	20.030	0.618	0.521
866.500	502.937	80.003	20.008	100.286	20.027	1.398	0.553
867.000	503.191	80.003	20.008	100.289	20.035	-0.969	0.490
867.500	503.441	80.006	20.008	100.292	20.030	0.592	0.471
868.000	503.732	80.005	20.009	100.297	20.029	1.040	0.522
868.500	503.858	80.004	20.009	100.303	20.037	-1.547	0.479
869.000	504.140	80.003	20.008	100.312	20.034	-0.696	0.412
869.500	504.341	80.004	20.008	100.319	20.036	-1.249	0.446
870.000	504.561	80.004	20.008	100.327	20.038	-1.821	0.453
870.500	504.830	80.003	20.009	100.331	20.033	-0.176	0.455
871.000	505.188	80.005	20.009	100.330	20.033	-0.423	0.557
871.500	505.458	80.005	20.009	100.328	20.030	0.663	0.628
872.000	505.712	80.004	20.008	100.329	20.030	0.728	0.576
872.500	506.004	80.006	20.009	100.330	20.036	-1.300	0.535
873.000	506.163	80.003	20.009	100.337	20.035	-0.982	0.498
873.500	506.458	80.006	20.009	100.335	20.033	-0.423	0.452
874.000	506.581	80.005	20.009	100.332	20.032	-0.169	0.436
874.500	506.960	80.006	20.010	100.332	20.030	0.520	0.460
875.000	507.132	80.004	20.009	100.333	20.036	-1.339	0.526
875.500	507.346	80.004	20.008	100.333	20.033	-0.338	0.468
876.000	507.578	80.004	20.009	100.336	20.039	-2.120	0.416
876.500	508.033	80.004	20.009	100.334	20.034	-0.572	0.566
877.000	508.153	80.006	20.009	100.326	20.030	0.709	0.631
877.500	508.414	80.004	20.009	100.326	20.036	-1.209	0.478
878.000	508.728	80.006	20.009	100.326	20.026	1.710	0.478
878.500	508.966	80.006	20.009	100.331	20.038	-1.716	0.564
879.001	509.203	80.004	20.009	100.337	20.034	-0.637	0.513
879.501	509.250	80.005	20.008	100.338	20.033	-0.462	0.379
880.000	509.441	80.003	20.009	100.331	20.040	-2.561	0.261
880.500	509.812	80.004	20.009	100.328	20.039	-2.223	0.400
881.000	510.021	80.004	20.008	100.327	20.033	-0.318	0.571
881.501	510.288	80.005	20.009	100.328	20.036	-1.274	0.528
882.000	510.516	80.004	20.008	100.335	20.029	0.897	0.486
882.500	510.758	80.004	20.009	100.343	20.037	-1.495	0.482
883.000	511.184	80.005	20.009	100.342	20.033	-0.201	0.569
883.500	511.301	80.002	20.008	100.333	20.033	-0.195	0.606
884.000	511.607	80.005	20.009	100.332	20.035	-0.994	0.483
884.500	511.946	80.007	20.009	100.333	20.038	-1.957	0.534
885.000	512.191	80.005	20.009	100.333	20.032	0.065	0.614
885.500	512.429	80.005	20.009	100.335	20.028	1.170	0.533
886.000	512.700	80.006	20.009	100.335	20.037	-1.612	0.496
886.500	512.766	80.004	20.009	100.327	20.031	0.182	0.423
887.000	513.061	80.005	20.009	100.323	20.034	-0.709	0.349
887.500	513.315	80.004	20.009	100.324	20.034	-0.566	0.455
888.000	513.481	80.005	20.009	100.326	20.036	-1.105	0.485
888.500	513.811	80.006	20.009	100.333	20.041	-2.789	0.458
889.000	514.137	80.006	20.009	100.334	20.036	-1.112	0.576
889.500	514.311	80.004	20.009	100.327	20.028	1.346	0.578
890.000	514.563	80.006	20.009	100.320	20.029	0.761	0.463
890.500	514.689	80.005	20.009	100.317	20.031	0.293	0.402
891.000	515.187	80.006	20.009	100.317	20.031	0.293	0.502
891.500	515.363	80.004	20.009	100.319	20.034	-0.618	0.649
892.000	515.586	80.004	20.009	100.319	20.028	1.170	0.536
892.500	515.897	80.005	20.010	100.314	20.034	-0.767	0.467
893.000	516.066	80.004	20.010	100.309	20.035	-0.800	0.507
893.500	516.421	80.006	20.009	100.302	20.038	-1.892	0.502
894.000	516.414	80.006	20.009	100.300	20.035	-1.079	0.436
894.500	516.902	80.005	20.009	100.303	20.031	0.312	0.415
895.000	517.221	80.006	20.009	100.306	20.033	-0.267	0.644
895.500	517.317	80.003	20.010	100.303	20.036	-1.372	0.611
896.000	517.793	80.006	20.010	100.296	20.025	2.035	0.493
896.500	517.931	80.005	20.010	100.294	20.026	1.898	0.593
897.000	518.029	80.004	20.009	100.297	20.029	0.975	0.425
897.500	518.196	80.003	20.009	100.306	20.033	-0.351	0.250
898.000	518.518	80.006	20.010	100.318	20.033	-0.299	0.377
898.500	518.846	80.004	20.009	100.328	20.034	-0.481	0.570
899.000	518.966	80.004	20.009	100.328	20.040	-2.353	0.549
899.500	519.289	80.004	20.010	100.322	20.036	-1.352	0.445
900.000	519.560	80.004	20.009	100.315	20.036	-1.294	0.519
900.500	519.967	80.005	20.009	100.312	20.041	-2.906	0.636
901.000	520.069	80.005	20.009	100.315	20.035	-0.826	0.594
901.500	520.142	80.004	20.009	100.324	20.031	0.176	0.342
902.000	520.660	80.005	20.009	100.329	20.035	-0.891	0.383
902.500	520.738	80.005	20.010	100.328	20.030	0.579	0.593
903.000	521.125	80.004	20.009	100.329	20.032	0.026	0.530
903.500	521.192	80.003	20.009	100.330	20.034	-0.514	0.459
904.000	521.699	80.005	20.009	100.328	20.031	0.273	0.514
904.500	521.954	80.005	20.009	100.330	20.031	0.429	0.669
905.000	521.955	80.004	20.009	100.331	20.033	-0.221	0.509
905.500	522.179	80.004	20.010	100.323	20.032	-0.020	0.240
906.000	522.390	80.004	20.009	100.316	20.030	0.598	0.330
906.500	522.763	80.004	20.010	100.310	20.035	-0.852	0.509
907.000	523.064	80.006	20.010	100.310	20.028	1.118	0.629
907.500	523.358	80.004	20.009	100.317	20.027	1.599	0.635
908.000	523.506	80.006	20.010	100.319	20.037	-1.574	0.518
908.500	523.708	80.002	20.009	100.318	20.029	1.040	0.396
909.000	523.980	80.005	20.010	100.316	20.029	1.053	0.412
909.500	524.253	80.003	20.009	100.309	20.030	0.481	0.510
910.000	524.502	80.004	20.009	100.304	20.024	2.575	0.534
910.500	524.672	80.004	20.010	100.308	20.027	1.450	0.470
911.000	524.948	80.004	20.009	100.311	20.029	0.787	0.433
911.500	525.232	80.004	20.009	100.315	20.034	-0.598	0.504
912.000	525.482	80.006	20.010	100.313	20.032	-0.137	0.547
912.500	525.653	80.004	20.010	100.312	20.033	-0.351	0.477
913.000	525.821	80.003	20.009	100.312	20.032	0.111	0.380
913.500	526.159	80.006	20.009	100.316	20.031	0.384	0.422
914.000	526.346	80.004	20.009	100.321	20.029	1.047	0.516
914.500	526.642	80.004	20.009	100.332	20.030	0.715	0.504
915.000	526.969	80.004	20.009	100.336	20.030	0.559	0.553
915.500	527.286	80.004	20.010	100.331	20.030	0.540	0.633
916.000	527.422	80.005	20.010	100.326	20.031	0.436	0.548
916.500	527.839	80.005	20.009	100.327	20.030	0.689	0.503
917.000	528.002	80.005	20.010	100.325	20.031	0.371	0.566
917.500	528.019	80.004	20.009	100.329	20.027	1.378	0.380
918.000	528.396	80.006	20.009	100.337	20.030	0.618	0.287
918.500	528.491	80.004	20.009	100.333	20.028	1.060	0.433
919.000	528.809	80.005	20.010	100.325	20.029	1.027	0.443
919.500	529.069	80.003	20.009	100.323	20.029	0.806	0.496
920.000	529.262	80.004	20.009	100.322	20.027	1.372	0.516
920.500	529.514	80.005	20.009	100.324	20.032	0.091	0.449
921.000	529.809	80.004	20.009	100.334	20.029	0.806	0.496
921.500	529.988	80.005	20.009	100.337	20.028	1.125	0.511
922.000	530.212	80.004	20.009	100.333	20.029	0.936	0.439
922.500	530.561	80.004	20.009	100.329	20.031	0.215	0.488
923.000	530.601	80.003	20.009	100.325	20.030	0.487	0.481
923.500	530.870	80.005	20.010	100.321	20.032	0.111	0.349
924.000	531.217	80.003	20.009	100.319	20.035	-0.975	0.463
924.500	531.366	80.003	20.009	100.317	20.034	-0.689	0.556
925.000	531.605	80.004	20.010	100.314	20.027	1.606	0.442
925.500	531.991	80.005	20.010	100.309	20.030	0.670	0.506
926.000	532.121	80.005	20.010	100.305	20.032	-0.104	0.570
926.500	532.346	80.003	20.009	100.310	20.033	-0.202	0.435
927.000	532.736	80.005	20.009	100.320	20.031	0.416	0.485
927.500	532.911	80.003	20.009	100.329	20.036	-1.157	0.590
928.001	533.091	80.002	20.009	100.331	20.034	-0.572	0.460
928.501	533.403	80.004	20.010	100.329	20.030	0.462	0.423
929.000	533.762	80.005	20.010	100.323	20.029	0.852	0.582
929.500	533.914	80.002	20.009	100.320	20.027	1.482	0.591
930.000	534.157	80.005	20.009	100.319	20.031	0.260	0.453
930.500	534.483	80.004	20.009	100.323	20.028	1.222	0.482
931.000	534.626	80.004	20.009	100.326	20.026	1.873	0.519
931.500	534.866	80.002	20.009	100.324	20.029	1.027	0.426
932.001	535.122	80.006	20.009	100.319	20.031	0.247	0.439
932.500	535.364	80.003	20.010	100.311	20.030	0.624	0.497
933.000	535.608	80.005	20.009	100.305	20.030	0.644	0.492
933.500	535.869	80.003	20.009	100.304	20.032	0.085	0.496
934.000	536.080	80.004	20.009	100.306	20.027	1.619	0.489
934.500	536.330	80.004	20.009	100.304	20.031	0.169	0.467
935.000	536.528	80.005	20.009	100.303	20.030	0.605	0.455
935.500	536.930	80.005	20.009	100.303	20.023	2.692	0.524
936.000	537.130	80.006	20.010	100.302	20.038	-1.723	0.601
936.500	537.391	80.003	20.009	100.308	20.030	0.644	0.531
937.000	537.507	80.004	20.009	100.318	20.028	1.346	0.419
937.500	537.742	80.005	20.010	100.325	20.027	1.612	0.364
938.000	537.998	80.004	20.009	100.331	20.025	2.126	0.421
938.500	538.285	80.003	20.009	100.331	20.026	1.898	0.517
939.000	538.555	80.005	20.009	100.331	20.025	2.035	0.550
939.501	538.938	80.005	20.010	100.332	20.029	0.871	0.605
940.000	538.990	80.002	20.008	100.333	20.028	1.079	0.544
940.500	539.363	80.005	20.009	100.329	20.031	0.332	0.430
941.000	539.416	80.004	20.009	100.327	20.034	-0.579	0.425
941.500	539.716	80.004	20.010	100.320	20.031	0.150	0.390
942.000	540.066	80.005	20.009	100.318	20.035	-0.956	0.502
942.500	540.260	80.005	20.009	100.317	20.031	0.416	0.597
943.000	540.431	80.002	20.009	100.324	20.032	-0.078	0.455
943.500	540.761	80.004	20.009	100.333	20.028	1.092	0.433
944.000	540.933	80.003	20.009	100.335	20.031	0.429	0.501
944.500	541.223	80.005	20.010	100.329	20.032	-0.059	0.482
945.000	541.481	80.005	20.010	100.323	20.036	-1.398	0.505
945.500	541.705	80.006	20.010	100.320	20.035	-0.910	0.515
946.000	541.977	80.004	20.009	100.320	20.033	-0.253	0.489
946.500	542.230	80.005	20.010	100.324	20.028	1.346	0.511
947.000	542.294	80.003	20.009	100.332	20.029	1.001	0.421
947.500	542.610	80.004	20.010	100.335	20.030	0.728	0.348
948.000	542.967	80.005	20.010	100.328	20.032	0.085	0.526
948.500	543.162	80.005	20.010	100.323	20.035	-1.027	0.612
949.000	543.271	80.003	20.009	100.322	20.029	0.962	0.428
949.501	543.531	80.004	20.009	100.321	20.034	-0.611	0.337
950.000	543.816	80.006	20.010	100.323	20.028	1.229	0.457
950.500	544.175	80.004	20.010	100.331	20.031	0.397	0.595
951.000	544.371	80.004	20.009	100.329	20.034	-0.624	0.600
951.500	544.459	80.004	20.009	100.321	20.033	-0.351	0.420
952.000	544.957	80.004	20.009	100.321	20.031	0.306	0.435
952.500	545.116	80.004	20.009	100.320	20.028	1.151	0.621
953.000	545.392	80.005	20.009	100.321	20.033	-0.182	0.546
953.500	545.582	80.004	20.009	100.322	20.032	0.020	0.451
954.000	545.789	80.004	20.010	100.323	20.032	-0.091	0.432
954.500	546.090	80.005	20.009	100.316	20.034	-0.663	0.453
955.000	546.213	80.004	20.009	100.312	20.030	0.507	0.466
955.500	546.511	80.004	20.009	100.312	20.027	1.365	0.422
956.000	546.936	80.006	20.009	100.316	20.029	1.001	0.572
956.500	547.089	80.005	20.009	100.324	20.028	1.235	0.650
957.000	547.334	80.003	20.009	100.323	20.023	2.613	0.488
957.500	547.521	80.004	20.009	100.320	20.031	0.169	0.415
958.000	547.872	80.004	20.009	100.310	20.028	1.125	0.485
958.500	548.093	80.005	20.009	100.304	20.026	1.820	0.555
959.000	548.379	80.005	20.009	100.301	20.033	-0.390	0.539
959.500	548.539	80.004	20.009	100.309	20.028	1.196	0.476
960.000	548.766	80.005	20.009	100.321	20.033	-0.306	0.416
960.500	549.143	80.005	20.010	100.323	20.032	-0.085	0.495
961.000	549.385	80.004	20.009	100.323	20.030	0.533	0.612
961.500	549.782	80.005	20.010	100.317	20.031	0.384	0.629
962.000	549.762	80.004	20.009	100.316	20.033	-0.247	0.508
962.500	550.016	80.003	20.009	100.314	20.032	0.091	0.306
963.000	550.156	80.003	20.009	100.321	20.033	-0.202	0.314
963.500	550.609	80.006	20.009	100.326	20.029	1.014	0.494
964.000	550.785	80.003	20.009	100.326	20.034	-0.507	0.611
964.500	551.054	80.004	20.009	100.319	20.026	1.736	0.537
965.000	551.398	80.005	20.010	100.313	20.030	0.696	0.529
965.500	551.654	80.004	20.009	100.313	20.035	-0.819	0.607
966.000	551.755	80.005	20.009	100.315	20.028	1.105	0.478
966.500	552.080	80.005	20.009	100.321	20.030	0.663	0.391
967.000	552.345	80.005	20.009	100.323	20.028	1.164	0.508
967.500	552.696	80.006	20.010	100.321	20.024	2.354	0.603
968.000	552.763	80.004	20.009	100.312	20.030	0.540	0.517
968.500	552.866	80.005	20.009	100.306	20.029	0.865	0.294
969.000	553.220	80.005	20.009	100.304	20.027	1.476	0.314
969.500	553.547	80.004	20.009	100.311	20.027	1.586	0.569
970.000	553.841	80.006	20.010	100.320	20.033	-0.410	0.651
970.500	554.130	80.006	20.010	100.324	20.026	1.703	0.602
971.000	554.235	80.003	20.009	100.323	20.028	1.170	0.488
971.500	554.508	80.005	20.009	100.320	20.033	-0.416	0.386
972.000	554.680	80.004	20.009	100.320	20.033	-0.247	0.411
972.500	554.830	80.003	20.009	100.321	20.031	0.150	0.383
973.000	554.929	80.003	20.009	100.326	20.031	0.416	0.286
973.500	555.442	80.004	20.009	100.333	20.028	1.105	0.431
974.000	555.654	80.005	20.009	100.330	20.033	-0.325	0.668
974.500	555.802	80.004	20.010	100.323	20.030	0.481	0.542
975.000	556.312	80.005	20.009	100.317	20.032	-0.143	0.509
975.500	556.451	80.005	20.009	100.316	20.040	-2.464	0.654
976.000	556.794	80.004	20.009	100.317	20.034	-0.533	0.566
976.500	556.909	80.003	20.008	100.327	20.035	-0.839	0.470
977.000	557.187	80.006	20.009	100.332	20.036	-1.164	0.425
977.500	557.443	80.004	20.009	100.330	20.037	-1.664	0.463
978.000	557.735	80.005	20.009	100.324	20.032	0.098	0.541
978.500	557.873	80.003	20.009	100.316	20.032	-0.124	0.489
979.000	558.217	80.006	20.009	100.314	20.030	0.644	0.456
979.500	558.409	80.004	20.009	100.317	20.033	-0.377	0.509
980.000	558.704	80.006	20.009	100.324	20.024	2.587	0.511
980.500	558.828	80.004	20.009	100.329	20.029	0.923	0.453
981.000	559.085	80.004	20.009	100.329	20.035	-0.819	0.400
981.500	559.363	80.004	20.009	100.324	20.031	0.221	0.458
982.000	559.656	80.005	20.010	100.315	20.032	-0.169	0.553
982.500	559.812	80.005	20.009	100.314	20.032	-0.104	0.510
983.000	560.015	80.003	20.009	100.318	20.032	-0.124	0.404
983.500	560.202	80.005	20.009	100.323	20.033	-0.286	0.375
984.000	560.517	80.003	20.009	100.330	20.033	-0.429	0.446
984.500	560.907	80.007	20.010	100.330	20.027	1.554	0.603
985.000	561.076	80.005	20.010	100.323	20.027	1.567	0.632
985.500	561.299	80.004	20.010	100.320	20.031	0.338	0.476
986.000	561.710	80.006	20.009	100.322	20.034	-0.728	0.513
986.500	561.809	80.006	20.010	100.322	20.028	1.190	0.572
987.000	562.046	80.004	20.009	100.331	20.029	0.845	0.423
987.500	562.283	80.005	20.009	100.334	20.031	0.228	0.404
988.000	562.432	80.004	20.009	100.329	20.031	0.195	0.429
988.500	562.734	80.004	20.009	100.320	20.029	0.923	0.419
989.000	563.071	80.004	20.010	100.313	20.025	2.126	0.546
989.500	563.318	80.006	20.010	100.313	20.029	0.975	0.611
990.000	563.502	80.005	20.009	100.319	20.031	0.273	0.507
990.500	563.593	80.002	20.008	100.327	20.033	-0.267	0.353
991.000	563.918	80.004	20.009	100.333	20.028	1.066	0.345
991.500	564.315	80.005	20.009	100.332	20.033	-0.286	0.569
992.000	564.447	80.004	20.009	100.322	20.037	-1.573	0.626
992.500	564.948	80.006	20.010	100.313	20.027	1.508	0.581
993.000	565.011	80.005	20.009	100.311	20.035	-0.813	0.598
993.500	565.314	80.004	20.009	100.315	20.033	-0.280	0.465
994.000	565.347	80.003	20.009	100.320	20.038	-1.950	0.351
994.500	565.575	80.003	20.009	100.327	20.028	1.157	0.299
995.000	565.807	80.004	20.009	100.327	20.026	1.671	0.361
995.500	566.149	80.005	20.009	100.322	20.024	2.438	0.517
996.000	566.338	80.005	20.010	100.318	20.034	-0.481	0.552
996.500	566.471	80.004	20.008	100.323	20.030	0.540	0.426
997.000	566.863	80.003	20.008	100.326	20.030	0.592	0.424
997.500	567.013	80.004	20.009	100.330	20.029	1.047	0.534
998.000	567.313	80.003	20.009	100.330	20.021	3.413	0.496
998.500	567.659	80.003	20.009	100.326	20.029	0.904	0.548
999.000	567.845	80.006	20.009	100.320	20.027	1.365	0.589
999.500	568.155	80.005	20.009	100.319	20.026	1.671	0.514
1000.000	568.305	80.003	20.009	100.325	20.029	1.027	0.478
1000.500	568.456	80.004	20.009	100.332	20.025	2.210	0.381
1001.000	568.679	80.003	20.009	100.342	20.027	1.599	0.337
1001.500	569.145	80.004	20.010	100.341	20.023	2.782	0.532
1002.000	569.434	80.006	20.009	100.335	20.023	2.789	0.722
1002.500	569.481	80.004	20.009	100.324	20.027	1.613	0.546
1003.000	569.697	80.004	20.009	100.325	20.027	1.528	0.299
1003.500	569.912	80.004	20.008	100.323	20.024	2.523	0.346
1004.001	570.080	80.002	20.008	100.328	20.021	3.251	0.407
1004.500	570.465	80.005	20.009	100.333	20.023	2.718	0.468
1005.000	570.697	80.005	20.010	100.332	20.023	2.874	0.585
1005.500	570.945	80.004	20.009	100.325	20.026	1.730	0.549
1006.000	571.357	80.005	20.009	100.316	20.026	1.710	0.570
1006.500	571.445	80.005	20.009	100.314	20.023	2.815	0.580
1007.000	571.634	80.003	20.009	100.315	20.028	1.079	0.389
1007.500	572.071	80.005	20.009	100.321	20.029	0.897	0.452
1008.000	572.268	80.004	20.009	100.320	20.027	1.450	0.630
1008.500	572.398	80.006	20.009	100.319	20.026	1.931	0.480
1009.000	572.775	80.003	20.009	100.315	20.030	0.618	0.417
1009.500	572.784	80.003	20.008	100.306	20.028	1.216	0.447
1010.000	573.254	80.003	20.008	100.302	20.028	1.092	0.432
1010.500	573.523	80.005	20.010	100.306	20.025	2.048	0.609
1011.000	573.537	80.004	20.009	100.316	20.030	0.618	0.511
1011.500	573.808	80.005	20.009	100.321	20.030	0.657	0.284
1012.000	574.076	80.002	20.008	100.324	20.029	0.793	0.412
1012.500	574.295	80.004	20.008	100.320	20.030	0.631	0.513
1013.000	574.679	80.006	20.009	100.314	20.028	1.268	0.545
1013.500	574.858	80.005	20.009	100.311	20.032	0.098	0.583
1014.000	574.819	80.002	20.008	100.314	20.027	1.612	0.352
1014.500	575.278	80.004	20.009	100.320	20.031	0.436	0.280
1015.000	575.623	80.005	20.010	100.328	20.028	1.073	0.612
1015.500	575.735	80.004	20.009	100.337	20.027	1.463	0.630
1016.000	576.066	80.004	20.009	100.332	20.029	0.845	0.449
1016.500	576.185	80.004	20.009	100.328	20.026	1.860	0.447
1017.000	576.507	80.005	20.009	100.329	20.027	1.534	0.446
1017.500	576.761	80.005	20.009	100.329	20.029	0.806	0.508
1018.000	576.931	80.003	20.009	100.330	20.030	0.728	0.499
1018.500	577.173	80.003	20.009	100.336	20.026	1.892	0.418
1019.000	577.366	80.004	20.009	100.333	20.027	1.495	0.424
1019.500	577.543	80.003	20.009	100.323	20.026	1.879	0.402
1020.000	577.782	80.005	20.010	100.317	20.027	1.554	0.393
1020.500	578.130	80.005	20.009	100.316	20.025	1.989	0.502
1021.000	578.387	80.004	20.009	100.319	20.029	1.027	0.596
1021.500	578.618	80.003	20.009	100.326	20.029	1.040	0.546
1022.000	578.999	80.004	20.010	100.332	20.029	0.826	0.549
1022.500	579.198	80.005	20.010	100.330	20.029	0.761	0.596
1023.000	579.345	80.003	20.009	100.324	20.032	0.091	0.463
1023.500	579.761	80.005	20.009	100.318	20.034	-0.611	0.455
1024.000	579.988	80.005	20.010	100.317	20.030	0.689	0.603
1024.500	580.180	80.004	20.009	100.321	20.028	1.274	0.531
1025.000	580.470	80.005	20.009	100.329	20.030	0.468	0.451
1025.500	580.696	80.005	20.009	100.334	20.030	0.722	0.499
1026.000	581.004	80.006	20.010	100.332	20.029	1.053	0.525
1026.500	581.195	80.005	20.010	100.329	20.032	-0.039	0.516
1027.000	581.406	80.005	20.009	100.329	20.030	0.468	0.451
1027.500	581.610	80.003	20.009	100.328	20.028	1.157	0.409
1028.000	581.914	80.005	20.009	100.331	20.030	0.657	0.461
1028.500	582.170	80.005	20.009	100.336	20.026	1.924	0.534
1029.000	582.424	80.005	20.009	100.338	20.028	1.209	0.535
1029.500	582.608	80.006	20.009	100.330	20.031	0.351	0.474
1030.000	582.878	80.005	20.010	100.324	20.029	0.923	0.446
1030.500	583.237	80.004	20.010	100.321	20.027	1.541	0.541
1031.000	583.277	80.004	20.009	100.322	20.026	1.820	0.514
1031.500	583.596	80.004	20.009	100.324	20.028	1.209	0.379
1032.000	583.900	80.004	20.009	100.331	20.027	1.567	0.491
1032.500	584.101	80.006	20.009	100.333	20.028	1.281	0.564
1033.000	584.356	80.004	20.009	100.328	20.027	1.457	0.481
1033.500	584.640	80.004	20.009	100.321	20.028	1.333	0.498
1034.000	584.957	80.004	20.009	100.318	20.027	1.372	0.570
1034.500	585.051	80.004	20.009	100.319	20.031	0.377	0.505
1035.000	585.306	80.005	20.008	100.326	20.027	1.411	0.380
1035.501	585.618	80.004	20.009	100.333	20.027	1.541	0.459
1036.001	585.881	80.006	20.009	100.340	20.029	0.832	0.571
1036.500	586.141	80.005	20.009	100.343	20.029	0.800	0.549
1037.000	586.304	80.004	20.009	100.342	20.028	1.106	0.473
1037.500	586.631	80.004	20.009	100.338	20.030	0.650	0.456
1038.000	586.883	80.003	20.009	100.337	20.027	1.457	0.534
1038.500	587.188	80.005	20.009	100.337	20.028	1.203	0.568
1039.000	587.379	80.004	20.009	100.337	20.028	1.138	0.527
1039.500	587.734	80.005	20.009	100.334	20.026	1.756	0.522
1040.000	587.907	80.004	20.010	100.327	20.028	1.326	0.537
1040.500	588.160	80.004	20.009	100.319	20.028	1.340	0.477
1041.000	588.414	80.003	20.010	100.314	20.029	0.988	0.466
1041.500	588.632	80.005	20.009	100.314	20.030	0.670	0.490
1042.000	588.893	80.006	20.009	100.319	20.026	1.795	0.476
1042.500	589.168	80.004	20.009	100.328	20.028	1.099	0.507
1043.001	589.369	80.004	20.009	100.336	20.030	0.468	0.506
1043.501	589.612	80.004	20.009	100.336	20.026	1.775	0.460
1044.001	589.936	80.005	20.010	100.330	20.030	0.670	0.506
1044.500	590.143	80.005	20.010	100.327	20.032	0.091	0.549
1045.000	590.305	80.004	20.009	100.328	20.028	1.190	0.450
1045.500	590.625	80.005	20.009	100.330	20.030	0.735	0.426
1046.000	590.922	80.005	20.009	100.337	20.030	0.455	0.549
1046.500	591.083	80.004	20.009	100.344	20.024	2.347	0.537
1047.000	591.371	80.004	20.010	100.345	20.027	1.495	0.454
1047.500	591.592	80.004	20.010	100.339	20.028	1.209	0.479
1048.000	591.860	80.003	20.009	100.334	20.030	0.501	0.499
1048.500	592.082	80.004	20.009	100.332	20.026	1.782	0.489
1049.001	592.327	80.004	20.009	100.336	20.026	1.703	0.479
1049.501	592.658	80.005	20.009	100.345	20.028	1.359	0.522
1050.000	592.852	80.003	20.009	100.350	20.026	1.710	0.550
1050.500	593.102	80.004	20.009	100.353	20.025	2.035	0.484
1051.000	593.408	80.005	20.009	100.351	20.034	-0.761	0.500
1051.500	593.596	80.004	20.009	100.342	20.028	1.093	0.525
1052.000	593.842	80.004	20.009	100.336	20.029	0.761	0.464
1052.500	594.139	80.005	20.010	100.335	20.030	0.650	0.489
1053.000	594.362	80.005	20.009	100.339	20.029	0.858	0.532
1053.500	594.679	80.004	20.009	100.342	20.028	1.236	0.530
1054.000	594.811	80.002	20.009	100.346	20.024	2.322	0.494
1054.501	595.129	80.004	20.010	100.340	20.027	1.607	0.449
1055.001	595.365	80.004	20.009	100.332	20.026	1.698	0.501
1055.500	595.612	80.005	20.009	100.324	20.030	0.722	0.518
1056.000	595.883	80.004	20.010	100.323	20.030	0.650	0.501
1056.501	596.088	80.005	20.009	100.324	20.027	1.612	0.497
1057.001	596.417	80.004	20.009	100.332	20.027	1.417	0.505
1057.500	596.682	80.004	20.009	100.340	20.029	0.949	0.564
1058.000	596.892	80.005	20.009	100.337	20.026	1.684	0.535
1058.500	597.225	80.005	20.009	100.331	20.026	1.736	0.509
1059.000	597.463	80.004	20.009	100.322	20.029	0.832	0.557
1059.500	597.622	80.004	20.009	100.318	20.027	1.645	0.484
1060.000	597.936	80.004	20.009	100.318	20.026	1.684	0.435
1060.500	598.227	80.004	20.009	100.328	20.029	1.001	0.539
1061.000	598.359	80.003	20.009	100.334	20.026	1.730	0.514
1061.501	598.751	80.005	20.010	100.333	20.028	1.151	0.473
1062.001	599.005	80.004	20.009	100.328	20.028	1.287	0.585
1062.501	599.124	80.005	20.010	100.327	20.030	0.501	0.509
1063.000	599.458	80.003	20.009	100.329	20.027	1.632	0.413
1063.500	599.708	80.003	20.009	100.337	20.029	0.793	0.519
1064.000	600.038	80.005	20.009	100.354	20.029	0.800	0.583
1064.500	600.191	80.005	20.009	100.364	20.031	0.143	0.532
1065.000	600.494	80.005	20.009	100.365	20.029	0.982	0.469
1065.500	600.753	80.004	20.010	100.361	20.027	1.476	0.509
1066.000	600.958	80.004	20.009	100.358	20.030	0.520	0.513
1066.501	601.225	80.005	20.009	100.359	20.027	1.404	0.468
1067.001	601.563	80.004	20.009	100.363	20.029	0.774	0.539
1067.501	601.801	80.003	20.009	100.369	20.032	0.098	0.591
1068.001	602.008	80.004	20.009	100.370	20.030	0.598	0.510
1068.500	602.325	80.005	20.009	100.363	20.026	1.684	0.484
1069.000	602.592	80.003	20.009	100.346	20.029	0.962	0.554
1069.500	602.804	80.004	20.010	100.329	20.027	1.476	0.532
1070.001	603.039	80.004	20.009	100.323	20.026	1.775	0.463
1070.501	603.321	80.005	20.009	100.323	20.028	1.073	0.482
1071.000	603.535	80.005	20.009	100.325	20.028	1.157	0.507
1071.500	603.906	80.005	20.009	100.330	20.025	2.002	0.541
1072.000	604.142	80.003	20.010	100.337	20.028	1.209	0.596
1072.500	604.340	80.006	20.009	100.338	20.028	1.066	0.521
1073.000	604.640	80.004	20.010	100.333	20.029	0.917	0.466
1073.500	604.963	80.003	20.009	100.332	20.027	1.411	0.560
1074.000	605.166	80.003	20.010	100.335	20.025	2.009	0.574
1074.500	605.411	80.004	20.009	100.335	20.028	1.255	0.487
1075.000	605.779	80.004	20.010	100.336	20.028	1.261	0.530
1075.500	606.002	80.006	20.010	100.338	20.033	-0.241	0.602
1076.000	606.228	80.004	20.010	100.332	20.032	0.078	0.520
1076.500	606.504	80.005	20.010	100.331	20.033	-0.221	0.476
1077.000	606.682	80.003	20.009	100.329	20.031	0.143	0.478
1077.500	607.011	80.005	20.010	100.329	20.032	0.020	0.480
1078.000	607.240	80.003	20.009	100.337	20.033	-0.410	0.532
1078.500	607.504	80.004	20.009	100.343	20.031	0.208	0.526
1079.000	607.744	80.005	20.009	100.338	20.030	0.637	0.499
1079.500	607.970	80.004	20.010	100.332	20.034	-0.728	0.485
1080.000	608.267	80.004	20.010	100.324	20.034	-0.709	0.494
1080.501	608.514	80.004	20.009	100.317	20.035	-1.027	0.533
1081.001	608.749	80.003	20.009	100.323	20.035	-1.001	0.513
1081.500	608.966	80.004	20.009	100.336	20.032	-0.013	0.467
1082.000	609.293	80.005	20.009	100.345	20.031	0.377	0.498
1082.500	609.500	80.004	20.010	100.351	20.034	-0.631	0.539
1083.000	609.753	80.004	20.010	100.344	20.034	-0.559	0.497
1083.500	610.006	80.005	20.010	100.331	20.031	0.293	0.483
1084.000	610.252	80.005	20.009	100.317	20.031	0.273	0.502
1084.500	610.508	80.003	20.010	100.315	20.030	0.462	0.500
1085.000	610.761	80.006	20.009	100.318	20.032	0.000	0.505
1085.500	611.022	80.005	20.009	100.326	20.030	0.728	0.512
1086.000	611.304	80.003	20.009	100.334	20.032	0.065	0.529
1086.500	611.511	80.004	20.009	100.337	20.030	0.611	0.516
1087.000	611.801	80.005	20.010	100.330	20.032	-0.150	0.492
1087.501	612.010	80.005	20.010	100.321	20.028	1.066	0.498
1088.001	612.276	80.004	20.009	100.320	20.028	1.066	0.487
1088.501	612.535	80.004	20.009	100.322	20.033	-0.390	0.500
1089.000	612.816	80.004	20.009	100.333	20.033	-0.436	0.532
1089.500	613.013	80.004	20.009	100.348	20.034	-0.520	0.509
1090.000	613.322	80.005	20.009	100.354	20.033	-0.397	0.492
1090.501	613.517	80.003	20.009	100.351	20.033	-0.436	0.505
1091.001	613.777	80.005	20.009	100.342	20.032	0.020	0.479
1091.501	614.110	80.004	20.010	100.328	20.031	0.280	0.524
1092.000	614.304	80.005	20.009	100.318	20.033	-0.390	0.560
1092.500	614.576	80.003	20.009	100.320	20.032	0.078	0.497
1093.000	614.787	80.004	20.009	100.325	20.034	-0.585	0.475
1093.500	615.064	80.004	20.009	100.332	20.033	-0.416	0.485
1094.000	615.326	80.004	20.009	100.337	20.030	0.611	0.513
1094.501	615.502	80.005	20.010	100.331	20.029	1.021	0.488
1095.001	615.831	80.005	20.010	100.324	20.030	0.644	0.472
1095.500	616.114	80.003	20.010	100.320	20.033	-0.403	0.559
1096.000	616.363	80.004	20.010	100.318	20.032	-0.072	0.572
1096.500	616.626	80.005	20.010	100.323	20.034	-0.644	0.522
1097.000	616.869	80.004	20.010	100.331	20.034	-0.637	0.509
1097.500	617.094	80.005	20.009	100.338	20.037	-1.554	0.487
1098.000	617.328	80.004	20.010	100.340	20.035	-0.943	0.463
1098.500	617.560	80.004	20.010	100.340	20.035	-1.008	0.462
1099.000	617.785	80.003	20.009	100.339	20.034	-0.559	0.462
1099.500	618.039	80.006	20.009	100.339	20.034	-0.735	0.468
1100.000	618.262	80.005	20.009	100.340	20.031	0.228	0.478
1100.500	618.529	80.004	20.009	100.343	20.031	0.306	0.483
1101.000	618.793	80.005	20.009	100.348	20.032	0.007	0.510
1101.500	618.976	80.004	20.009	100.347	20.034	-0.735	0.489
1102.000	619.229	80.005	20.009	100.345	20.032	0.098	0.442
1102.501	619.415	80.004	20.009	100.336	20.032	-0.013	0.437
1103.001	619.723	80.005	20.009	100.326	20.035	-0.904	0.467
1103.501	619.967	80.003	20.010	100.324	20.032	-0.026	0.523
1104.000	620.182	80.004	20.009	100.324	20.034	-0.494	0.505
1104.500	620.443	80.005	20.009	100.327	20.035	-1.053	0.468
1105.000	620.677	80.004	20.009	100.334	20.033	-0.364	0.485
1105.500	620.966	80.005	20.010	100.337	20.031	0.169	0.509
1106.000	621.184	80.004	20.009	100.329	20.033	-0.280	0.515
1106.500	621.439	80.004	20.010	100.320	20.036	-1.307	0.490
1107.000	621.763	80.003	20.010	100.320	20.034	-0.559	0.526
1107.501	621.916	80.004	20.009	100.321	20.038	-1.925	0.528
1108.001	622.215	80.003	20.010	100.326	20.036	-1.365	0.465
1108.500	622.429	80.006	20.009	100.333	20.040	-2.601	0.483
1109.001	622.658	80.005	20.009	100.342	20.038	-1.853	0.478
1109.501	622.904	80.003	20.010	100.342	20.035	-0.982	0.459
1110.000	623.122	80.005	20.010	100.341	20.036	-1.112	0.469
1110.500	623.376	80.005	20.010	100.342	20.037	-1.515	0.468
1111.000	623.594	80.006	20.009	100.349	20.037	-1.593	0.472
1111.500	623.856	80.004	20.009	100.358	20.035	-1.040	0.476
1112.000	624.163	80.005	20.009	100.361	20.036	-1.255	0.525
1112.500	624.451	80.004	20.009	100.361	20.036	-1.216	0.582
1113.000	624.711	80.004	20.009	100.358	20.035	-0.904	0.571
1113.500	624.957	80.005	20.009	100.347	20.036	-1.190	0.527
1114.000	625.171	80.004	20.010	100.336	20.036	-1.300	0.483
1114.500	625.439	80.004	20.009	100.333	20.035	-0.930	0.471
1115.000	625.651	80.004	20.009	100.334	20.037	-1.489	0.481
1115.500	625.896	80.004	20.009	100.335	20.031	0.299	0.469
1116.000	626.153	80.006	20.010	100.335	20.030	0.494	0.480
1116.501	626.334	80.004	20.010	100.331	20.032	0.104	0.470
1117.001	626.629	80.005	20.010	100.326	20.031	0.215	0.457
1117.501	626.899	80.004	20.009	100.325	20.034	-0.657	0.520
1118.001	627.157	80.004	20.009	100.331	20.031	0.202	0.546
1118.500	627.405	80.004	20.009	100.342	20.032	0.059	0.517
1119.000	627.709	80.005	20.010	100.350	20.030	0.650	0.529
1119.500	627.916	80.005	20.009	100.354	20.034	-0.774	0.532
1120.000	628.155	80.003	20.010	100.347	20.036	-1.216	0.479
1120.500	628.420	80.005	20.010	100.334	20.034	-0.650	0.475
1121.000	628.653	80.004	20.010	100.327	20.031	0.371	0.501
1121.500	628.967	80.004	20.010	100.327	20.031	0.260	0.523
1122.000	629.204	80.005	20.009	100.329	20.032	-0.052	0.549
1122.500	629.500	80.003	20.009	100.337	20.033	-0.215	0.542
1123.000	629.694	80.004	20.010	100.344	20.032	0.052	0.511
1123.501	629.962	80.005	20.010	100.343	20.032	0.013	0.476
1124.001	630.254	80.004	20.009	100.342	20.032	0.000	0.511
1124.501	630.517	80.004	20.009	100.341	20.032	0.091	0.557
1125.000	630.707	80.004	20.009	100.343	20.034	-0.644	0.504
1125.501	630.938	80.005	20.009	100.343	20.036	-1.391	0.437
1126.001	631.187	80.004	20.009	100.344	20.034	-0.657	0.451
1126.501	631.446	80.005	20.009	100.341	20.035	-0.832	0.494
1127.001	631.710	80.003	20.009	100.332	20.035	-1.047	0.515
1127.501	631.899	80.005	20.010	100.327	20.035	-0.936	0.488
1128.001	632.068	80.005	20.009	100.326	20.034	-0.514	0.406
1128.500	632.382	80.004	20.009	100.328	20.033	-0.345	0.420
1129.000	632.621	80.004	20.009	100.330	20.035	-1.034	0.517
1129.500	632.961	80.004	20.010	100.336	20.036	-1.307	0.566
1130.000	633.212	80.004	20.010	100.332	20.032	-0.020	0.586
1130.500	633.461	80.004	20.010	100.327	20.035	-0.910	0.546
1131.000	633.683	80.006	20.009	100.324	20.035	-0.878	0.485
1131.500	633.909	80.005	20.010	100.325	20.032	-0.124	0.459
1132.000	634.156	80.003	20.010	100.328	20.034	-0.767	0.460
1132.500	634.412	80.005	20.009	100.334	20.035	-1.001	0.488
1133.000	634.608	80.004	20.010	100.336	20.033	-0.312	0.477
1133.500	634.930	80.004	20.010	100.329	20.032	0.026	0.485
1134.000	635.147	80.005	20.010	100.325	20.028	1.105	0.529
1134.500	635.409	80.003	20.010	100.323	20.032	-0.013	0.510
1135.000	635.612	80.004	20.010	100.324	20.033	-0.280	0.472
1135.500	635.933	80.005	20.010	100.331	20.034	-0.559	0.494
1136.000	636.220	80.004	20.010	100.340	20.031	0.429	0.566
1136.500	636.412	80.003	20.010	100.344	20.032	-0.059	0.543
1137.000	636.642	80.005	20.010	100.342	20.030	0.579	0.451
1137.500	636.945	80.004	20.010	100.341	20.030	0.475	0.478
1138.000	637.187	80.003	20.010	100.336	20.030	0.598	0.539
1138.500	637.458	80.004	20.010	100.336	20.035	-0.891	0.529
1139.000	637.660	80.005	20.010	100.335	20.030	0.442	0.493
1139.500	637.931	80.005	20.010	100.331	20.032	-0.091	0.473
1140.000	638.146	80.004	20.010	100.324	20.031	0.176	0.480
1140.500	638.417	80.004	20.010	100.319	20.031	0.312	0.486
1141.000	638.681	80.004	20.010	100.316	20.031	0.267	0.511
1141.500	638.989	80.005	20.010	100.316	20.031	0.371	0.554
1142.000	639.233	80.004	20.010	100.326	20.030	0.657	0.562
1142.500	639.457	80.004	20.010	100.333	20.031	0.390	0.510
1143.000	639.676	80.005	20.010	100.341	20.031	0.403	0.455
1143.500	639.919	80.004	20.010	100.340	20.030	0.709	0.453
1144.000	640.213	80.003	20.010	100.334	20.030	0.650	0.500
1144.500	640.439	80.005	20.010	100.328	20.029	0.943	0.528
1145.000	640.724	80.005	20.009	100.329	20.027	1.431	0.515
1145.500	640.982	80.004	20.010	100.327	20.031	0.377	0.527
1146.000	641.216	80.004	20.010	100.331	20.031	0.423	0.518
1146.500	641.472	80.004	20.010	100.336	20.029	0.962	0.491
1147.000	641.727	80.005	20.010	100.332	20.029	0.793	0.500
1147.500	641.971	80.004	20.010	100.325	20.028	1.353	0.505
1148.000	642.220	80.004	20.010	100.325	20.029	0.923	0.496
1148.500	642.481	80.003	20.009	100.328	20.032	0.124	0.501
1149.000	642.687	80.006	20.010	100.331	20.030	0.501	0.489
1149.501	642.877	80.003	20.010	100.338	20.032	0.085	0.432
1150.001	643.188	80.005	20.010	100.343	20.031	0.429	0.448
1150.500	643.415	80.004	20.010	100.344	20.030	0.689	0.519
1151.000	643.695	80.004	20.010	100.341	20.032	0.091	0.523
1151.500	643.935	80.004	20.010	100.340	20.031	0.202	0.514
1152.000	644.161	80.004	20.010	100.349	20.031	0.208	0.493
1152.500	644.401	80.004	20.010	100.357	20.029	0.969	0.466
1153.000	644.665	80.005	20.010	100.358	20.028	1.151	0.485
1153.500	644.876	80.004	20.010	100.358	20.028	1.216	0.489
1154.000	645.149	80.006	20.010	100.356	20.030	0.592	0.479
1154.500	645.389	80.004	20.010	100.349	20.030	0.514	0.498
1155.001	645.629	80.005	20.010	100.346	20.030	0.488	0.496
1155.501	645.883	80.004	20.010	100.348	20.032	0.130	0.487
1156.001	646.137	80.005	20.010	100.348	20.030	0.592	0.501
1156.501	646.403	80.004	20.010	100.348	20.032	-0.150	0.514
1157.000	646.611	80.005	20.010	100.346	20.032	-0.111	0.497
1157.500	646.852	80.004	20.010	100.342	20.029	0.956	0.461
1158.000	647.082	80.004	20.010	100.341	20.028	1.105	0.459
1158.500	647.436	80.004	20.009	100.346	20.031	0.286	0.527
1159.000	647.610	80.004	20.010	100.348	20.031	0.137	0.556
1159.500	647.855	80.006	20.010	100.348	20.030	0.624	0.474
1160.000	648.097	80.004	20.010	100.345	20.031	0.377	0.453
1160.500	648.366	80.005	20.010	100.340	20.031	0.241	0.499
1161.000	648.585	80.005	20.010	100.336	20.031	0.280	0.500
1161.501	648.846	80.003	20.010	100.337	20.030	0.507	0.484
1162.001	649.067	80.005	20.010	100.345	20.032	-0.078	0.480
1162.501	649.278	80.004	20.010	100.354	20.033	-0.299	0.457
1163.000	649.575	80.005	20.010	100.361	20.029	0.806	0.470
1163.500	649.761	80.004	20.010	100.361	20.031	0.215	0.496
1164.000	650.019	80.005	20.010	100.358	20.028	1.294	0.464
1164.500	650.277	80.005	20.010	100.352	20.030	0.722	0.480
1165.000	650.519	80.005	20.009	100.350	20.029	0.754	0.508
1165.500	650.789	80.004	20.010	100.356	20.029	0.819	0.506
1166.000	651.008	80.005	20.010	100.363	20.026	1.911	0.501
1166.500	651.252	80.003	20.009	100.363	20.028	1.313	0.476
1167.000	651.460	80.004	20.010	100.361	20.023	2.705	0.457
1167.500	651.775	80.005	20.009	100.356	20.029	0.917	0.487
1168.001	651.986	80.004	20.010	100.349	20.025	2.230	0.525
1168.501	652.231	80.006	20.010	100.350	20.026	1.730	0.491
1169.001	652.442	80.005	20.010	100.356	20.023	2.614	0.456
1169.500	652.714	80.003	20.010	100.359	20.025	1.977	0.470
1170.000	652.976	80.004	20.010	100.359	20.027	1.366	0.508
1170.500	653.211	80.004	20.010	100.355	20.026	1.912	0.515
1171.001	653.518	80.003	20.010	100.345	20.027	1.450	0.520
1171.501	653.793	80.005	20.010	100.340	20.025	1.989	0.562
1172.000	654.013	80.005	20.009	100.345	20.023	2.665	0.539
1172.500	654.352	80.004	20.010	100.352	20.024	2.405	0.527
1173.000	654.521	80.004	20.010	100.359	20.027	1.606	0.533
1173.500	654.724	80.005	20.010	100.361	20.026	1.678	0.440
1174.000	655.040	80.004	20.010	100.359	20.026	1.704	0.445
1174.500	655.281	80.004	20.010	100.352	20.031	0.293	0.538
1175.000	655.564	80.005	20.010	100.348	20.027	1.612	0.541
1175.500	655.750	80.004	20.010	100.351	20.028	1.235	0.496
1176.001	655.992	80.004	20.010	100.359	20.030	0.462	0.449
1176.501	656.267	80.005	20.010	100.361	20.026	1.736	0.473
1177.000	656.570	80.005	20.010	100.357	20.028	1.164	0.548
1177.500	656.814	80.004	20.010	100.348	20.026	1.743	0.562
1178.000	657.018	80.004	20.010	100.336	20.026	1.723	0.497
1178.501	657.273	80.005	20.010	100.328	20.027	1.411	0.453
1179.001	657.464	80.004	20.010	100.326	20.028	1.145	0.452
1179.500	657.792	80.005	20.010	100.329	20.025	2.172	0.483
1180.000	658.055	80.005	20.010	100.336	20.026	1.964	0.555
1180.500	658.290	80.005	20.010	100.341	20.024	2.328	0.544
1181.000	658.519	80.006	20.010	100.342	20.023	2.595	0.481
1181.500	658.818	80.003	20.010	100.342	20.024	2.556	0.496
1182.000	659.021	80.004	20.010	100.341	20.024	2.451	0.515
1182.500	659.287	80.004	20.009	100.340	20.026	1.743	0.486
1183.000	659.523	80.005	20.010	100.341	20.024	2.328	0.486
1183.500	659.808	80.004	20.009	100.338	20.024	2.413	0.511
1184.000	660.029	80.004	20.010	100.330	20.024	2.289	0.513
1184.500	660.332	80.005	20.010	100.322	20.024	2.302	0.515
1185.000	660.516	80.005	20.010	100.319	20.026	1.763	0.506
1185.500	660.850	80.004	20.010	100.320	20.027	1.476	0.502
1186.000	661.095	80.005	20.010	100.326	20.024	2.439	0.549
1186.500	661.314	80.004	20.010	100.334	20.028	1.119	0.522
1187.000	661.634	80.004	20.010	100.342	20.028	1.216	0.501
1187.500	661.845	80.004	20.010	100.339	20.025	2.062	0.535
1188.000	662.053	80.004	20.010	100.333	20.027	1.405	0.475
1188.500	662.354	80.005	20.010	100.329	20.028	1.294	0.464
1189.000	662.607	80.006	20.010	100.330	20.026	1.730	0.531
1189.500	662.875	80.005	20.010	100.337	20.025	2.042	0.538
1190.000	663.135	80.005	20.010	100.350	20.029	0.826	0.525
1190.500	663.419	80.003	20.010	100.356	20.030	0.527	0.536
1191.000	663.687	80.005	20.010	100.355	20.029	0.962	0.548
1191.500	663.890	80.005	20.010	100.353	20.028	1.079	0.512
1192.000	664.235	80.004	20.010	100.347	20.031	0.247	0.509
1192.500	664.440	80.005	20.010	100.339	20.028	1.203	0.549
1193.000	664.693	80.004	20.010	100.341	20.031	0.247	0.504
1193.500	664.945	80.004	20.010	100.346	20.030	0.566	0.481
1194.000	665.263	80.004	20.010	100.346	20.031	0.345	0.538
1194.500	665.457	80.004	20.010	100.345	20.027	1.645	0.541
1195.000	665.725	80.004	20.010	100.341	20.028	1.158	0.487
1195.501	665.966	80.004	20.010	100.339	20.029	0.793	0.485
1196.001	666.245	80.004	20.010	100.339	20.031	0.169	0.514
1196.501	666.477	80.005	20.010	100.347	20.030	0.494	0.515
1197.000	666.775	80.005	20.010	100.356	20.029	0.969	0.521
1197.500	667.019	80.004	20.010	100.363	20.028	1.203	0.536
1198.000	667.273	80.004	20.010	100.362	20.029	0.930	0.520
1198.500	667.578	80.005	20.010	100.358	20.029	0.878	0.528
1199.000	667.800	80.005	20.010	100.350	20.032	-0.156	0.543
1199.500	668.065	80.004	20.009	100.348	20.029	0.891	0.507
1200.000	668.293	80.005	20.010	100.353	20.028	1.138	0.490
1200.500	668.543	80.004	20.009	100.361	20.027	1.430	0.485
1201.000	668.810	80.004	20.009	100.366	20.029	0.969	0.497
1201.500	669.075	80.005	20.010	100.364	20.031	0.410	0.525
1202.000	669.347	80.005	20.010	100.357	20.027	1.365	0.535
1202.500	669.589	80.004	20.010	100.349	20.030	0.455	0.525
1203.000	669.801	80.004	20.010	100.342	20.029	0.813	0.484
1203.500	670.041	80.006	20.010	100.341	20.030	0.566	0.453
1204.000	670.368	80.004	20.010	100.345	20.029	0.884	0.510
1204.500	670.582	80.003	20.010	100.347	20.025	2.276	0.554
1205.000	670.790	80.005	20.009	100.346	20.028	1.301	0.481
1205.500	671.112	80.004	20.010	100.344	20.028	1.216	0.476
1206.001	671.306	80.003	20.010	100.339	20.025	2.218	0.523
1206.501	671.700	80.005	20.010	100.336	20.023	2.771	0.552
1207.000	671.855	80.004	20.009	100.342	20.022	2.933	0.569
1207.501	672.139	80.004	20.010	100.350	20.025	2.211	0.494
1208.001	672.374	80.004	20.009	100.359	20.028	1.340	0.479
1208.501	672.705	80.005	20.010	100.362	20.028	1.184	0.543
1209.001	672.889	80.005	20.010	100.362	20.029	0.930	0.540
1209.501	673.182	80.004	20.010	100.354	20.026	1.945	0.496
1210.001	673.416	80.004	20.010	100.347	20.024	2.335	0.502
1210.501	673.651	80.004	20.010	100.343	20.024	2.439	0.498
1211.001	673.917	80.005	20.009	100.351	20.023	2.660	0.485
1211.500	674.183	80.005	20.009	100.353	20.024	2.380	0.517
1212.000	674.445	80.004	20.010	100.351	20.025	2.172	0.530
1212.500	674.740	80.006	20.009	100.344	20.020	3.792	0.542
1213.000	674.850	80.003	20.010	100.334	20.025	2.185	0.481
1213.500	675.158	80.004	20.010	100.323	20.023	2.875	0.412
1214.000	675.358	80.005	20.009	100.321	20.023	2.849	0.463
1214.501	675.729	80.005	20.009	100.324	20.022	2.985	0.539
1215.001	675.905	80.004	20.009	100.329	20.025	2.009	0.559
1215.500	676.184	80.006	20.010	100.337	20.019	3.876	0.501
1216.000	676.407	80.004	20.010	100.335	20.028	1.268	0.479
1216.500	676.627	80.003	20.010	100.328	20.026	1.678	0.472
1217.000	676.974	80.005	20.010	100.328	20.025	2.029	0.505
1217.500	677.213	80.005	20.010	100.334	20.026	1.964	0.576
1218.000	677.400	80.005	20.010	100.341	20.026	1.684	0.505
1218.501	677.648	80.004	20.009	100.355	20.021	3.369	0.430
1219.001	677.934	80.005	20.010	100.368	20.023	2.823	0.485
1219.501	678.118	80.004	20.010	100.369	20.032	-0.072	0.502
1220.001	678.338	80.006	20.010	100.364	20.024	2.381	0.437
1220.500	678.476	80.004	20.009	100.357	20.021	3.343	0.381
1221.000	678.839	80.006	20.010	100.354	20.031	0.241	0.429
1221.500	679.089	80.004	20.009	100.356	20.029	0.871	0.557
1222.000	679.146	80.005	20.009	100.361	20.024	2.426	0.460
1222.500	679.547	80.005	20.010	100.362	20.031	0.377	0.383
1223.001	679.715	80.005	20.010	100.362	20.030	0.644	0.514
1223.501	680.050	80.003	20.010	100.357	20.022	3.122	0.536
1224.001	680.230	80.006	20.010	100.351	20.031	0.403	0.509
1224.500	680.476	80.004	20.009	100.354	20.019	3.844	0.471
1225.000	680.733	80.004	20.009	100.361	20.026	1.802	0.464
1225.500	680.945	80.006	20.009	100.368	20.024	2.302	0.486
1226.000	681.139	80.004	20.009	100.371	20.024	2.439	0.437
1226.500	681.461	80.004	20.009	100.368	20.028	1.067	0.461
1227.000	681.665	80.006	20.010	100.359	20.024	2.589	0.521
1227.500	681.924	80.004	20.010	100.352	20.027	1.574	0.495
1228.000	682.199	80.005	20.009	100.349	20.025	2.009	0.499
1228.500	682.297	80.003	20.009	100.353	20.028	1.229	0.453
1229.001	682.669	80.005	20.010	100.363	20.028	1.118	0.421
1229.501	682.820	80.004	20.009	100.366	20.025	2.009	0.496
1230.001	683.089	80.006	20.010	100.367	20.026	1.938	0.472
1230.500	683.313	80.003	20.010	100.362	20.027	1.431	0.457
1231.000	683.627	80.004	20.010	100.360	20.029	1.021	0.515
1231.500	683.726	80.004	20.009	100.359	20.031	0.182	0.475
1232.000	684.160	80.005	20.009	100.364	20.030	0.598	0.473
1232.500	684.391	80.003	20.009	100.370	20.029	1.047	0.599
1233.001	684.598	80.004	20.009	100.369	20.032	0.020	0.551
1233.501	684.875	80.004	20.010	100.364	20.031	0.403	0.461
1234.000	685.070	80.003	20.010	100.356	20.030	0.559	0.478
1234.501	685.312	80.007	20.010	100.350	20.031	0.397	0.454
1235.002	685.701	80.006	20.010	100.351	20.030	0.449	0.534
1235.501	686.026	80.004	20.009	100.365	20.035	-0.871	0.673
1236.000	686.014	80.003	20.009	100.373	20.033	-0.397	0.513
1236.501	686.299	80.006	20.010	100.381	20.033	-0.299	0.293
1237.001	686.845	80.006	20.010	100.383	20.030	0.689	0.552
1237.500	686.911	80.004	20.010	100.374	20.031	0.260	0.722
1238.001	687.004	80.006	20.010	100.359	20.034	-0.650	0.385
1238.501	687.507	80.005	20.010	100.359	20.037	-1.418	0.377
1239.001	687.742	80.005	20.009	100.359	20.031	0.267	0.667
1239.501	687.777	80.004	20.009	100.362	20.035	-0.865	0.505
1240.000	688.178	80.006	20.010	100.363	20.034	-0.540	0.353
1240.500	688.099	80.004	20.009	100.360	20.033	-0.202	0.379
1241.000	688.471	80.002	20.009	100.349	20.033	-0.312	0.308
1241.500	688.863	80.006	20.010	100.341	20.029	0.969	0.528
1242.001	689.158	80.005	20.010	100.338	20.030	0.559	0.725
1242.501	689.412	80.004	20.009	100.346	20.030	0.494	0.618
1243.000	689.454	80.005	20.009	100.352	20.032	0.072	0.423
1243.500	689.814	80.005	20.010	100.356	20.029	0.787	0.349
1244.000	690.033	80.004	20.010	100.355	20.027	1.619	0.490
1244.500	690.373	80.005	20.010	100.351	20.026	1.782	0.569
1245.001	690.534	80.004	20.010	100.341	20.026	1.873	0.530
1245.501	690.740	80.004	20.010	100.346	20.028	1.301	0.434
1246.000	691.022	80.006	20.009	100.353	20.029	1.034	0.427
1246.500	691.251	80.003	20.009	100.361	20.030	0.735	0.499
1247.000	691.501	80.003	20.009	100.365	20.031	0.416	0.495
1247.500	691.847	80.004	20.010	100.365	20.030	0.644	0.537
1248.000	692.021	80.005	20.010	100.353	20.032	-0.137	0.558
1248.500	692.303	80.004	20.010	100.344	20.027	1.600	0.488
1249.000	692.522	80.004	20.009	100.336	20.028	1.164	0.478
1249.501	692.760	80.006	20.010	100.340	20.029	0.781	0.479
1250.001	693.006	80.004	20.009	100.349	20.030	0.520	0.471
1250.500	693.300	80.005	20.009	100.354	20.034	-0.650	0.513
1251.000	693.499	80.003	20.010	100.355	20.026	1.938	0.517
1251.500	693.824	80.005	20.010	100.356	20.025	2.127	0.508
1252.000	694.062	80.006	20.010	100.349	20.026	1.782	0.543
1252.500	694.340	80.005	20.010	100.343	20.028	1.073	0.540
1253.000	694.532	80.005	20.010	100.352	20.029	0.787	0.493
1253.500	694.796	80.004	20.010	100.360	20.029	0.839	0.463
1254.000	695.002	80.005	20.009	100.361	20.027	1.646	0.463
1254.500	695.395	80.004	20.010	100.362	20.025	2.147	0.535
1255.000	695.515	80.005	20.010	100.359	20.027	1.470	0.556
1255.500	695.880	80.003	20.010	100.351	20.026	1.913	0.499
1256.000	696.150	80.005	20.010	100.348	20.028	1.210	0.560
1256.500	696.368	80.005	20.010	100.353	20.022	3.083	0.562
1257.000	696.650	80.004	20.010	100.361	20.024	2.426	0.494
1257.500	696.841	80.005	20.010	100.367	20.030	0.709	0.486
1258.000	697.081	80.005	20.010	100.367	20.034	-0.546	0.452
1258.501	697.310	80.005	20.010	100.362	20.029	0.794	0.451
1259.001	697.621	80.005	20.010	100.357	20.029	0.807	0.505
1259.500	697.701	80.003	20.010	100.357	20.025	2.108	0.465
1260.001	698.014	80.006	20.010	100.360	20.030	0.449	0.392
1260.501	698.219	80.005	20.009	100.369	20.026	1.737	0.456
1261.000	698.579	80.004	20.010	100.377	20.028	1.269	0.542
1261.500	698.813	80.004	20.010	100.384	20.027	1.438	0.580
1262.000	699.051	80.005	20.010	100.383	20.028	1.197	0.533
1262.500	699.367	80.004	20.010	100.378	20.028	1.171	0.513
1263.000	699.619	80.004	20.010	100.376	20.028	1.327	0.561
1263.500	699.853	80.004	20.009	100.376	20.029	1.028	0.527
1264.000	700.078	80.003	20.009	100.374	20.025	2.075	0.472
1264.501	700.281	80.004	20.010	100.374	20.030	0.650	0.444
1265.001	700.677	80.005	20.010	100.373	20.026	1.821	0.514
1265.501	700.932	80.006	20.010	100.368	20.028	1.099	0.625
1266.001	701.145	80.004	20.009	100.366	20.026	1.743	0.559
1266.501	701.403	80.004	20.009	100.366	20.028	1.125	0.470
1267.000	701.557	80.005	20.010	100.368	20.028	1.281	0.442
1267.500	701.907	80.005	20.010	100.377	20.032	-0.039	0.458
1268.000	702.142	80.005	20.010	100.383	20.028	1.093	0.545
1268.501	702.451	80.005	20.010	100.383	20.030	0.579	0.564
1269.001	702.676	80.005	20.009	100.379	20.031	0.228	0.539
1269.500	702.887	80.004	20.009	100.378	20.037	-1.652	0.485
1270.000	703.081	80.004	20.010	100.374	20.031	0.176	0.420
1270.500	703.374	80.006	20.009	100.379	20.027	1.528	0.446
1271.000	703.604	80.004	20.009	100.387	20.032	-0.072	0.505
1271.500	703.879	80.004	20.010	100.399	20.036	-1.249	0.514
1272.000	704.118	80.005	20.010	100.401	20.026	1.873	0.510
1272.500	704.358	80.006	20.010	100.400	20.037	-1.450	0.497
1273.000	704.790	80.007	20.011	100.395	20.027	1.476	0.575
1273.500	705.098	80.006	20.010	100.391	20.032	0.104	0.706
1274.000	705.352	80.005	20.009	100.392	20.028	1.223	0.651
1274.500	705.380	80.004	20.009	100.393	20.028	1.353	0.422
1275.000	705.585	80.004	20.008	100.394	20.032	0.072	0.257
1275.500	705.905	80.006	20.009	100.392	20.025	2.133	0.379
1276.000	706.171	80.003	20.009	100.382	20.027	1.619	0.556
1276.500	706.335	80.004	20.009	100.366	20.024	2.368	0.508
1277.000	706.757	80.005	20.010	100.358	20.025	2.218	0.508
1277.500	706.966	80.005	20.009	100.358	20.022	3.057	0.608
1278.000	707.133	80.004	20.009	100.361	20.026	1.802	0.504
1278.500	707.652	80.005	20.009	100.367	20.024	2.562	0.531
1279.000	707.738	80.005	20.009	100.374	20.024	2.419	0.646
1279.501	708.047	80.004	20.009	100.373	20.028	1.125	0.500
1280.001	708.308	80.007	20.010	100.366	20.029	0.904	0.483
1280.500	708.577	80.005	20.009	100.357	20.024	2.380	0.550
1281.000	708.802	80.003	20.010	100.353	20.028	1.073	0.512
1281.500	709.196	80.005	20.010	100.354	20.025	2.244	0.557
1282.000	709.305	80.004	20.009	100.361	20.024	2.465	0.561
1282.500	709.694	80.005	20.010	100.366	20.028	1.236	0.500
1283.000	709.940	80.005	20.010	100.365	20.024	2.569	0.567
1283.500	710.114	80.005	20.010	100.362	20.020	3.694	0.527
1284.000	710.385	80.005	20.009	100.353	20.027	1.424	0.432
1284.500	710.737	80.007	20.010	100.350	20.028	1.190	0.534
1285.000	710.881	80.004	20.009	100.353	20.025	2.088	0.560
1285.501	711.365	80.004	20.009	100.361	20.027	1.366	0.562
1286.001	711.493	80.004	20.010	100.366	20.029	1.002	0.620
1286.501	711.622	80.003	20.009	100.368	20.031	0.247	0.435
1287.000	711.926	80.004	20.010	100.365	20.026	1.756	0.345
1287.500	712.205	80.005	20.009	100.358	20.021	3.460	0.507
1288.001	712.406	80.005	20.010	100.351	20.029	0.891	0.531
1288.501	712.736	80.003	20.009	100.355	20.019	4.111	0.506
1289.000	713.021	80.006	20.010	100.360	20.022	3.005	0.573
1289.500	713.324	80.003	20.009	100.367	20.023	2.868	0.602
1290.001	713.555	80.005	20.010	100.370	20.025	2.081	0.562
1290.501	713.613	80.004	20.009	100.369	20.022	3.174	0.412
1291.001	714.089	80.004	20.009	100.359	20.027	1.652	0.411
1291.501	714.135	80.006	20.010	100.350	20.022	3.102	0.528
1292.001	714.522	80.005	20.010	100.346	20.022	3.154	0.478
1292.500	714.528	80.002	20.009	100.350	20.023	2.621	0.413
1293.000	714.979	80.006	20.010	100.360	20.021	3.245	0.425
1293.500	715.059	80.004	20.009	100.365	20.023	2.836	0.494
1294.000	715.431	80.004	20.009	100.369	20.023	2.797	0.491
1294.500	715.564	80.004	20.010	100.363	20.023	2.641	0.479
1295.000	715.956	80.004	20.010	100.353	20.024	2.524	0.515
1295.500	716.276	80.004	20.009	100.344	20.024	2.446	0.618
1296.000	716.598	80.003	20.010	100.343	20.023	2.810	0.677
1296.500	716.873	80.007	20.009	100.348	20.027	1.619	0.620
1297.001	717.042	80.003	20.009	100.358	20.025	2.029	0.521
1297.501	717.186	80.005	20.009	100.365	20.025	2.042	0.378
1298.001	717.506	80.004	20.010	100.367	20.025	2.173	0.388
1298.501	717.863	80.005	20.010	100.365	20.028	1.314	0.571
1299.000	718.022	80.004	20.010	100.357	20.028	1.093	0.597
1299.500	718.144	80.005	20.010	100.355	20.021	3.435	0.399
1300.001	718.637	80.005	20.009	100.360	20.019	3.883	0.448
1300.501	718.838	80.004	20.009	100.368	20.020	3.538	0.654
1301.000	718.842	80.003	20.009	100.375	20.023	2.679	0.449
1301.500	719.273	80.004	20.010	100.379	20.024	2.335	0.320
1302.000	719.422	80.004	20.009	100.373	20.020	3.772	0.508
1302.500	719.892	80.005	20.010	100.363	20.022	3.122	0.600
1303.000	720.067	80.004	20.010	100.352	20.024	2.439	0.632
1303.500	720.065	80.003	20.010	100.350	20.021	3.317	0.409
1304.000	720.497	80.003	20.009	100.354	20.025	2.185	0.301
1304.500	720.760	80.007	20.011	100.358	20.022	2.998	0.563
1305.000	720.908	80.004	20.010	100.361	20.023	2.647	0.553
1305.501	721.220	80.004	20.010	100.361	20.023	2.797	0.435
1306.001	721.501	80.006	20.010	100.359	20.019	3.994	0.527
1306.500	721.733	80.005	20.011	100.358	20.027	1.574	0.553
1307.000	722.105	80.006	20.010	100.367	20.021	3.291	0.558
1307.500	722.234	80.004	20.010	100.372	20.019	4.012	0.552
1308.000	722.340	80.003	20.009	100.380	20.021	3.290	0.368
1308.500	722.722	80.006	20.010	100.378	20.020	3.570	0.362
1309.000	722.955	80.003	20.010	100.370	20.022	3.076	0.552
1309.500	723.294	80.005	20.010	100.357	20.018	4.254	0.593
1310.000	723.612	80.004	20.010	100.358	20.020	3.669	0.614
1310.500	723.881	80.006	20.010	100.365	20.021	3.441	0.622
1311.000	724.039	80.004	20.010	100.375	20.023	2.816	0.508
1311.500	724.371	80.006	20.010	100.383	20.025	2.185	0.459
1312.001	724.561	80.004	20.010	100.388	20.023	2.732	0.506
1312.501	724.825	80.004	20.009	100.380	20.022	3.155	0.488
1313.000	725.191	80.006	20.010	100.364	20.021	3.500	0.542
1313.500	725.385	80.005	20.010	100.352	20.021	3.506	0.595
1314.000	725.680	80.006	20.010	100.347	20.021	3.331	0.525
1314.500	725.840	80.005	20.010	100.349	20.023	2.856	0.472
1315.000	726.087	80.003	20.009	100.354	20.019	3.994	0.431
1315.500	726.281	80.004	20.010	100.355	20.022	2.999	0.424
1316.000	726.618	80.005	20.010	100.355	20.025	1.990	0.486
1316.500	726.867	80.005	20.010	100.354	20.026	1.958	0.559
1317.000	727.029	80.004	20.010	100.348	20.021	3.428	0.498
1317.500	727.415	80.003	20.010	100.349	20.025	2.192	0.479
1318.000	727.504	80.004	20.009	100.356	20.023	2.868	0.512
1318.501	727.954	80.006	20.010	100.365	20.027	1.489	0.507
1319.001	728.210	80.004	20.010	100.366	20.019	4.025	0.622
1319.500	728.436	80.005	20.010	100.364	20.026	1.918	0.594
1320.000	728.672	80.005	20.010	100.357	20.030	0.722	0.472
1320.500	728.840	80.003	20.010	100.349	20.025	2.010	0.433
1321.000	729.194	80.006	20.010	100.343	20.026	1.678	0.463
1321.500	729.497	80.004	20.010	100.349	20.019	3.817	0.589
1322.000	729.599	80.004	20.010	100.357	20.024	2.283	0.531
1322.500	730.005	80.003	20.009	100.367	20.023	2.835	0.457
1323.000	730.252	80.007	20.010	100.371	20.023	2.614	0.581
1323.500	730.384	80.004	20.010	100.369	20.023	2.718	0.516
1324.000	730.748	80.004	20.010	100.363	20.025	2.094	0.437
1324.500	731.009	80.005	20.010	100.364	20.022	2.908	0.560
1325.001	731.230	80.005	20.010	100.362	20.022	3.148	0.553
1325.501	731.488	80.005	20.010	100.367	20.022	3.168	0.481
1326.000	731.721	80.004	20.010	100.378	20.023	2.621	0.485
1326.501	731.983	80.003	20.010	100.384	20.022	3.037	0.493
1327.001	732.297	80.006	20.010	100.381	20.023	2.777	0.536
1327.500	732.659	80.005	20.010	100.378	20.021	3.207	0.626
1328.000	732.894	80.006	20.010	100.373	20.019	4.000	0.637
1328.500	733.150	80.006	20.011	100.370	20.017	4.469	0.545
1329.000	733.320	80.005	20.010	100.370	20.026	1.912	0.459
1329.500	733.492	80.006	20.010	100.374	20.016	4.807	0.384
1330.000	733.806	80.004	20.011	100.375	20.020	3.513	0.414
1330.500	734.065	80.005	20.010	100.374	20.021	3.467	0.529
1331.000	734.292	80.006	20.010	100.366	20.022	2.954	0.529
1331.500	734.584	80.004	20.011	100.358	20.019	4.047	0.503
1332.000	734.818	80.004	20.010	100.349	20.018	4.418	0.523
1332.500	735.104	80.005	20.010	100.344	20.016	4.951	0.523
1333.000	735.470	80.005	20.010	100.347	20.017	4.554	0.586
1333.500	735.557	80.005	20.009	100.353	20.018	4.144	0.553
1334.001	735.854	80.003	20.010	100.351	20.017	4.723	0.419
1334.501	736.292	80.005	20.011	100.349	20.014	5.646	0.560
1335.000	736.389	80.006	20.011	100.347	20.022	3.090	0.635
1335.500	736.781	80.006	20.010	100.342	20.018	4.274	0.512
1336.000	737.018	80.004	20.010	100.344	20.016	4.853	0.559
1336.500	737.312	80.005	20.010	100.352	20.021	3.415	0.580
1337.000	737.547	80.005	20.010	100.364	20.017	4.501	0.530
1337.500	737.635	80.004	20.010	100.374	20.020	3.675	0.426
1338.001	737.941	80.004	20.010	100.375	20.022	3.174	0.359
1338.501	738.286	80.005	20.010	100.369	20.019	3.864	0.522
1339.000	738.442	80.004	20.010	100.365	20.020	3.545	0.576
1339.500	738.755	80.005	20.010	100.361	20.026	1.841	0.485
1340.000	738.977	80.003	20.009	100.362	20.027	1.528	0.502
1340.500	739.160	80.004	20.010	100.367	20.025	2.192	0.470
1341.000	739.486	80.005	20.010	100.377	20.022	3.083	0.457
1341.500	739.683	80.004	20.010	100.381	20.023	2.810	0.516
1342.000	740.105	80.005	20.010	100.375	20.019	4.079	0.571
1342.500	740.375	80.005	20.010	100.373	20.019	4.046	0.656
1343.000	740.353	80.004	20.009	100.374	20.023	2.843	0.470
1343.500	740.710	80.004	20.009	100.380	20.021	3.395	0.292
1344.000	740.978	80.005	20.010	100.388	20.020	3.532	0.480
1344.500	741.217	80.005	20.010	100.397	20.022	2.914	0.566
1345.000	741.528	80.004	20.010	100.398	20.024	2.575	0.528
1345.500	741.757	80.006	20.010	100.392	20.019	4.046	0.545
1346.000	741.928	80.005	20.010	100.382	20.019	4.065	0.470
1346.501	742.340	80.005	20.010	100.376	20.020	3.617	0.491
1347.001	742.727	80.006	20.010	100.377	20.023	2.849	0.691
1347.501	742.757	80.004	20.010	100.379	20.018	4.196	0.608
