Sample Weight (mg):	3.05
Heating Rate (C/s):	0.5
Combustor Temp (C):	900
N2 Flow Rate (cc/min):	80
O2 Flow Rate (cc/min):	20
Time (s)	Temperature (C)	N2 flow rate (cc/min)	O2 flow rate (cc/min)	Flow Rate (cc/min)	Oxygen (%)	HRR (W/g)	Heating rate (C/s)
0.000	89.737	80.002	20.008	100.059	20.151	2.850	-0.092
0.500	89.692	80.001	20.008	100.114	20.145	3.434	-0.072
1.000	89.634	80.002	20.008	100.185	20.142	3.769	-0.077
1.500	89.566	80.001	20.008	100.258	20.138	4.187	-0.115
2.000	89.548	80.002	20.008	100.322	20.132	4.728	-0.106
2.500	89.526	80.001	20.008	100.372	20.131	4.911	-0.063
3.000	89.461	80.000	20.009	100.406	20.129	5.053	-0.063
3.500	89.412	80.001	20.008	100.429	20.125	5.500	-0.101
4.000	89.353	80.000	20.008	100.450	20.120	6.002	-0.112
4.500	89.327	80.001	20.008	100.463	20.118	6.245	-0.096
5.000	89.272	80.001	20.008	100.481	20.116	6.419	-0.082
5.500	89.201	80.001	20.008	100.497	20.115	6.517	-0.103
6.000	89.214	80.002	20.008	100.512	20.110	7.029	-0.092
6.500	89.186	80.001	20.008	100.516	20.107	7.312	-0.037
7.000	89.170	80.001	20.008	100.516	20.107	7.286	-0.030
7.501	89.105	80.001	20.009	100.509	20.104	7.621	-0.062
8.000	89.042	80.001	20.008	100.498	20.102	7.825	-0.104
8.500	89.000	80.001	20.008	100.491	20.101	7.978	-0.117
9.000	89.025	80.001	20.008	100.493	20.100	8.055	-0.061
9.500	88.908	80.001	20.008	100.502	20.101	7.964	-0.055
10.000	88.940	80.000	20.008	100.509	20.100	8.040	-0.089
10.500	88.857	80.000	20.008	100.517	20.097	8.353	-0.068
11.000	88.874	80.001	20.008	100.523	20.095	8.550	-0.058
11.500	88.797	80.001	20.008	100.518	20.095	8.614	-0.063
12.000	88.756	80.001	20.008	100.509	20.092	8.825	-0.089
12.500	88.777	80.001	20.008	100.501	20.092	8.863	-0.069
13.000	88.774	80.001	20.008	100.495	20.092	8.880	-0.001
13.500	88.734	80.001	20.008	100.494	20.092	8.868	-0.013
14.000	88.671	80.001	20.008	100.502	20.093	8.803	-0.073
14.500	88.695	80.000	20.008	100.515	20.091	8.990	-0.071
15.000	88.692	80.001	20.008	100.526	20.092	8.925	-0.009
15.500	88.630	80.001	20.008	100.534	20.092	8.848	-0.022
16.000	88.612	80.001	20.008	100.537	20.089	9.136	-0.073
16.500	88.658	80.001	20.008	100.534	20.090	9.093	-0.027
17.000	88.570	80.001	20.008	100.527	20.089	9.136	-0.007
17.500	88.578	80.001	20.009	100.523	20.088	9.312	-0.060
18.000	88.511	80.002	20.009	100.523	20.086	9.504	-0.069
18.500	88.548	80.000	20.008	100.530	20.089	9.187	-0.045
19.000	88.599	80.002	20.008	100.542	20.089	9.222	0.029
19.500	88.534	80.000	20.008	100.551	20.085	9.581	0.038
20.000	88.523	80.002	20.008	100.560	20.086	9.490	-0.045
20.500	88.510	80.002	20.008	100.560	20.086	9.537	-0.050
21.000	88.531	80.001	20.008	100.552	20.084	9.684	-0.008
21.500	88.515	80.001	20.008	100.539	20.084	9.664	0.007
22.000	88.519	80.001	20.009	100.525	20.084	9.690	-0.004
22.500	88.492	80.000	20.008	100.518	20.085	9.554	-0.018
23.000	88.526	80.001	20.008	100.521	20.084	9.710	-0.008
23.500	88.506	80.000	20.008	100.525	20.082	9.950	0.011
24.000	88.539	80.002	20.008	100.538	20.083	9.810	0.013
24.500	88.494	80.001	20.008	100.552	20.079	10.198	0.000
25.000	88.466	80.001	20.008	100.560	20.079	10.208	-0.042
25.500	88.507	80.001	20.008	100.564	20.081	10.057	-0.030
26.000	88.451	80.002	20.008	100.561	20.081	10.048	-0.002
26.500	88.477	80.001	20.009	100.553	20.080	10.162	-0.023
27.000	88.526	80.001	20.008	100.550	20.080	10.140	0.023
27.500	88.496	80.001	20.009	100.550	20.080	10.159	0.047
28.000	88.600	80.001	20.008	100.553	20.081	10.024	0.047
28.500	88.626	80.001	20.008	100.566	20.078	10.326	0.102
29.000	88.588	80.001	20.008	100.579	20.079	10.269	0.059
29.500	88.639	80.000	20.009	100.585	20.078	10.343	0.000
30.000	88.634	80.003	20.008	100.583	20.077	10.437	0.029
30.500	88.633	80.001	20.008	100.575	20.075	10.633	0.020
31.000	88.686	80.001	20.009	100.562	20.075	10.587	0.023
31.500	88.770	80.003	20.009	100.548	20.072	10.934	0.094
32.000	88.693	80.001	20.009	100.543	20.075	10.654	0.072
32.500	88.808	80.003	20.009	100.546	20.074	10.696	0.023
33.000	88.802	80.000	20.009	100.554	20.074	10.767	0.074
33.500	88.791	80.002	20.008	100.570	20.072	10.891	0.046
34.000	88.832	80.000	20.009	100.584	20.069	11.257	0.006
34.500	88.885	80.001	20.009	100.596	20.068	11.376	0.061
35.000	88.927	80.001	20.009	100.603	20.071	11.073	0.094
35.501	88.943	80.002	20.009	100.607	20.067	11.485	0.077
36.001	89.010	80.001	20.009	100.607	20.067	11.502	0.071
36.501	89.010	80.002	20.009	100.608	20.064	11.774	0.074
37.000	89.040	80.001	20.009	100.608	20.064	11.761	0.048
37.501	89.091	80.002	20.009	100.612	20.061	12.115	0.056
38.001	89.162	80.002	20.009	100.624	20.064	11.795	0.102
38.500	89.200	80.001	20.009	100.636	20.061	12.082	0.115
39.000	89.218	80.001	20.009	100.652	20.060	12.136	0.082
39.500	89.320	80.001	20.009	100.668	20.059	12.300	0.088
40.000	89.310	80.001	20.009	100.681	20.059	12.239	0.106
40.500	89.372	80.002	20.009	100.683	20.059	12.335	0.072
41.000	89.442	80.001	20.009	100.680	20.057	12.457	0.092
41.500	89.567	80.000	20.009	100.672	20.059	12.278	0.164
42.000	89.581	80.002	20.009	100.670	20.061	12.101	0.167
42.500	89.597	80.000	20.009	100.669	20.062	12.021	0.085
43.000	89.726	80.000	20.009	100.672	20.061	12.109	0.088
43.500	89.744	80.002	20.009	100.673	20.061	12.077	0.146
44.001	89.842	80.001	20.009	100.671	20.059	12.324	0.131
44.501	89.929	80.002	20.009	100.657	20.060	12.202	0.150
45.000	89.931	80.001	20.009	100.642	20.060	12.188	0.137
45.500	90.031	80.002	20.009	100.629	20.057	12.533	0.095
46.000	90.095	80.002	20.009	100.620	20.058	12.423	0.133
46.500	90.156	80.001	20.009	100.620	20.060	12.186	0.145
47.001	90.237	80.001	20.009	100.630	20.057	12.478	0.133
47.501	90.331	80.001	20.009	100.644	20.060	12.149	0.158
48.001	90.424	80.001	20.009	100.657	20.058	12.396	0.181
48.501	90.468	80.001	20.009	100.664	20.054	12.822	0.162
49.000	90.592	80.002	20.009	100.664	20.056	12.640	0.153
49.501	90.590	80.000	20.009	100.659	20.054	12.805	0.145
50.001	90.697	80.001	20.009	100.646	20.054	12.764	0.113
50.501	90.793	80.001	20.009	100.637	20.054	12.754	0.154
51.001	90.905	80.001	20.009	100.638	20.053	12.924	0.206
51.500	90.939	80.001	20.009	100.649	20.054	12.756	0.177
52.000	91.059	80.000	20.009	100.668	20.053	12.953	0.150
52.500	91.104	80.001	20.009	100.690	20.053	12.946	0.159
53.000	91.261	80.001	20.009	100.708	20.051	13.088	0.183
53.501	91.307	80.001	20.009	100.715	20.050	13.224	0.202
54.001	91.418	80.001	20.009	100.714	20.050	13.205	0.180
54.500	91.503	80.001	20.009	100.706	20.052	13.003	0.176
55.000	91.635	80.002	20.010	100.702	20.048	13.409	0.207
55.500	91.729	80.000	20.009	100.704	20.051	13.139	0.222
56.000	91.836	80.001	20.009	100.712	20.051	13.097	0.214
56.500	91.944	80.001	20.009	100.720	20.049	13.322	0.208
57.000	92.061	80.001	20.009	100.728	20.048	13.375	0.220
57.501	92.208	80.001	20.009	100.727	20.047	13.502	0.244
58.001	92.345	80.001	20.009	100.718	20.047	13.554	0.274
58.501	92.357	80.001	20.010	100.709	20.048	13.381	0.217
59.001	92.486	80.001	20.009	100.701	20.051	13.145	0.145
59.501	92.629	80.001	20.010	100.700	20.050	13.242	0.206
60.001	92.752	80.001	20.009	100.705	20.049	13.325	0.269
60.501	92.882	80.000	20.009	100.718	20.048	13.426	0.260
61.001	93.003	80.002	20.009	100.733	20.048	13.393	0.252
61.501	93.150	80.001	20.009	100.744	20.047	13.569	0.259
62.001	93.259	80.002	20.009	100.744	20.045	13.759	0.262
62.501	93.377	80.000	20.010	100.743	20.047	13.567	0.242
63.001	93.564	80.002	20.010	100.732	20.046	13.619	0.266
63.500	93.637	80.000	20.009	100.720	20.045	13.718	0.282
64.001	93.795	80.001	20.009	100.717	20.046	13.623	0.245
64.501	93.927	80.002	20.009	100.721	20.043	13.988	0.261
65.000	94.050	80.000	20.009	100.729	20.044	13.880	0.273
65.501	94.207	80.001	20.009	100.737	20.041	14.158	0.267
66.001	94.379	80.001	20.009	100.742	20.044	13.855	0.304
66.501	94.543	80.002	20.009	100.736	20.043	13.962	0.332
67.001	94.621	80.001	20.010	100.724	20.042	14.094	0.289
67.500	94.802	80.001	20.010	100.709	20.040	14.212	0.250
68.000	94.944	80.001	20.010	100.702	20.042	14.067	0.291
68.500	95.113	80.001	20.009	100.702	20.041	14.119	0.317
69.001	95.274	80.000	20.009	100.708	20.041	14.129	0.320
69.501	95.405	80.000	20.009	100.718	20.043	13.921	0.311
70.000	95.597	80.003	20.009	100.725	20.043	13.984	0.308
70.500	95.761	80.001	20.009	100.730	20.042	14.041	0.340
71.000	95.900	80.001	20.009	100.729	20.043	13.906	0.329
71.500	96.046	80.001	20.010	100.721	20.043	13.908	0.293
72.000	96.226	80.001	20.010	100.711	20.043	13.900	0.305
72.500	96.380	80.002	20.009	100.707	20.042	13.999	0.330
73.001	96.529	80.001	20.009	100.707	20.043	13.920	0.319
73.501	96.715	80.002	20.009	100.713	20.043	13.990	0.319
74.000	96.802	79.999	20.009	100.729	20.044	13.871	0.304
74.500	97.010	80.003	20.010	100.741	20.042	14.005	0.284
75.000	97.173	80.001	20.009	100.745	20.041	14.114	0.333
75.500	97.380	80.003	20.010	100.746	20.043	13.977	0.370
76.000	97.531	80.000	20.010	100.739	20.040	14.223	0.364
76.500	97.698	80.002	20.010	100.729	20.042	14.026	0.338
77.001	97.845	80.001	20.009	100.724	20.041	14.124	0.316
77.501	98.040	80.002	20.009	100.732	20.041	14.115	0.328
78.000	98.236	80.003	20.009	100.740	20.041	14.099	0.367
78.500	98.419	80.000	20.010	100.751	20.039	14.307	0.385
79.000	98.588	80.002	20.009	100.759	20.040	14.252	0.365
79.500	98.730	80.000	20.009	100.762	20.041	14.188	0.331
80.000	98.916	80.001	20.009	100.754	20.041	14.136	0.320
80.501	99.139	80.003	20.009	100.746	20.041	14.185	0.368
81.001	99.265	80.001	20.009	100.737	20.042	14.013	0.379
81.501	99.482	80.002	20.009	100.731	20.040	14.269	0.346
82.001	99.708	80.001	20.009	100.730	20.041	14.188	0.393
82.501	99.841	80.001	20.009	100.738	20.038	14.409	0.400
83.001	100.039	80.003	20.009	100.746	20.038	14.450	0.345
83.501	100.208	80.002	20.010	100.754	20.037	14.554	0.349
84.001	100.439	80.001	20.009	100.754	20.035	14.766	0.384
84.501	100.579	80.001	20.009	100.753	20.039	14.386	0.386
85.000	100.842	80.003	20.009	100.743	20.037	14.609	0.387
85.500	101.043	80.000	20.009	100.732	20.039	14.398	0.433
86.000	101.242	80.001	20.009	100.726	20.036	14.650	0.432
86.500	101.473	80.002	20.009	100.728	20.039	14.369	0.415
87.000	101.655	80.001	20.009	100.734	20.038	14.507	0.422
87.501	101.905	80.000	20.009	100.742	20.038	14.487	0.423
88.001	102.073	80.003	20.009	100.748	20.041	14.177	0.425
88.501	102.317	80.001	20.009	100.749	20.040	14.241	0.415
89.001	102.510	80.003	20.009	100.746	20.041	14.200	0.425
89.501	102.715	80.002	20.009	100.740	20.038	14.458	0.418
90.001	102.962	80.001	20.010	100.736	20.039	14.358	0.425
90.501	103.145	80.001	20.010	100.736	20.040	14.240	0.441
91.000	103.396	80.001	20.010	100.744	20.039	14.360	0.431
91.501	103.610	80.000	20.010	100.755	20.038	14.473	0.449
92.001	103.824	80.001	20.010	100.769	20.039	14.373	0.447
92.500	104.042	80.001	20.009	100.776	20.040	14.206	0.430
93.000	104.251	80.001	20.009	100.776	20.040	14.300	0.429
93.500	104.468	80.002	20.009	100.768	20.039	14.345	0.427
94.000	104.707	80.003	20.009	100.755	20.040	14.259	0.441
94.500	104.959	80.002	20.010	100.745	20.043	13.953	0.474
95.000	105.175	80.000	20.009	100.745	20.042	14.031	0.479
95.500	105.395	80.001	20.009	100.753	20.043	13.976	0.452
96.000	105.669	80.003	20.010	100.764	20.044	13.824	0.465
96.500	105.888	80.001	20.009	100.775	20.041	14.126	0.494
97.000	106.111	80.002	20.010	100.780	20.042	14.074	0.467
97.500	106.341	80.001	20.009	100.775	20.040	14.257	0.447
98.000	106.554	80.001	20.009	100.763	20.040	14.288	0.448
98.500	106.818	80.001	20.010	100.753	20.042	14.014	0.460
99.000	107.031	80.002	20.009	100.744	20.041	14.107	0.477
99.500	107.248	80.001	20.009	100.744	20.041	14.145	0.453
100.000	107.490	80.001	20.009	100.751	20.039	14.326	0.444
100.500	107.688	80.001	20.009	100.764	20.039	14.344	0.450
101.000	107.974	80.000	20.009	100.772	20.040	14.260	0.462
101.500	108.205	80.003	20.010	100.778	20.036	14.698	0.501
102.000	108.419	80.003	20.010	100.770	20.039	14.384	0.481
102.501	108.670	80.000	20.010	100.760	20.038	14.412	0.455
103.001	108.919	80.002	20.009	100.747	20.037	14.607	0.482
103.500	109.135	80.001	20.009	100.744	20.036	14.673	0.483
104.000	109.438	80.001	20.009	100.746	20.037	14.529	0.492
104.500	109.692	80.003	20.009	100.759	20.035	14.789	0.538
105.000	109.948	80.002	20.009	100.773	20.035	14.775	0.534
105.500	110.214	80.002	20.009	100.780	20.033	14.969	0.516
106.000	110.411	80.002	20.009	100.782	20.033	14.998	0.493
106.500	110.678	80.001	20.009	100.778	20.034	14.838	0.463
107.000	110.949	80.001	20.009	100.769	20.034	14.828	0.501
107.500	111.170	80.001	20.010	100.760	20.033	14.986	0.515
108.000	111.418	80.002	20.008	100.771	20.034	14.910	0.481
108.501	111.679	80.002	20.009	100.773	20.034	14.844	0.490
109.001	111.930	80.002	20.010	100.776	20.037	14.580	0.511
109.500	112.201	80.002	20.009	100.782	20.037	14.517	0.517
110.001	112.475	80.001	20.009	100.784	20.035	14.760	0.533
110.501	112.749	80.001	20.009	100.773	20.037	14.583	0.546
111.000	112.981	80.003	20.010	100.771	20.035	14.731	0.527
111.501	113.285	80.002	20.009	100.764	20.039	14.321	0.521
112.001	113.538	80.003	20.009	100.760	20.037	14.524	0.546
112.500	113.784	80.001	20.009	100.763	20.037	14.527	0.528
113.000	114.008	80.001	20.009	100.769	20.037	14.569	0.485
113.500	114.306	80.001	20.009	100.772	20.037	14.557	0.497
114.000	114.544	80.002	20.009	100.778	20.038	14.410	0.529
114.500	114.858	80.001	20.009	100.780	20.036	14.661	0.544
115.000	115.124	80.001	20.009	100.775	20.038	14.475	0.566
115.500	115.391	80.001	20.009	100.761	20.036	14.665	0.556
116.000	115.667	80.002	20.009	100.751	20.037	14.584	0.538
116.501	115.910	80.002	20.009	100.743	20.038	14.428	0.531
117.001	116.117	80.001	20.010	100.741	20.039	14.335	0.484
117.501	116.462	80.002	20.009	100.743	20.038	14.461	0.501
118.001	116.695	80.001	20.009	100.751	20.038	14.503	0.565
118.500	116.929	80.002	20.009	100.756	20.038	14.472	0.522
119.000	117.235	80.001	20.009	100.756	20.037	14.549	0.503
119.500	117.525	80.002	20.010	100.750	20.037	14.545	0.568
120.000	117.740	80.002	20.010	100.742	20.036	14.647	0.550
120.500	117.997	80.003	20.009	100.735	20.040	14.289	0.488
121.000	118.271	80.001	20.010	100.735	20.040	14.197	0.502
121.500	118.569	80.002	20.009	100.746	20.039	14.382	0.552
122.000	118.828	80.002	20.009	100.762	20.039	14.328	0.565
122.500	119.082	80.002	20.009	100.774	20.038	14.492	0.535
123.000	119.403	80.002	20.009	100.783	20.039	14.376	0.544
123.500	119.666	80.001	20.010	100.779	20.038	14.484	0.580
124.001	119.945	80.000	20.009	100.767	20.039	14.345	0.563
124.501	120.213	80.002	20.009	100.747	20.036	14.679	0.544
125.000	120.469	80.001	20.010	100.735	20.039	14.382	0.535
125.500	120.760	80.001	20.009	100.725	20.039	14.393	0.536
126.000	121.057	80.001	20.009	100.728	20.036	14.638	0.568
126.500	121.361	80.002	20.009	100.737	20.035	14.791	0.594
127.000	121.623	80.002	20.009	100.744	20.035	14.790	0.584
127.500	121.905	80.002	20.009	100.745	20.037	14.544	0.555
128.000	122.185	80.001	20.010	100.743	20.035	14.760	0.553
128.500	122.489	80.002	20.010	100.729	20.035	14.731	0.572
129.000	122.707	80.000	20.009	100.714	20.033	14.966	0.553
129.500	123.030	80.003	20.009	100.704	20.036	14.685	0.532
130.000	123.324	80.005	20.010	100.703	20.035	14.737	0.579
130.500	123.616	80.004	20.009	100.708	20.035	14.759	0.601
131.000	123.888	80.002	20.010	100.721	20.032	15.074	0.575
131.500	124.175	80.001	20.009	100.736	20.032	15.081	0.562
132.000	124.480	80.003	20.010	100.743	20.031	15.181	0.575
132.500	124.761	80.000	20.010	100.744	20.032	15.082	0.589
133.000	125.063	80.003	20.010	100.742	20.031	15.135	0.585
133.500	125.300	80.001	20.009	100.735	20.029	15.406	0.561
134.000	125.624	80.002	20.009	100.729	20.031	15.216	0.549
134.500	125.904	80.001	20.010	100.730	20.030	15.243	0.582
135.000	126.169	80.002	20.009	100.735	20.030	15.279	0.575
135.500	126.463	80.001	20.009	100.735	20.030	15.322	0.552
136.000	126.750	80.002	20.009	100.734	20.028	15.483	0.570
136.500	127.060	80.002	20.010	100.727	20.033	14.967	0.589
137.000	127.362	80.003	20.010	100.716	20.031	15.209	0.604
137.500	127.636	80.002	20.009	100.704	20.029	15.384	0.594
138.000	127.903	80.001	20.010	100.699	20.031	15.201	0.558
138.501	128.219	80.002	20.010	100.700	20.033	15.001	0.562
139.000	128.496	80.000	20.009	100.708	20.030	15.248	0.588
139.500	128.789	80.002	20.009	100.715	20.029	15.424	0.581
140.000	129.099	80.001	20.009	100.722	20.030	15.279	0.587
140.500	129.365	80.003	20.010	100.721	20.029	15.408	0.590
141.000	129.679	80.001	20.009	100.708	20.028	15.455	0.578
141.500	129.985	80.001	20.010	100.693	20.026	15.672	0.600
142.000	130.205	80.003	20.009	100.678	20.028	15.438	0.573
142.500	130.530	80.003	20.010	100.670	20.026	15.632	0.535
143.000	130.801	80.000	20.009	100.669	20.027	15.558	0.570
143.500	131.147	80.003	20.009	100.675	20.026	15.711	0.606
144.001	131.418	80.002	20.009	100.683	20.028	15.521	0.617
144.500	131.769	80.002	20.009	100.690	20.029	15.401	0.620
145.000	131.969	80.001	20.010	100.685	20.027	15.549	0.587
145.500	132.305	80.001	20.010	100.677	20.028	15.521	0.544
146.000	132.604	80.002	20.009	100.669	20.028	15.481	0.585
146.500	132.851	80.001	20.010	100.662	20.026	15.656	0.590
147.000	133.145	80.001	20.009	100.661	20.025	15.751	0.544
147.500	133.459	80.002	20.009	100.667	20.026	15.697	0.575
148.000	133.736	80.000	20.009	100.675	20.029	15.381	0.599
148.500	134.061	80.001	20.009	100.683	20.026	15.652	0.596
149.000	134.372	80.001	20.009	100.685	20.029	15.382	0.619
149.500	134.665	80.002	20.009	100.679	20.028	15.484	0.620
150.000	134.926	80.002	20.010	100.671	20.029	15.356	0.579
150.500	135.224	80.000	20.009	100.663	20.026	15.628	0.557
151.000	135.522	80.002	20.009	100.660	20.029	15.348	0.578
151.501	135.845	80.001	20.009	100.664	20.029	15.357	0.609
152.000	136.116	80.001	20.009	100.672	20.028	15.438	0.608
152.500	136.461	80.001	20.009	100.680	20.029	15.329	0.605
153.000	136.731	80.001	20.009	100.688	20.030	15.313	0.615
153.500	137.015	80.002	20.009	100.692	20.028	15.521	0.585
154.000	137.339	80.003	20.009	100.686	20.030	15.274	0.581
154.500	137.619	80.000	20.009	100.678	20.026	15.669	0.606
155.000	137.932	80.001	20.009	100.671	20.027	15.542	0.598
155.500	138.187	80.003	20.009	100.663	20.026	15.704	0.580
156.000	138.521	80.002	20.009	100.661	20.024	15.832	0.579
156.500	138.811	80.001	20.009	100.668	20.025	15.821	0.607
157.000	139.107	80.001	20.009	100.673	20.023	16.011	0.605
157.500	139.352	80.002	20.009	100.673	20.021	16.171	0.564
158.000	139.676	80.001	20.009	100.672	20.023	16.011	0.555
158.500	139.983	80.002	20.009	100.660	20.021	16.216	0.600
159.000	140.292	80.002	20.010	100.644	20.024	15.917	0.623
159.500	140.545	80.001	20.009	100.632	20.023	15.946	0.589
160.000	140.859	80.002	20.009	100.629	20.019	16.402	0.564
160.500	141.185	80.001	20.009	100.630	20.020	16.315	0.603
161.000	141.457	80.002	20.009	100.639	20.016	16.732	0.619
161.500	141.788	80.001	20.009	100.648	20.019	16.379	0.601
162.000	142.051	80.003	20.009	100.652	20.018	16.543	0.599
162.500	142.321	80.001	20.009	100.646	20.018	16.474	0.563
163.000	142.578	80.001	20.009	100.638	20.018	16.538	0.530
163.500	142.892	80.000	20.009	100.622	20.017	16.554	0.549
164.000	143.198	80.001	20.009	100.613	20.018	16.535	0.595
164.500	143.501	80.004	20.009	100.611	20.014	16.920	0.615
165.000	143.831	80.000	20.009	100.619	20.015	16.775	0.621
165.500	144.107	80.002	20.009	100.628	20.018	16.498	0.620
166.000	144.373	80.002	20.009	100.640	20.013	16.997	0.574
166.500	144.673	80.000	20.009	100.644	20.013	16.972	0.554
167.000	145.003	80.003	20.009	100.642	20.013	17.019	0.598
167.500	145.305	80.000	20.009	100.634	20.008	17.511	0.631
168.000	145.597	80.002	20.009	100.625	20.010	17.327	0.613
168.500	145.900	80.001	20.009	100.618	20.010	17.334	0.595
169.000	146.208	80.002	20.009	100.622	20.008	17.480	0.603
169.500	146.500	80.002	20.009	100.629	20.009	17.414	0.606
170.000	146.782	80.001	20.009	100.637	20.007	17.583	0.587
170.500	147.047	80.001	20.009	100.645	20.004	17.911	0.561
171.000	147.318	80.002	20.009	100.648	20.003	18.059	0.541
171.500	147.624	80.001	20.009	100.641	20.003	18.043	0.556
172.000	147.898	80.002	20.009	100.632	19.999	18.448	0.578
172.500	148.191	80.001	20.009	100.624	20.000	18.401	0.574
173.000	148.450	80.001	20.009	100.618	20.001	18.213	0.560
173.500	148.752	80.002	20.009	100.622	20.002	18.177	0.556
174.000	149.050	80.001	20.009	100.630	20.000	18.357	0.581
174.500	149.307	80.001	20.009	100.639	19.998	18.512	0.578
175.000	149.650	80.002	20.009	100.646	19.999	18.477	0.577
175.500	149.885	80.001	20.009	100.647	19.997	18.641	0.589
176.000	150.227	80.002	20.009	100.639	20.000	18.376	0.578
176.500	150.516	80.001	20.009	100.632	19.998	18.577	0.604
177.000	150.774	80.002	20.009	100.623	19.998	18.538	0.589
177.500	151.113	80.001	20.009	100.620	20.000	18.358	0.572
178.000	151.386	80.001	20.009	100.625	19.997	18.653	0.604
178.500	151.703	80.002	20.009	100.633	19.995	18.879	0.601
179.001	151.976	80.000	20.009	100.641	19.992	19.127	0.590
179.500	152.244	80.002	20.009	100.646	19.991	19.316	0.566
180.000	152.534	80.000	20.009	100.640	19.991	19.257	0.549
180.500	152.852	80.001	20.009	100.632	19.989	19.528	0.582
181.000	153.172	80.002	20.010	100.624	19.990	19.415	0.623
181.500	153.430	80.001	20.009	100.615	19.987	19.691	0.609
182.000	153.683	80.001	20.009	100.617	19.989	19.497	0.545
182.500	153.999	80.002	20.009	100.625	19.985	19.859	0.540
183.000	154.284	80.000	20.009	100.633	19.985	19.895	0.585
183.500	154.571	80.001	20.009	100.640	19.986	19.772	0.586
184.000	154.824	80.003	20.009	100.643	19.984	20.003	0.556
184.500	155.080	80.001	20.009	100.636	19.981	20.268	0.524
185.000	155.398	80.002	20.009	100.628	19.982	20.158	0.542
185.500	155.661	80.001	20.010	100.620	19.980	20.384	0.578
186.000	155.978	80.001	20.009	100.616	19.978	20.574	0.580
186.500	156.238	80.001	20.009	100.622	19.973	21.131	0.579
187.000	156.515	80.001	20.009	100.630	19.976	20.786	0.557
187.501	156.788	80.002	20.009	100.631	19.977	20.752	0.543
188.000	157.105	80.002	20.009	100.632	19.976	20.823	0.570
188.500	157.411	80.001	20.010	100.626	19.974	21.016	0.607
189.000	157.680	80.001	20.009	100.617	19.971	21.285	0.599
189.500	157.934	80.001	20.009	100.610	19.968	21.617	0.549
190.000	158.250	80.002	20.009	100.610	19.969	21.577	0.547
190.500	158.525	80.001	20.009	100.612	19.968	21.642	0.580
191.000	158.908	80.001	20.009	100.616	19.966	21.868	0.624
191.500	159.174	80.001	20.009	100.620	19.963	22.156	0.654
192.000	159.472	80.003	20.009	100.620	19.963	22.165	0.607
192.500	159.758	80.002	20.009	100.617	19.963	22.180	0.574
193.000	160.050	80.000	20.009	100.613	19.961	22.324	0.581
193.500	160.335	80.001	20.009	100.611	19.962	22.306	0.577
194.000	160.594	80.002	20.009	100.609	19.961	22.348	0.561
194.500	160.879	80.001	20.009	100.609	19.960	22.422	0.544
195.000	161.184	80.001	20.009	100.607	19.959	22.599	0.567
195.500	161.447	80.003	20.009	100.604	19.959	22.536	0.579
196.000	161.760	80.003	20.009	100.596	19.960	22.480	0.573
196.500	161.996	80.002	20.009	100.589	19.957	22.813	0.563
197.000	162.326	80.002	20.009	100.582	19.955	22.996	0.558
197.500	162.622	80.003	20.009	100.583	19.955	22.943	0.596
198.000	162.958	80.001	20.009	100.587	19.954	23.064	0.629
198.500	163.202	80.001	20.009	100.594	19.952	23.317	0.606
199.000	163.504	80.002	20.009	100.599	19.952	23.333	0.563
199.500	163.753	80.001	20.009	100.602	19.952	23.255	0.549
200.001	164.019	80.001	20.009	100.596	19.951	23.357	0.533
200.500	164.334	80.000	20.009	100.587	19.948	23.676	0.548
201.000	164.629	80.002	20.009	100.582	19.947	23.798	0.595
201.500	164.905	80.001	20.009	100.583	19.945	24.004	0.591
202.000	165.181	80.002	20.009	100.588	19.943	24.243	0.562
202.501	165.430	80.002	20.009	100.596	19.943	24.179	0.539
203.000	165.763	80.000	20.009	100.602	19.943	24.174	0.553
203.500	166.068	80.003	20.010	100.600	19.938	24.674	0.609
204.000	166.304	80.002	20.009	100.592	19.942	24.327	0.589
204.500	166.542	80.001	20.010	100.585	19.939	24.618	0.508
205.000	166.893	80.001	20.010	100.584	19.940	24.565	0.532
205.500	167.156	80.002	20.009	100.587	19.942	24.274	0.602
206.000	167.457	80.001	20.009	100.596	19.938	24.721	0.589
206.500	167.717	80.001	20.009	100.603	19.940	24.539	0.563
207.000	168.015	80.002	20.009	100.606	19.940	24.507	0.560
207.500	168.225	80.001	20.009	100.599	19.940	24.475	0.533
208.000	168.567	80.002	20.010	100.592	19.940	24.567	0.530
208.500	168.838	80.001	20.009	100.584	19.941	24.448	0.582
209.001	169.128	80.002	20.009	100.584	19.941	24.467	0.587
209.500	169.365	80.002	20.009	100.587	19.939	24.582	0.544
210.000	169.703	80.001	20.009	100.596	19.939	24.625	0.551
210.500	169.966	80.002	20.009	100.602	19.939	24.629	0.588
211.000	170.267	80.002	20.009	100.601	19.938	24.703	0.582
211.500	170.540	80.002	20.009	100.595	19.941	24.403	0.569
212.000	170.831	80.002	20.009	100.588	19.941	24.395	0.569
212.500	171.085	80.002	20.009	100.588	19.940	24.516	0.554
213.000	171.365	80.001	20.009	100.590	19.939	24.576	0.539
213.500	171.662	80.002	20.009	100.596	19.940	24.476	0.556
214.000	171.974	80.001	20.009	100.605	19.941	24.370	0.593
214.500	172.252	80.001	20.009	100.610	19.939	24.628	0.599
215.000	172.520	80.002	20.010	100.603	19.941	24.453	0.568
215.500	172.827	80.002	20.009	100.598	19.942	24.308	0.560
216.000	173.117	80.001	20.009	100.596	19.945	24.007	0.586
216.500	173.365	80.001	20.009	100.596	19.945	23.959	0.568
217.000	173.629	80.001	20.009	100.598	19.945	24.010	0.525
217.500	173.907	80.001	20.009	100.605	19.941	24.373	0.527
218.000	174.194	80.001	20.009	100.610	19.943	24.233	0.553
218.500	174.451	80.002	20.009	100.613	19.948	23.693	0.554
219.000	174.740	80.001	20.009	100.610	19.948	23.739	0.544
219.500	174.950	80.000	20.009	100.604	19.949	23.636	0.523
220.001	175.272	80.002	20.009	100.596	19.950	23.504	0.516
220.501	175.586	80.001	20.009	100.588	19.952	23.261	0.584
221.000	175.880	80.002	20.009	100.585	19.953	23.137	0.622
221.500	176.131	80.000	20.009	100.588	19.955	23.010	0.577
222.000	176.420	80.002	20.009	100.594	19.955	22.986	0.543
222.500	176.666	80.001	20.009	100.599	19.955	23.000	0.538
223.000	176.929	80.002	20.009	100.600	19.954	23.032	0.522
223.500	177.250	80.000	20.009	100.596	19.956	22.888	0.546
224.000	177.533	80.002	20.009	100.588	19.956	22.856	0.594
224.500	177.840	80.001	20.009	100.579	19.957	22.811	0.597
225.000	178.097	80.002	20.009	100.574	19.956	22.854	0.577
225.500	178.343	80.002	20.009	100.578	19.959	22.625	0.534
226.000	178.668	80.001	20.009	100.585	19.960	22.501	0.537
226.500	178.925	80.003	20.009	100.594	19.963	22.172	0.576
227.000	179.233	80.002	20.009	100.594	19.963	22.139	0.574
227.500	179.477	80.001	20.009	100.595	19.964	22.058	0.559
228.000	179.840	80.001	20.009	100.589	19.967	21.748	0.579
228.500	180.087	80.002	20.009	100.582	19.967	21.764	0.608
229.000	180.318	80.003	20.009	100.577	19.972	21.214	0.544
229.500	180.618	80.002	20.008	100.585	19.969	21.577	0.505
230.000	180.860	80.001	20.008	100.589	19.973	21.113	0.536
230.500	181.168	80.002	20.008	100.591	19.973	21.117	0.546
231.000	181.402	80.003	20.009	100.589	19.974	20.991	0.546
231.500	181.765	80.002	20.009	100.584	19.975	20.966	0.569
232.000	181.980	80.002	20.009	100.576	19.974	20.990	0.587
232.500	182.254	80.002	20.009	100.572	19.976	20.843	0.534
233.000	182.548	80.003	20.011	100.576	19.978	20.615	0.528
233.501	182.817	79.999	20.004	100.606	19.980	20.442	0.566
234.000	183.115	80.003	20.014	100.607	19.981	20.335	0.565
234.500	183.361	80.003	20.010	100.565	19.979	20.492	0.555
235.000	183.674	80.003	20.010	100.535	19.984	20.030	0.551
235.500	183.909	80.003	20.009	100.512	19.987	19.717	0.553
236.000	184.229	80.001	20.008	100.479	19.989	19.529	0.551
236.500	184.500	80.003	20.010	100.478	19.990	19.426	0.574
237.000	184.736	80.004	20.010	100.510	19.990	19.325	0.550
237.500	185.089	80.001	20.010	100.558	19.992	19.176	0.548
238.000	185.340	80.001	20.008	100.615	19.994	18.920	0.596
238.500	185.608	80.002	20.008	100.661	19.993	19.036	0.561
239.000	185.843	80.002	20.009	100.689	19.999	18.495	0.511
239.500	186.143	80.002	20.009	100.708	19.999	18.436	0.519
240.000	186.456	80.002	20.009	100.697	19.999	18.473	0.574
240.500	186.721	80.001	20.009	100.664	20.000	18.335	0.596
241.000	186.973	80.002	20.009	100.631	20.003	18.061	0.548
241.500	187.259	80.001	20.009	100.614	20.007	17.669	0.528
242.000	187.526	80.001	20.009	100.612	20.009	17.434	0.546
242.500	187.805	80.002	20.009	100.611	20.009	17.380	0.549
243.000	188.075	80.002	20.009	100.610	20.011	17.257	0.548
243.500	188.380	80.002	20.009	100.606	20.014	16.872	0.562
244.000	188.653	80.001	20.009	100.607	20.015	16.812	0.577
244.500	188.920	80.002	20.009	100.615	20.013	17.052	0.559
245.000	189.241	80.002	20.009	100.623	20.016	16.743	0.564
245.500	189.496	80.000	20.009	100.627	20.018	16.513	0.581
246.000	189.785	80.003	20.009	100.631	20.018	16.511	0.559
246.500	190.033	80.002	20.010	100.622	20.019	16.432	0.541
247.000	190.288	80.003	20.009	100.610	20.021	16.207	0.521
247.500	190.579	80.001	20.009	100.602	20.021	16.177	0.525
248.000	190.800	80.001	20.009	100.599	20.023	15.950	0.529
248.500	191.089	80.002	20.009	100.600	20.025	15.764	0.511
249.000	191.330	80.001	20.009	100.607	20.026	15.694	0.520
249.500	191.649	80.003	20.009	100.610	20.029	15.344	0.545
250.000	191.896	80.003	20.009	100.609	20.028	15.472	0.563
250.500	192.171	80.001	20.009	100.601	20.029	15.401	0.544
251.000	192.427	80.001	20.009	100.591	20.031	15.126	0.526
251.500	192.660	80.003	20.010	100.576	20.032	15.051	0.510
252.000	192.926	80.000	20.009	100.574	20.033	14.989	0.494
252.500	193.308	80.002	20.010	100.584	20.033	14.952	0.574
253.000	193.464	80.002	20.009	100.599	20.032	15.099	0.593
253.500	193.761	80.000	20.009	100.615	20.031	15.151	0.496
254.000	194.011	80.002	20.009	100.630	20.034	14.806	0.500
254.500	194.301	80.001	20.009	100.628	20.035	14.744	0.543
255.000	194.571	80.001	20.009	100.615	20.035	14.688	0.550
255.500	194.889	80.003	20.009	100.603	20.037	14.492	0.574
256.000	195.147	80.003	20.009	100.596	20.035	14.691	0.582
256.500	195.382	80.001	20.009	100.597	20.035	14.696	0.535
257.000	195.665	80.002	20.009	100.601	20.036	14.603	0.506
257.500	195.916	80.001	20.009	100.605	20.039	14.367	0.526
258.000	196.265	80.003	20.009	100.601	20.040	14.200	0.567
258.500	196.531	80.001	20.010	100.594	20.039	14.341	0.608
259.000	196.754	80.003	20.009	100.584	20.038	14.474	0.552
259.500	197.093	80.002	20.009	100.575	20.041	14.134	0.525
260.000	197.333	80.003	20.009	100.569	20.040	14.272	0.570
260.500	197.588	80.002	20.009	100.574	20.040	14.233	0.537
261.000	197.829	80.002	20.009	100.581	20.042	13.984	0.496
261.500	198.121	80.002	20.010	100.585	20.045	13.748	0.515
262.000	198.395	80.001	20.009	100.586	20.044	13.782	0.549
262.500	198.682	80.001	20.010	100.587	20.047	13.452	0.563
263.000	198.934	80.002	20.010	100.581	20.046	13.559	0.550
263.500	199.185	80.001	20.009	100.576	20.046	13.624	0.521
264.000	199.450	80.002	20.009	100.581	20.045	13.686	0.510
264.500	199.725	80.003	20.009	100.588	20.045	13.678	0.528
265.000	199.982	80.001	20.009	100.595	20.047	13.473	0.536
265.500	200.296	80.002	20.009	100.595	20.049	13.254	0.552
266.000	200.550	80.002	20.010	100.591	20.048	13.364	0.570
266.500	200.785	80.002	20.009	100.577	20.051	13.090	0.529
267.000	201.038	80.001	20.010	100.565	20.052	12.974	0.488
267.500	201.327	80.002	20.010	100.557	20.052	12.945	0.515
268.000	201.571	80.001	20.009	100.562	20.050	13.184	0.537
268.500	201.840	80.002	20.009	100.572	20.052	13.022	0.523
269.000	202.122	80.001	20.009	100.580	20.049	13.260	0.532
269.500	202.328	80.003	20.009	100.583	20.052	13.029	0.520
270.000	202.639	80.002	20.009	100.575	20.056	12.623	0.502
270.500	202.844	80.002	20.010	100.563	20.052	12.940	0.516
271.000	203.137	80.004	20.010	100.551	20.051	13.122	0.507
271.500	203.394	80.002	20.010	100.551	20.053	12.895	0.524
272.000	203.657	80.001	20.009	100.554	20.052	13.040	0.535
272.501	203.862	80.001	20.009	100.565	20.052	12.956	0.494
273.000	204.146	80.002	20.009	100.571	20.054	12.791	0.479
273.500	204.413	80.002	20.009	100.572	20.051	13.070	0.520
274.001	204.704	80.002	20.009	100.563	20.051	13.087	0.555
274.501	204.971	80.003	20.009	100.553	20.051	13.046	0.558
275.000	205.215	80.001	20.010	100.549	20.054	12.779	0.534
275.500	205.497	80.001	20.009	100.549	20.051	13.134	0.518
276.000	205.749	80.003	20.009	100.556	20.051	13.106	0.530
276.500	205.973	80.002	20.009	100.566	20.053	12.908	0.505
277.000	206.300	80.002	20.009	100.574	20.051	13.054	0.513
277.500	206.558	80.001	20.010	100.569	20.054	12.792	0.568
278.001	206.788	80.003	20.009	100.562	20.054	12.793	0.536
278.500	207.090	80.002	20.010	100.551	20.055	12.676	0.510
279.000	207.331	80.002	20.009	100.541	20.054	12.762	0.538
279.500	207.575	80.002	20.010	100.539	20.057	12.504	0.515
280.000	207.820	80.002	20.009	100.549	20.058	12.392	0.487
280.500	208.054	80.002	20.009	100.564	20.057	12.460	0.483
281.000	208.328	80.001	20.009	100.576	20.058	12.343	0.494
281.500	208.600	80.002	20.009	100.584	20.056	12.543	0.527
282.000	208.812	80.003	20.009	100.580	20.059	12.257	0.515
282.500	209.118	80.001	20.009	100.570	20.058	12.366	0.501
283.000	209.367	80.002	20.009	100.559	20.060	12.204	0.537
283.500	209.594	80.002	20.009	100.555	20.060	12.210	0.516
284.000	209.903	80.002	20.009	100.556	20.059	12.240	0.506
284.500	210.120	80.000	20.009	100.565	20.061	12.050	0.530
285.000	210.373	80.003	20.009	100.572	20.060	12.162	0.498
285.500	210.590	80.002	20.010	100.565	20.061	12.055	0.470
286.000	210.865	80.002	20.010	100.550	20.060	12.145	0.481
286.500	211.167	80.001	20.010	100.538	20.061	12.068	0.535
287.000	211.399	80.002	20.009	100.531	20.059	12.244	0.556
287.500	211.676	80.002	20.009	100.533	20.061	12.103	0.521
288.000	211.887	80.001	20.009	100.539	20.060	12.183	0.498
288.500	212.116	80.002	20.009	100.546	20.060	12.141	0.464
289.000	212.380	80.002	20.009	100.549	20.059	12.276	0.466
289.500	212.641	80.002	20.009	100.542	20.060	12.155	0.510
290.000	212.871	80.002	20.009	100.534	20.060	12.128	0.508
290.500	213.085	80.002	20.009	100.536	20.059	12.230	0.467
291.000	213.347	80.000	20.009	100.544	20.059	12.270	0.460
291.500	213.593	80.002	20.009	100.552	20.060	12.149	0.492
292.000	213.828	80.001	20.009	100.562	20.058	12.322	0.495
292.500	214.103	80.001	20.009	100.561	20.057	12.437	0.496
293.000	214.330	80.003	20.009	100.555	20.058	12.348	0.507
293.500	214.573	80.002	20.009	100.547	20.058	12.334	0.486
294.000	214.872	80.001	20.010	100.542	20.059	12.313	0.505
294.500	215.108	80.001	20.009	100.544	20.056	12.567	0.538
295.000	215.356	80.001	20.009	100.552	20.058	12.379	0.509
295.500	215.615	80.000	20.009	100.560	20.055	12.661	0.496
296.000	215.854	80.003	20.009	100.566	20.055	12.630	0.503
296.500	216.127	80.002	20.009	100.562	20.056	12.551	0.505
297.000	216.391	80.002	20.009	100.555	20.058	12.332	0.524
297.500	216.612	80.002	20.009	100.547	20.057	12.437	0.511
298.001	216.901	80.001	20.009	100.540	20.056	12.557	0.497
298.500	217.130	80.002	20.009	100.537	20.058	12.402	0.514
299.000	217.408	80.001	20.009	100.540	20.058	12.421	0.513
299.500	217.640	80.002	20.009	100.540	20.057	12.437	0.509
300.000	217.894	80.002	20.009	100.540	20.058	12.409	0.498
300.500	218.190	80.002	20.010	100.538	20.058	12.365	0.518
301.000	218.433	80.001	20.010	100.532	20.059	12.270	0.545
301.500	218.658	80.002	20.009	100.528	20.061	12.024	0.503
302.000	218.904	80.002	20.009	100.531	20.059	12.281	0.470
302.500	219.132	80.002	20.009	100.538	20.058	12.412	0.472
303.000	219.403	80.001	20.009	100.544	20.058	12.361	0.486
303.500	219.636	80.002	20.009	100.549	20.062	11.985	0.502
304.000	219.907	80.002	20.009	100.550	20.059	12.257	0.504
304.500	220.139	80.001	20.010	100.543	20.061	12.068	0.503
305.000	220.351	80.003	20.010	100.536	20.058	12.395	0.474
305.500	220.653	80.001	20.009	100.534	20.056	12.571	0.479
306.000	220.877	80.002	20.009	100.537	20.060	12.140	0.519
306.500	221.177	80.002	20.010	100.539	20.060	12.156	0.525
307.000	221.396	80.001	20.009	100.546	20.061	12.026	0.522
307.500	221.607	80.002	20.010	100.546	20.060	12.152	0.474
308.000	221.857	80.003	20.010	100.539	20.060	12.174	0.445
308.500	222.117	80.001	20.009	100.534	20.062	11.989	0.486
309.000	222.339	80.003	20.009	100.533	20.060	12.147	0.496
309.500	222.558	80.001	20.009	100.538	20.064	11.785	0.461
310.000	222.856	80.001	20.009	100.546	20.064	11.737	0.479
310.500	223.105	80.002	20.009	100.553	20.064	11.752	0.533
311.000	223.324	80.001	20.009	100.553	20.063	11.820	0.508
311.500	223.583	80.001	20.009	100.550	20.062	11.948	0.472
312.000	223.822	80.003	20.010	100.542	20.064	11.792	0.488
312.500	224.061	80.003	20.009	100.536	20.063	11.860	0.488
313.000	224.292	80.001	20.009	100.537	20.065	11.638	0.475
313.500	224.567	80.001	20.009	100.546	20.068	11.290	0.488
314.000	224.755	80.002	20.009	100.551	20.064	11.733	0.484
314.500	224.999	80.001	20.009	100.552	20.066	11.575	0.447
315.000	225.281	80.003	20.009	100.551	20.066	11.554	0.479
315.500	225.505	80.003	20.010	100.542	20.064	11.759	0.516
316.000	225.811	80.002	20.009	100.534	20.065	11.646	0.519
316.500	226.051	80.001	20.009	100.531	20.065	11.698	0.538
317.000	226.288	80.002	20.009	100.538	20.066	11.497	0.511
317.500	226.571	80.004	20.010	100.540	20.068	11.377	0.498
318.000	226.799	80.003	20.010	100.542	20.069	11.239	0.516
318.500	227.087	80.004	20.010	100.541	20.066	11.563	0.514
319.000	227.304	80.005	20.010	100.536	20.070	11.160	0.510
319.500	227.553	80.002	20.010	100.528	20.067	11.421	0.485
320.000	227.822	80.002	20.009	100.526	20.069	11.215	0.492
320.500	228.034	80.002	20.009	100.528	20.065	11.632	0.500
321.000	228.254	80.003	20.009	100.529	20.071	11.051	0.457
321.500	228.505	80.002	20.009	100.531	20.068	11.388	0.451
322.000	228.793	80.001	20.010	100.524	20.066	11.514	0.505
322.501	229.012	80.002	20.010	100.517	20.065	11.610	0.523
323.000	229.306	80.001	20.009	100.513	20.069	11.237	0.510
323.500	229.517	80.003	20.009	100.513	20.070	11.174	0.509
324.000	229.796	80.002	20.009	100.519	20.069	11.214	0.498
324.500	230.019	80.002	20.009	100.531	20.070	11.124	0.496
325.001	230.274	80.003	20.010	100.538	20.071	11.046	0.490
325.500	230.531	80.002	20.009	100.540	20.069	11.189	0.495
326.000	230.815	80.001	20.010	100.538	20.070	11.161	0.526
326.500	231.059	80.003	20.009	100.534	20.070	11.151	0.534
327.000	231.280	80.003	20.009	100.531	20.072	10.944	0.496
327.500	231.507	80.002	20.009	100.539	20.072	10.911	0.456
328.000	231.779	80.002	20.009	100.547	20.073	10.834	0.474
328.500	232.041	80.004	20.009	100.554	20.073	10.866	0.517
329.000	232.293	80.003	20.010	100.555	20.071	11.055	0.524
329.500	232.547	80.002	20.010	100.551	20.073	10.812	0.510
330.000	232.786	80.003	20.010	100.544	20.072	10.919	0.499
330.500	233.060	80.002	20.009	100.536	20.074	10.722	0.503
331.000	233.286	80.002	20.009	100.531	20.075	10.577	0.506
331.500	233.528	80.001	20.009	100.533	20.074	10.679	0.484
332.000	233.776	80.002	20.009	100.542	20.077	10.433	0.479
332.500	233.972	80.001	20.009	100.545	20.072	10.882	0.467
333.000	234.302	80.003	20.009	100.545	20.075	10.609	0.485
333.500	234.546	80.002	20.010	100.543	20.074	10.686	0.550
334.000	234.786	80.001	20.009	100.541	20.075	10.673	0.529
334.500	235.021	80.002	20.009	100.536	20.072	10.934	0.479
335.000	235.260	80.001	20.010	100.541	20.073	10.850	0.474
335.500	235.501	80.002	20.009	100.544	20.073	10.867	0.477
336.000	235.795	80.002	20.009	100.545	20.075	10.669	0.508
336.500	236.051	80.003	20.009	100.545	20.077	10.424	0.542
337.000	236.285	80.001	20.009	100.540	20.078	10.264	0.520
337.500	236.498	80.001	20.009	100.530	20.076	10.477	0.469
338.000	236.761	80.003	20.010	100.527	20.076	10.497	0.461
338.500	236.998	80.001	20.009	100.530	20.078	10.267	0.488
339.000	237.282	80.001	20.009	100.532	20.078	10.312	0.511
339.500	237.543	80.001	20.009	100.536	20.074	10.685	0.533
340.000	237.733	80.001	20.009	100.536	20.074	10.672	0.498
340.500	238.028	80.003	20.010	100.528	20.076	10.477	0.468
341.000	238.282	80.002	20.009	100.517	20.076	10.547	0.517
341.500	238.504	80.001	20.009	100.514	20.074	10.766	0.513
342.000	238.714	80.001	20.009	100.514	20.076	10.566	0.454
342.500	238.958	80.002	20.009	100.516	20.073	10.835	0.443
343.000	239.268	80.001	20.009	100.524	20.076	10.540	0.504
343.500	239.545	80.001	20.009	100.532	20.073	10.792	0.571
344.000	239.805	80.003	20.009	100.533	20.075	10.643	0.562
344.500	240.004	80.002	20.009	100.532	20.072	10.903	0.498
345.001	240.251	80.002	20.009	100.534	20.076	10.540	0.452
345.500	240.521	80.002	20.009	100.542	20.075	10.643	0.481
346.000	240.723	80.003	20.009	100.550	20.076	10.554	0.494
346.500	241.026	80.002	20.009	100.558	20.071	10.997	0.489
347.000	241.231	80.001	20.009	100.561	20.073	10.789	0.507
347.500	241.488	80.002	20.010	100.560	20.073	10.821	0.485
348.000	241.778	80.001	20.009	100.551	20.071	11.006	0.504
348.500	242.016	80.003	20.009	100.543	20.073	10.874	0.537
349.001	242.269	80.000	20.009	100.543	20.070	11.171	0.510
349.500	242.520	80.002	20.009	100.549	20.069	11.231	0.498
350.000	242.754	80.001	20.009	100.556	20.071	11.029	0.494
350.500	243.012	80.001	20.009	100.558	20.070	11.095	0.488
351.000	243.258	80.002	20.009	100.555	20.069	11.245	0.498
351.500	243.499	80.001	20.009	100.542	20.070	11.149	0.496
352.000	243.788	80.001	20.009	100.533	20.072	10.977	0.508
352.500	244.091	80.001	20.009	100.527	20.072	10.890	0.561
353.000	244.314	80.000	20.009	100.530	20.071	11.055	0.559
353.500	244.575	80.002	20.009	100.532	20.070	11.153	0.505
354.000	244.843	80.001	20.009	100.537	20.070	11.161	0.506
354.500	245.058	80.001	20.009	100.537	20.071	11.073	0.506
355.000	245.348	80.003	20.010	100.534	20.070	11.115	0.494
355.500	245.573	80.002	20.009	100.530	20.073	10.834	0.510
356.000	245.803	80.000	20.009	100.531	20.070	11.178	0.485
356.500	246.038	80.001	20.009	100.537	20.071	11.073	0.460
357.000	246.274	80.002	20.009	100.538	20.069	11.238	0.468
357.500	246.563	80.002	20.009	100.537	20.069	11.251	0.498
358.000	246.807	80.003	20.010	100.532	20.068	11.360	0.529
358.501	247.063	80.001	20.009	100.524	20.066	11.553	0.517
359.000	247.326	80.002	20.010	100.519	20.066	11.577	0.510
359.500	247.524	80.002	20.010	100.521	20.068	11.297	0.490
360.000	247.822	80.002	20.009	100.530	20.068	11.290	0.478
360.500	248.026	80.001	20.009	100.541	20.067	11.435	0.499
361.000	248.334	80.002	20.009	100.546	20.068	11.377	0.507
361.500	248.534	80.001	20.009	100.547	20.064	11.711	0.509
362.000	248.826	80.001	20.009	100.544	20.066	11.513	0.499
362.500	249.039	80.002	20.009	100.537	20.064	11.797	0.498
363.000	249.296	80.002	20.009	100.532	20.067	11.446	0.488
363.500	249.539	80.001	20.009	100.538	20.066	11.554	0.486
364.000	249.791	80.002	20.009	100.539	20.066	11.538	0.497
364.500	250.037	80.002	20.009	100.540	20.064	11.720	0.496
365.000	250.275	80.000	20.009	100.540	20.065	11.601	0.491
365.500	250.543	80.002	20.010	100.540	20.067	11.493	0.495
366.000	250.786	80.001	20.009	100.533	20.065	11.665	0.509
366.500	251.030	80.001	20.009	100.532	20.065	11.696	0.499
367.000	251.329	80.002	20.009	100.534	20.062	11.913	0.515
367.500	251.599	80.001	20.009	100.540	20.062	11.999	0.556
368.000	251.820	80.002	20.009	100.544	20.064	11.782	0.530
368.500	252.130	80.001	20.009	100.544	20.062	11.933	0.511
369.000	252.342	80.001	20.009	100.544	20.061	12.029	0.526
369.501	252.594	80.002	20.009	100.542	20.062	12.001	0.493
370.000	252.848	80.002	20.009	100.536	20.062	11.968	0.485
370.500	253.153	80.001	20.009	100.535	20.063	11.802	0.532
371.000	253.385	80.001	20.009	100.538	20.064	11.775	0.548
371.500	253.619	80.003	20.009	100.539	20.060	12.138	0.501
372.000	253.897	80.000	20.010	100.539	20.062	11.941	0.489
372.500	254.118	80.003	20.009	100.537	20.061	12.092	0.505
373.000	254.379	80.001	20.009	100.533	20.062	11.970	0.490
373.500	254.629	80.001	20.009	100.533	20.061	12.082	0.497
374.000	254.840	80.001	20.009	100.540	20.059	12.264	0.487
374.500	255.133	80.000	20.009	100.546	20.061	12.090	0.483
375.000	255.339	80.002	20.009	100.547	20.061	12.101	0.501
375.500	255.634	80.001	20.009	100.542	20.057	12.487	0.499
376.000	255.888	80.001	20.009	100.536	20.059	12.250	0.525
376.500	256.127	80.002	20.009	100.524	20.056	12.613	0.521
377.000	256.400	80.002	20.009	100.518	20.057	12.508	0.503
377.500	256.644	80.000	20.009	100.517	20.054	12.779	0.515
378.000	256.876	80.001	20.009	100.522	20.053	12.856	0.496
378.500	257.105	80.001	20.009	100.526	20.053	12.884	0.468
379.000	257.411	80.001	20.010	100.525	20.053	12.872	0.498
379.500	257.649	80.002	20.009	100.517	20.053	12.896	0.540
380.000	257.889	80.001	20.010	100.510	20.052	12.994	0.511
380.500	258.155	80.001	20.009	100.507	20.051	13.129	0.491
381.000	258.398	80.001	20.009	100.507	20.050	13.141	0.507
381.500	258.710	80.001	20.009	100.514	20.049	13.303	0.532
382.000	258.907	80.002	20.009	100.519	20.047	13.483	0.532
382.500	259.165	80.001	20.009	100.520	20.048	13.362	0.482
383.000	259.410	80.001	20.009	100.515	20.046	13.585	0.479
383.500	259.690	80.003	20.009	100.508	20.045	13.701	0.514
384.000	259.923	80.001	20.010	100.502	20.048	13.429	0.519
384.500	260.179	80.002	20.010	100.505	20.048	13.387	0.501
385.000	260.438	80.002	20.009	100.511	20.046	13.568	0.502
385.500	260.695	80.001	20.009	100.518	20.047	13.533	0.516
386.000	260.978	80.002	20.009	100.520	20.043	13.920	0.528
386.500	261.251	80.002	20.009	100.523	20.043	13.882	0.548
387.000	261.467	80.003	20.010	100.521	20.045	13.752	0.522
387.500	261.717	79.999	20.009	100.522	20.044	13.759	0.478
388.001	261.988	80.002	20.009	100.523	20.047	13.525	0.494
388.500	262.232	80.001	20.009	100.530	20.045	13.681	0.518
389.000	262.497	80.001	20.009	100.533	20.044	13.791	0.512
389.500	262.729	80.002	20.009	100.533	20.042	13.995	0.503
390.000	263.007	80.001	20.010	100.526	20.043	13.926	0.503
390.501	263.248	80.001	20.009	100.519	20.042	14.035	0.514
391.000	263.458	80.003	20.009	100.513	20.040	14.196	0.485
391.500	263.736	80.001	20.009	100.512	20.038	14.417	0.470
392.000	263.971	80.001	20.009	100.515	20.039	14.358	0.500
392.500	264.241	80.001	20.009	100.521	20.038	14.439	0.509
393.000	264.489	80.001	20.010	100.522	20.034	14.792	0.511
393.500	264.696	80.001	20.010	100.520	20.035	14.711	0.487
394.000	264.941	80.002	20.009	100.513	20.032	15.086	0.454
394.500	265.223	80.001	20.009	100.506	20.030	15.244	0.490
395.000	265.514	80.001	20.009	100.507	20.031	15.180	0.550
395.500	265.753	80.001	20.009	100.514	20.025	15.793	0.551
396.000	265.995	80.002	20.009	100.521	20.026	15.669	0.505
396.500	266.221	80.002	20.010	100.526	20.029	15.330	0.474
397.000	266.528	80.002	20.009	100.524	20.029	15.383	0.501
397.500	266.705	80.002	20.010	100.516	20.028	15.504	0.509
398.000	266.974	80.002	20.009	100.508	20.024	15.903	0.465
398.500	267.230	80.001	20.010	100.508	20.025	15.744	0.485
399.000	267.453	80.002	20.009	100.510	20.024	15.845	0.502
399.500	267.735	80.002	20.009	100.518	20.024	15.875	0.492
400.000	268.036	80.002	20.009	100.521	20.020	16.259	0.544
400.500	268.277	80.001	20.009	100.521	20.019	16.371	0.563
401.000	268.504	80.003	20.009	100.514	20.019	16.386	0.505
401.500	268.827	80.002	20.009	100.506	20.015	16.820	0.509
402.000	269.058	80.001	20.009	100.500	20.015	16.756	0.552
402.500	269.295	80.002	20.010	100.502	20.013	17.005	0.511
403.000	269.544	80.002	20.010	100.506	20.013	16.971	0.477
403.500	269.829	80.001	20.009	100.507	20.011	17.222	0.510
404.000	270.098	80.002	20.009	100.507	20.014	16.923	0.544
404.500	270.299	80.003	20.009	100.504	20.009	17.368	0.512
405.000	270.637	80.001	20.009	100.504	20.010	17.272	0.504
405.500	270.862	80.003	20.010	100.507	20.010	17.308	0.551
406.000	271.139	80.001	20.009	100.514	20.009	17.393	0.532
406.500	271.361	80.002	20.010	100.523	20.008	17.537	0.500
407.000	271.585	80.001	20.009	100.530	20.005	17.848	0.473
407.500	271.860	80.002	20.009	100.527	20.002	18.134	0.473
408.000	272.088	80.002	20.010	100.519	20.002	18.097	0.501
408.500	272.392	80.002	20.009	100.512	20.002	18.110	0.518
409.000	272.558	80.003	20.009	100.508	20.001	18.243	0.501
409.500	272.832	80.002	20.009	100.509	20.001	18.258	0.455
410.000	273.095	80.003	20.010	100.515	19.999	18.467	0.488
410.500	273.345	80.002	20.009	100.521	19.998	18.490	0.525
411.000	273.623	80.001	20.009	100.521	19.998	18.544	0.521
411.500	273.785	80.001	20.009	100.516	19.995	18.825	0.484
412.000	274.101	80.003	20.010	100.509	19.996	18.732	0.459
412.500	274.321	80.001	20.009	100.504	19.995	18.859	0.507
413.000	274.614	80.001	20.009	100.505	19.993	19.073	0.525
413.500	274.912	80.003	20.009	100.507	19.991	19.209	0.552
414.000	275.153	80.003	20.010	100.506	19.993	19.094	0.565
414.500	275.377	80.002	20.010	100.505	19.989	19.481	0.502
415.000	275.639	80.001	20.009	100.499	19.989	19.430	0.475
415.500	275.862	80.002	20.009	100.493	19.987	19.696	0.485
416.000	276.090	80.002	20.009	100.497	19.987	19.665	0.468
416.500	276.419	80.001	20.008	100.505	19.987	19.626	0.505
417.000	276.652	80.002	20.010	100.513	19.984	19.945	0.560
417.500	276.722	80.001	20.010	100.518	19.986	19.751	0.432
418.000	277.191	80.003	20.010	100.517	19.983	20.037	0.421
418.500	277.357	80.002	20.009	100.511	19.980	20.380	0.587
419.000	277.663	80.002	20.009	100.504	19.981	20.311	0.554
419.500	277.822	80.003	20.009	100.503	19.980	20.429	0.469
420.000	278.218	80.002	20.010	100.508	19.977	20.704	0.510
420.500	278.504	80.002	20.009	100.513	19.976	20.811	0.618
421.000	278.668	80.003	20.010	100.513	19.976	20.794	0.566
421.500	278.919	80.002	20.010	100.512	19.975	20.924	0.433
422.000	279.195	80.002	20.009	100.505	19.974	21.032	0.471
422.500	279.208	80.000	20.010	100.502	19.977	20.674	0.408
423.000	279.660	80.002	20.009	100.505	19.975	20.935	0.377
423.500	279.843	80.002	20.009	100.512	19.973	21.121	0.550
424.000	280.088	80.000	20.009	100.513	19.971	21.308	0.531
424.500	280.340	80.003	20.010	100.513	19.970	21.457	0.463
425.000	280.595	80.002	20.010	100.508	19.967	21.683	0.502
425.500	280.862	80.002	20.009	100.501	19.968	21.611	0.515
426.000	281.124	80.002	20.010	100.493	19.963	22.114	0.526
426.500	281.308	80.002	20.009	100.492	19.965	21.889	0.488
427.000	281.558	80.002	20.009	100.492	19.964	22.000	0.440
427.500	281.804	80.003	20.009	100.492	19.962	22.193	0.465
428.000	282.106	80.003	20.009	100.488	19.963	22.125	0.522
428.500	282.310	80.002	20.009	100.480	19.963	22.097	0.527
429.000	282.589	80.003	20.010	100.478	19.963	22.173	0.494
429.500	282.866	80.002	20.009	100.478	19.962	22.271	0.520
430.000	283.137	80.004	20.010	100.479	19.961	22.383	0.552
430.500	283.330	80.003	20.009	100.483	19.959	22.512	0.506
431.000	283.600	80.002	20.010	100.490	19.958	22.663	0.463
431.500	283.829	80.003	20.010	100.489	19.957	22.723	0.481
432.000	284.116	80.002	20.010	100.482	19.956	22.862	0.508
432.500	284.334	80.003	20.009	100.474	19.956	22.809	0.511
433.000	284.591	80.002	20.009	100.472	19.952	23.266	0.490
433.500	284.854	80.002	20.009	100.471	19.953	23.210	0.497
434.000	285.042	80.002	20.009	100.477	19.951	23.330	0.485
434.500	285.344	80.003	20.009	100.484	19.950	23.436	0.471
435.000	285.553	80.002	20.010	100.490	19.949	23.611	0.500
435.500	285.825	80.002	20.009	100.492	19.948	23.657	0.496
436.000	286.037	80.002	20.009	100.493	19.947	23.730	0.482
436.500	286.333	80.002	20.009	100.493	19.945	24.017	0.496
437.000	286.582	80.003	20.009	100.494	19.946	23.869	0.526
437.500	286.799	80.001	20.009	100.497	19.944	24.075	0.505
438.000	287.089	80.003	20.009	100.497	19.942	24.302	0.487
438.500	287.353	80.001	20.009	100.495	19.942	24.309	0.531
439.000	287.592	80.004	20.009	100.491	19.941	24.407	0.528
439.500	287.800	80.001	20.010	100.489	19.941	24.364	0.475
440.000	288.096	80.002	20.009	100.489	19.939	24.563	0.476
440.500	288.327	80.003	20.009	100.495	19.939	24.651	0.516
441.000	288.574	80.002	20.009	100.501	19.937	24.835	0.502
441.500	288.806	80.002	20.009	100.504	19.935	25.015	0.479
442.000	289.066	80.002	20.010	100.505	19.937	24.822	0.486
442.500	289.347	80.002	20.009	100.504	19.934	25.115	0.516
443.000	289.584	80.002	20.009	100.499	19.935	25.029	0.529
443.500	289.840	80.002	20.010	100.502	19.937	24.851	0.505
444.000	290.120	80.003	20.009	100.508	19.935	24.994	0.514
444.500	290.377	80.003	20.009	100.514	19.936	24.943	0.537
445.000	290.657	80.001	20.010	100.514	19.936	24.844	0.537
445.500	290.903	80.003	20.009	100.512	19.935	24.986	0.531
446.000	291.158	80.002	20.009	100.505	19.933	25.225	0.514
446.500	291.372	80.003	20.009	100.505	19.934	25.118	0.485
447.000	291.674	80.003	20.010	100.508	19.933	25.190	0.492
447.500	291.913	80.002	20.009	100.515	19.931	25.452	0.528
448.000	292.181	80.004	20.010	100.523	19.932	25.273	0.524
448.500	292.423	80.002	20.010	100.524	19.931	25.437	0.509
449.000	292.615	80.002	20.009	100.518	19.930	25.483	0.472
449.500	292.853	80.002	20.010	100.512	19.928	25.765	0.432
450.000	293.167	80.002	20.009	100.510	19.928	25.706	0.490
450.500	293.373	80.002	20.010	100.510	19.928	25.751	0.536
451.000	293.650	80.003	20.009	100.513	19.926	25.981	0.502
451.500	293.882	80.001	20.010	100.516	19.924	26.136	0.496
452.000	294.148	80.004	20.009	100.515	19.923	26.268	0.504
452.500	294.358	80.003	20.010	100.509	19.920	26.574	0.487
453.000	294.618	80.003	20.010	100.503	19.920	26.500	0.473
453.500	294.851	80.002	20.009	100.508	19.918	26.739	0.482
454.000	295.127	80.001	20.009	100.515	19.917	26.830	0.501
454.500	295.362	80.002	20.009	100.522	19.918	26.815	0.510
455.000	295.596	80.003	20.010	100.525	19.915	27.065	0.490
455.500	295.878	80.002	20.009	100.523	19.915	27.076	0.492
456.000	296.118	80.001	20.008	100.518	19.915	27.092	0.519
456.500	296.320	80.002	20.010	100.500	19.915	27.096	0.482
457.000	296.595	80.003	20.011	100.467	19.913	27.313	0.460
457.500	296.867	80.002	20.009	100.450	19.911	27.461	0.512
458.000	297.102	80.002	20.009	100.445	19.911	27.511	0.527
458.500	297.366	80.002	20.009	100.442	19.912	27.394	0.503
459.000	297.649	80.004	20.009	100.451	19.908	27.780	0.523
459.500	297.922	80.003	20.010	100.476	19.906	27.963	0.551
460.000	298.145	80.003	20.009	100.493	19.904	28.232	0.526
460.500	298.424	80.002	20.009	100.498	19.904	28.244	0.499
461.000	298.689	80.001	20.009	100.503	19.902	28.394	0.523
461.500	298.962	80.002	20.009	100.506	19.901	28.511	0.541
462.000	299.235	80.003	20.009	100.507	19.902	28.419	0.542
462.500	299.449	80.002	20.009	100.505	19.900	28.632	0.517
463.000	299.681	80.002	20.009	100.505	19.899	28.719	0.466
463.500	299.935	80.001	20.009	100.502	19.897	28.941	0.466
464.000	300.186	80.004	20.009	100.502	19.897	28.956	0.496
464.500	300.433	80.001	20.009	100.503	19.894	29.267	0.502
465.001	300.722	80.003	20.009	100.503	19.894	29.202	0.517
465.500	300.946	80.001	20.008	100.502	19.895	29.096	0.524
466.000	301.187	80.002	20.010	100.495	19.893	29.369	0.489
466.500	301.440	80.002	20.011	100.486	19.894	29.270	0.480
467.000	301.668	80.001	20.008	100.509	19.890	29.685	0.488
467.500	301.961	80.001	20.008	100.541	19.887	29.928	0.501
468.000	302.198	80.001	20.009	100.566	19.886	30.095	0.525
468.500	302.455	80.002	20.009	100.582	19.883	30.352	0.512
469.000	302.686	80.001	20.010	100.594	19.882	30.495	0.491
469.500	302.945	80.002	20.009	100.568	19.880	30.625	0.489
470.000	303.182	80.001	20.010	100.535	19.880	30.614	0.493
470.500	303.485	80.003	20.009	100.512	19.874	31.254	0.518
471.000	303.699	80.001	20.010	100.503	19.872	31.501	0.529
471.500	303.976	80.002	20.009	100.505	19.868	31.854	0.504
472.000	304.232	80.002	20.009	100.510	19.867	32.012	0.512
472.501	304.526	79.999	20.010	100.511	19.866	32.059	0.541
473.000	304.753	80.002	20.009	100.510	19.863	32.390	0.536
473.500	304.996	80.002	20.010	100.507	19.862	32.555	0.496
474.000	305.282	80.002	20.009	100.499	19.860	32.726	0.499
474.500	305.507	80.000	20.009	100.499	19.858	32.902	0.520
475.000	305.739	80.001	20.009	100.505	19.851	33.606	0.484
475.500	305.996	80.002	20.009	100.512	19.846	34.158	0.473
476.000	306.206	80.002	20.010	100.513	19.845	34.239	0.478
476.500	306.488	80.001	20.009	100.513	19.843	34.456	0.480
477.000	306.746	80.003	20.009	100.505	19.839	34.863	0.517
477.501	306.986	80.001	20.009	100.498	19.836	35.223	0.519
478.000	307.238	80.002	20.009	100.492	19.835	35.284	0.495
478.500	307.533	80.001	20.009	100.492	19.829	35.868	0.520
479.000	307.807	80.001	20.010	100.492	19.831	35.688	0.558
479.500	308.013	80.002	20.009	100.494	19.825	36.294	0.524
480.000	308.268	80.002	20.009	100.493	19.822	36.635	0.471
480.500	308.530	80.002	20.010	100.493	19.817	37.091	0.489
481.000	308.838	80.002	20.010	100.494	19.815	37.377	0.543
481.501	309.078	80.002	20.009	100.501	19.813	37.530	0.559
482.000	309.317	80.001	20.010	100.502	19.809	37.976	0.514
482.500	309.582	80.001	20.009	100.499	19.806	38.308	0.492
483.000	309.841	80.003	20.010	100.492	19.801	38.812	0.514
483.500	310.067	80.002	20.010	100.482	19.797	39.231	0.505
484.000	310.305	80.003	20.010	100.472	19.795	39.438	0.475
484.500	310.571	80.002	20.009	100.471	19.790	39.854	0.484
485.000	310.814	80.002	20.009	100.474	19.786	40.279	0.506
485.500	311.112	80.003	20.010	100.479	19.780	40.882	0.525
486.000	311.333	80.002	20.009	100.481	19.779	41.023	0.530
486.500	311.594	80.001	20.010	100.476	19.772	41.727	0.501
487.000	311.805	80.002	20.010	100.473	19.769	42.081	0.477
487.500	312.039	80.002	20.009	100.473	19.766	42.363	0.458
488.000	312.366	80.001	20.009	100.476	19.758	43.149	0.503
488.500	312.578	80.002	20.009	100.483	19.756	43.386	0.550
489.000	312.871	80.001	20.009	100.490	19.751	43.869	0.522
489.500	313.115	80.002	20.010	100.489	19.744	44.673	0.521
490.000	313.372	80.003	20.010	100.480	19.739	45.166	0.519
490.500	313.699	80.001	20.009	100.473	19.734	45.643	0.542
491.000	313.854	80.002	20.009	100.472	19.731	45.948	0.533
491.500	314.047	80.002	20.009	100.472	19.725	46.610	0.415
492.000	314.347	80.002	20.009	100.478	19.719	47.245	0.421
492.500	314.604	80.002	20.009	100.485	19.713	47.835	0.525
493.000	314.862	80.001	20.010	100.485	19.707	48.431	0.536
493.500	315.108	80.003	20.010	100.477	19.704	48.742	0.509
494.000	315.381	80.001	20.009	100.469	19.698	49.354	0.511
494.500	315.629	80.002	20.009	100.468	19.693	49.922	0.520
495.000	315.894	80.001	20.010	100.469	19.688	50.417	0.517
495.500	316.160	80.003	20.010	100.474	19.683	50.951	0.523
496.000	316.400	80.002	20.010	100.474	19.676	51.656	0.519
496.501	316.676	80.002	20.010	100.475	19.670	52.259	0.511
497.000	316.962	80.003	20.010	100.465	19.663	53.016	0.539
497.500	317.207	80.002	20.009	100.456	19.658	53.467	0.547
498.000	317.446	80.002	20.009	100.450	19.651	54.227	0.507
498.500	317.677	80.000	20.009	100.455	19.646	54.688	0.477
499.000	317.924	80.001	20.009	100.459	19.637	55.667	0.474
499.500	318.176	80.003	20.010	100.464	19.630	56.340	0.488
500.000	318.468	80.003	20.010	100.465	19.624	57.019	0.521
500.500	318.739	80.001	20.010	100.464	19.619	57.451	0.554
501.000	318.945	80.001	20.010	100.459	19.610	58.433	0.520
501.500	319.204	80.001	20.009	100.456	19.604	59.024	0.471
502.000	319.501	80.002	20.009	100.457	19.596	59.882	0.511
502.500	319.761	80.002	20.009	100.462	19.591	60.316	0.557
503.000	319.983	80.001	20.010	100.462	19.582	61.252	0.519
503.500	320.253	80.001	20.010	100.461	19.573	62.174	0.487
504.000	320.491	80.002	20.010	100.459	19.569	62.665	0.500
504.500	320.789	80.003	20.010	100.457	19.563	63.194	0.522
505.000	320.980	80.001	20.009	100.460	19.555	64.060	0.512
505.500	321.247	80.002	20.009	100.468	19.547	64.885	0.473
506.000	321.512	80.001	20.009	100.478	19.541	65.504	0.495
506.500	321.761	80.002	20.009	100.483	19.534	66.166	0.523
507.000	321.995	80.002	20.009	100.482	19.528	66.816	0.499
507.500	322.240	80.001	20.009	100.477	19.520	67.626	0.481
508.000	322.485	80.001	20.010	100.475	19.511	68.552	0.484
508.500	322.765	80.000	20.010	100.475	19.507	68.933	0.508
509.000	322.975	80.002	20.009	100.477	19.498	69.856	0.507
509.500	323.258	80.001	20.009	100.485	19.492	70.554	0.491
510.000	323.505	80.002	20.009	100.486	19.482	71.527	0.511
510.500	323.807	80.001	20.009	100.480	19.474	72.363	0.540
511.000	324.048	80.001	20.009	100.472	19.470	72.815	0.547
511.500	324.268	80.002	20.009	100.469	19.461	73.686	0.502
512.000	324.541	80.001	20.009	100.468	19.453	74.480	0.477
512.500	324.794	80.002	20.009	100.472	19.445	75.369	0.509
513.000	325.036	80.001	20.009	100.474	19.435	76.357	0.510
513.500	325.324	80.001	20.009	100.475	19.429	77.039	0.512
514.000	325.551	80.001	20.009	100.470	19.419	77.991	0.523
514.500	325.741	80.002	20.009	100.464	19.409	79.026	0.466
515.000	326.019	80.002	20.009	100.460	19.402	79.770	0.442
515.500	326.235	80.002	20.009	100.464	19.395	80.483	0.481
516.000	326.516	80.001	20.009	100.471	19.389	81.121	0.496
516.500	326.786	80.001	20.009	100.477	19.381	81.927	0.524
517.000	327.004	80.002	20.009	100.476	19.371	82.953	0.519
517.500	327.280	80.002	20.010	100.474	19.363	83.771	0.491
518.000	327.490	80.002	20.010	100.467	19.355	84.556	0.490
518.500	327.784	80.001	20.009	100.461	19.346	85.511	0.495
519.000	327.987	80.001	20.010	100.463	19.342	85.954	0.501
519.500	328.191	80.000	20.009	100.463	19.331	87.069	0.452
520.001	328.531	80.003	20.010	100.463	19.320	88.208	0.475
520.500	328.745	80.001	20.009	100.457	19.313	88.877	0.549
521.000	329.004	80.002	20.009	100.449	19.302	90.067	0.514
521.500	329.257	80.001	20.010	100.439	19.296	90.687	0.493
522.000	329.515	80.002	20.009	100.438	19.288	91.491	0.512
522.500	329.792	80.002	20.009	100.440	19.279	92.381	0.523
523.000	329.996	80.001	20.009	100.446	19.273	93.066	0.507
523.500	330.271	80.002	20.009	100.452	19.264	93.947	0.480
524.000	330.508	80.003	20.010	100.456	19.254	94.958	0.496
524.500	330.761	80.003	20.009	100.456	19.246	95.764	0.501
525.000	331.057	80.003	20.010	100.455	19.235	96.891	0.519
525.500	331.246	80.002	20.009	100.456	19.225	98.001	0.517
526.000	331.472	80.002	20.009	100.463	19.217	98.810	0.450
526.500	331.770	80.002	20.009	100.463	19.209	99.657	0.470
527.000	332.010	80.001	20.009	100.460	19.203	100.265	0.531
527.500	332.290	80.001	20.010	100.454	19.194	101.182	0.529
528.000	332.507	80.004	20.010	100.448	19.185	102.075	0.509
528.500	332.748	80.001	20.010	100.443	19.174	103.214	0.478
529.000	332.963	80.002	20.009	100.443	19.169	103.740	0.456
529.500	333.253	80.000	20.009	100.446	19.162	104.484	0.480
530.000	333.510	80.002	20.009	100.452	19.153	105.406	0.526
530.500	333.693	80.001	20.009	100.452	19.145	106.245	0.494
531.000	333.963	80.003	20.009	100.443	19.137	107.034	0.446
531.500	334.225	80.002	20.009	100.435	19.127	108.063	0.493
532.000	334.453	80.001	20.010	100.427	19.121	108.649	0.511
532.500	334.730	80.003	20.009	100.427	19.112	109.593	0.498
533.000	334.975	80.001	20.009	100.436	19.104	110.418	0.513
533.500	335.223	80.000	20.009	100.443	19.094	111.413	0.507
534.000	335.443	80.003	20.009	100.451	19.089	111.961	0.480
534.500	335.683	80.002	20.010	100.454	19.079	112.942	0.464
535.000	335.978	80.002	20.009	100.452	19.073	113.576	0.497
535.500	336.184	80.002	20.009	100.447	19.063	114.609	0.518
536.000	336.394	80.001	20.010	100.448	19.057	115.189	0.458
536.500	336.711	80.002	20.009	100.448	19.048	116.122	0.472
537.000	336.913	80.002	20.009	100.457	19.046	116.373	0.524
537.500	337.144	80.001	20.009	100.463	19.036	117.436	0.476
538.000	337.432	80.002	20.010	100.465	19.030	117.988	0.476
538.500	337.647	80.001	20.009	100.468	19.023	118.805	0.511
539.000	337.942	80.002	20.009	100.474	19.013	119.821	0.506
539.500	338.182	80.002	20.009	100.476	19.006	120.494	0.523
540.000	338.353	80.001	20.009	100.478	18.999	121.259	0.473
540.500	338.623	80.002	20.009	100.480	18.992	121.895	0.426
541.000	338.874	80.003	20.009	100.478	18.987	122.419	0.481
541.500	339.080	80.000	20.009	100.473	18.981	123.082	0.489
542.000	339.360	80.002	20.009	100.471	18.976	123.573	0.471
542.500	339.630	80.001	20.009	100.473	18.968	124.376	0.518
543.000	339.834	80.003	20.009	100.475	18.961	125.198	0.512
543.500	340.091	80.002	20.009	100.474	18.955	125.810	0.468
544.000	340.357	80.002	20.009	100.475	18.950	126.268	0.492
544.500	340.608	80.002	20.010	100.467	18.941	127.251	0.520
545.000	340.869	80.002	20.010	100.454	18.934	127.908	0.514
545.500	341.102	80.001	20.010	100.444	18.928	128.528	0.503
546.000	341.331	80.002	20.010	100.443	18.924	129.028	0.478
546.500	341.572	80.003	20.009	100.448	18.917	129.667	0.466
547.000	341.819	80.001	20.009	100.457	18.915	129.930	0.479
547.500	342.017	80.001	20.009	100.468	18.910	130.384	0.467
548.000	342.335	80.001	20.010	100.475	18.903	131.091	0.481
548.500	342.531	80.002	20.009	100.476	18.897	131.738	0.515
549.000	342.775	80.002	20.009	100.471	18.892	132.319	0.477
549.500	342.993	80.001	20.009	100.466	18.885	133.020	0.451
550.000	343.245	80.002	20.009	100.467	18.879	133.647	0.466
550.500	343.505	80.003	20.009	100.472	18.874	134.090	0.490
551.000	343.748	80.002	20.009	100.479	18.869	134.670	0.507
551.500	343.963	80.001	20.009	100.487	18.865	134.998	0.481
552.000	344.245	80.001	20.009	100.489	18.863	135.230	0.478
552.500	344.440	80.002	20.009	100.485	18.858	135.813	0.487
553.000	344.692	80.001	20.010	100.485	18.851	136.462	0.462
553.500	344.927	80.002	20.010	100.485	18.847	136.963	0.467
554.000	345.162	80.001	20.009	100.486	18.845	137.168	0.478
554.500	345.402	80.002	20.009	100.497	18.840	137.721	0.473
555.000	345.605	80.001	20.009	100.503	18.834	138.302	0.460
555.500	345.872	80.002	20.009	100.503	18.833	138.359	0.457
556.000	346.138	80.001	20.010	100.503	18.828	138.903	0.502
556.500	346.350	80.002	20.010	100.503	18.822	139.535	0.505
557.000	346.591	80.001	20.010	100.500	18.819	139.857	0.465
557.500	346.868	80.002	20.009	100.508	18.816	140.112	0.486
558.000	347.087	80.003	20.009	100.522	18.815	140.255	0.507
558.500	347.350	80.001	20.009	100.530	18.810	140.749	0.488
559.000	347.527	80.001	20.009	100.528	18.808	140.966	0.461
559.500	347.793	80.001	20.010	100.522	18.804	141.440	0.442
560.000	348.008	80.002	20.010	100.515	18.800	141.761	0.462
560.500	348.221	80.001	20.009	100.508	18.799	141.822	0.455
561.000	348.454	80.001	20.009	100.509	18.793	142.414	0.438
561.500	348.694	80.003	20.009	100.520	18.791	142.653	0.459
562.000	348.975	80.002	20.009	100.529	18.788	142.927	0.496
562.500	349.213	80.002	20.009	100.534	18.785	143.235	0.520
563.000	349.451	80.002	20.009	100.527	18.783	143.518	0.498
563.500	349.692	80.002	20.009	100.526	18.776	144.265	0.478
564.000	349.919	80.001	20.009	100.517	18.774	144.500	0.474
564.500	350.117	80.002	20.010	100.511	18.770	144.970	0.446
565.000	350.377	80.002	20.009	100.514	18.766	145.362	0.441
565.500	350.644	80.002	20.009	100.529	18.762	145.773	0.492
566.000	350.830	80.002	20.009	100.538	18.758	146.271	0.490
566.500	351.105	80.002	20.009	100.551	18.751	146.985	0.457
567.000	351.295	80.002	20.009	100.566	18.750	147.228	0.463
567.500	351.564	80.002	20.009	100.573	18.746	147.571	0.462
568.000	351.867	80.002	20.009	100.574	18.745	147.688	0.515
568.500	352.104	80.001	20.009	100.574	18.743	147.838	0.556
569.000	352.344	80.002	20.009	100.574	18.740	148.018	0.509
569.500	352.542	80.002	20.009	100.574	18.738	148.195	0.457
570.000	352.825	80.003	20.009	100.574	18.734	148.618	0.459
570.500	353.029	80.002	20.010	100.574	18.729	149.064	0.484
571.000	353.271	80.004	20.009	100.574	18.726	149.419	0.466
571.500	353.530	80.003	20.010	100.577	18.721	149.917	0.473
572.000	353.760	80.000	20.008	100.588	18.712	150.849	0.495
572.500	354.011	80.004	20.012	100.622	18.702	151.748	0.485
573.000	354.229	80.003	20.012	100.575	18.692	152.747	0.475
573.500	354.479	80.002	20.010	100.538	18.679	154.125	0.469
574.000	354.748	80.002	20.008	100.519	18.668	155.259	0.494
574.500	355.003	80.003	20.010	100.504	18.655	156.560	0.521
575.000	355.241	80.002	20.009	100.475	18.642	157.858	0.508
575.500	355.516	80.002	20.008	100.531	18.628	159.293	0.503
576.000	355.734	80.002	20.009	100.574	18.619	160.240	0.503
576.500	355.988	80.004	20.007	100.597	18.607	161.448	0.483
577.000	356.191	80.004	20.008	100.610	18.602	162.054	0.465
577.500	356.470	80.000	20.012	100.602	18.593	162.904	0.469
578.000	356.715	80.003	20.007	100.618	18.584	163.813	0.503
578.500	356.969	80.000	20.011	100.636	18.574	164.834	0.512
579.000	357.250	80.002	20.008	100.659	18.565	165.811	0.517
579.500	357.466	80.002	20.008	100.699	18.554	166.864	0.516
580.000	357.748	80.002	20.009	100.737	18.539	168.355	0.498
580.500	357.999	80.001	20.009	100.727	18.528	169.575	0.516
581.000	358.235	80.002	20.009	100.709	18.514	170.983	0.510
581.500	358.498	80.002	20.009	100.676	18.504	172.068	0.493
582.000	358.690	80.002	20.009	100.631	18.495	173.030	0.477
582.500	358.939	80.002	20.009	100.604	18.486	174.004	0.449
583.000	359.208	80.002	20.009	100.590	18.481	174.462	0.480
583.500	359.495	80.001	20.009	100.578	18.475	175.129	0.537
584.000	359.767	80.002	20.009	100.576	18.467	175.949	0.557
584.500	359.972	80.003	20.009	100.566	18.461	176.576	0.518
585.000	360.239	80.002	20.009	100.541	18.451	177.622	0.475
585.500	360.482	80.001	20.009	100.516	18.446	178.181	0.492
586.000	360.746	80.002	20.009	100.500	18.441	178.692	0.508
586.500	360.984	80.002	20.009	100.480	18.436	179.238	0.504
587.000	361.230	80.003	20.009	100.465	18.436	179.262	0.493
587.501	361.500	80.002	20.009	100.463	18.436	179.291	0.500
588.000	361.755	80.002	20.009	100.471	18.439	178.969	0.520
588.500	361.955	80.000	20.009	100.471	18.438	179.117	0.490
589.000	362.234	80.003	20.009	100.471	18.444	178.482	0.468
589.500	362.478	80.001	20.009	100.477	18.446	178.274	0.501
590.000	362.693	80.002	20.008	100.481	18.447	178.176	0.491
590.500	362.933	80.002	20.009	100.479	18.449	177.901	0.457
591.000	363.232	80.002	20.008	100.475	18.450	177.837	0.497
591.500	363.409	80.002	20.009	100.466	18.453	177.535	0.507
592.000	363.675	80.002	20.009	100.445	18.451	177.780	0.459
592.500	363.931	80.002	20.009	100.423	18.455	177.384	0.483
593.000	364.203	80.002	20.009	100.415	18.456	177.301	0.525
593.500	364.423	80.002	20.009	100.426	18.455	177.392	0.510
594.000	364.714	80.001	20.009	100.450	18.456	177.352	0.501
594.500	364.913	80.002	20.009	100.482	18.462	176.718	0.501
595.000	365.191	80.002	20.009	100.509	18.464	176.578	0.484
595.500	365.403	80.002	20.009	100.514	18.469	176.029	0.484
596.000	365.665	80.003	20.009	100.504	18.474	175.574	0.482
596.500	365.847	80.002	20.010	100.502	18.481	174.877	0.459
597.000	366.114	80.002	20.008	100.511	18.490	173.939	0.446
597.500	366.421	80.002	20.008	100.518	18.497	173.225	0.512
598.000	366.645	80.003	20.009	100.531	18.505	172.443	0.553
598.500	366.855	80.002	20.009	100.553	18.514	171.488	0.483
599.000	367.154	80.002	20.009	100.563	18.520	170.861	0.471
599.501	367.359	80.002	20.009	100.566	18.528	170.021	0.506
600.001	367.628	80.002	20.009	100.575	18.539	168.915	0.489
600.500	367.916	80.002	20.009	100.591	18.546	168.142	0.515
601.000	368.122	80.002	20.009	100.600	18.555	167.275	0.525
601.500	368.344	80.003	20.009	100.601	18.560	166.695	0.461
602.000	368.596	80.001	20.009	100.602	18.568	165.838	0.451
602.500	368.877	80.002	20.009	100.603	18.572	165.448	0.503
603.000	369.129	80.001	20.009	100.594	18.581	164.546	0.533
603.500	369.412	80.003	20.009	100.584	18.588	163.814	0.534
604.000	369.632	80.001	20.009	100.589	18.593	163.283	0.519
604.500	369.873	80.002	20.009	100.592	18.601	162.423	0.481
605.000	370.175	80.002	20.009	100.599	18.606	161.982	0.502
605.500	370.414	80.003	20.009	100.620	18.611	161.459	0.542
606.000	370.618	80.002	20.009	100.643	18.616	160.852	0.492
606.500	370.925	80.001	20.009	100.648	18.623	160.150	0.477
607.000	371.156	80.001	20.010	100.651	18.626	159.895	0.524
607.500	371.432	80.001	20.009	100.662	18.635	158.991	0.523
608.000	371.658	80.002	20.009	100.671	18.638	158.675	0.505
608.500	371.927	80.003	20.010	100.682	18.644	157.984	0.498
609.000	372.181	80.002	20.009	100.702	18.650	157.404	0.509
609.500	372.410	80.002	20.009	100.721	18.654	156.926	0.503
610.000	372.634	80.001	20.010	100.725	18.658	156.579	0.468
610.500	372.920	80.003	20.009	100.725	18.661	156.214	0.482
611.000	373.157	80.002	20.009	100.720	18.666	155.786	0.517
611.500	373.456	80.002	20.009	100.715	18.672	155.081	0.529
612.000	373.679	80.002	20.009	100.708	18.677	154.609	0.529
612.500	373.923	80.002	20.010	100.705	18.683	153.978	0.495
613.000	374.223	80.003	20.009	100.706	18.686	153.694	0.505
613.500	374.458	80.002	20.009	100.710	18.691	153.098	0.539
614.000	374.680	80.001	20.010	100.707	18.697	152.528	0.496
614.500	374.977	80.002	20.009	100.708	18.705	151.720	0.488
615.000	375.183	80.002	20.009	100.707	18.704	151.852	0.511
615.500	375.364	80.002	20.009	100.698	18.712	150.999	0.445
616.000	375.701	80.001	20.009	100.691	18.719	150.286	0.453
616.500	375.997	80.001	20.009	100.695	18.726	149.511	0.576
617.000	376.185	80.002	20.009	100.692	18.729	149.273	0.559
617.500	376.471	80.002	20.009	100.684	18.734	148.707	0.479
618.000	376.720	80.000	20.010	100.682	18.740	148.128	0.505
618.500	376.950	80.002	20.009	100.680	18.747	147.387	0.507
619.000	377.244	80.001	20.010	100.676	18.754	146.716	0.501
619.500	377.505	80.002	20.009	100.678	18.760	146.031	0.539
620.000	377.740	80.001	20.009	100.689	18.765	145.584	0.526
620.500	378.047	80.003	20.009	100.694	18.774	144.598	0.519
621.000	378.300	80.001	20.010	100.692	18.781	143.938	0.551
621.500	378.500	80.002	20.009	100.685	18.784	143.568	0.506
622.000	378.804	80.002	20.009	100.677	18.794	142.554	0.479
622.500	379.003	80.002	20.009	100.671	18.802	141.699	0.504
623.000	379.322	80.001	20.009	100.668	18.808	141.127	0.510
623.500	379.543	80.003	20.009	100.670	18.815	140.338	0.529
624.000	379.819	80.001	20.010	100.673	18.822	139.659	0.519
624.500	380.057	80.001	20.009	100.672	18.829	138.987	0.505
625.000	380.308	80.001	20.010	100.668	18.835	138.380	0.501
625.500	380.608	80.001	20.009	100.661	18.838	138.033	0.520
626.000	380.847	80.002	20.009	100.658	18.846	137.257	0.545
626.500	381.070	80.000	20.009	100.662	18.853	136.521	0.501
627.000	381.334	80.003	20.009	100.670	18.860	135.753	0.474
627.500	381.641	80.001	20.009	100.679	18.866	135.116	0.529
628.000	381.886	80.002	20.009	100.682	18.874	134.333	0.561
628.500	382.119	80.001	20.009	100.680	18.883	133.393	0.515
629.000	382.367	80.000	20.009	100.674	18.892	132.458	0.480
629.500	382.611	80.002	20.009	100.674	18.897	131.915	0.487
630.000	382.919	80.002	20.010	100.674	18.904	131.188	0.522
630.500	383.206	80.001	20.009	100.678	18.915	130.134	0.574
631.000	383.357	80.003	20.009	100.687	18.922	129.388	0.517
631.500	383.669	80.000	20.010	100.686	18.929	128.676	0.451
632.000	383.912	80.002	20.010	100.678	18.934	128.133	0.509
632.500	384.198	80.000	20.009	100.672	18.944	127.076	0.542
633.000	384.424	80.002	20.009	100.671	18.955	126.002	0.521
633.500	384.667	80.001	20.009	100.670	18.963	125.168	0.490
634.000	384.900	80.003	20.009	100.677	18.969	124.556	0.472
634.500	385.141	80.002	20.009	100.685	18.975	123.878	0.475
635.000	385.447	80.002	20.010	100.687	18.990	122.376	0.510
635.500	385.660	80.001	20.009	100.680	18.996	121.805	0.533
636.000	385.953	80.001	20.009	100.672	19.006	120.763	0.513
636.500	386.217	80.002	20.009	100.669	19.015	119.830	0.532
637.000	386.463	80.001	20.009	100.669	19.023	118.968	0.534
637.500	386.696	80.002	20.009	100.674	19.031	118.154	0.495
638.000	387.016	80.001	20.009	100.682	19.040	117.190	0.516
638.500	387.263	80.003	20.009	100.683	19.053	115.888	0.560
639.000	387.552	80.002	20.009	100.678	19.059	115.270	0.552
639.500	387.817	80.001	20.009	100.671	19.069	114.252	0.544
640.000	388.040	80.002	20.009	100.663	19.080	113.098	0.521
640.500	388.244	80.001	20.009	100.660	19.088	112.334	0.458
641.000	388.568	80.000	20.009	100.667	19.097	111.370	0.478
641.500	388.801	80.003	20.009	100.676	19.106	110.415	0.542
642.000	389.040	80.001	20.009	100.683	19.113	109.678	0.514
642.500	389.294	80.002	20.009	100.685	19.124	108.532	0.483
643.000	389.562	80.001	20.010	100.680	19.136	107.386	0.507
643.500	389.806	80.001	20.009	100.673	19.146	106.300	0.517
644.000	390.049	80.001	20.009	100.670	19.156	105.271	0.499
644.500	390.397	80.002	20.009	100.669	19.169	103.970	0.539
645.000	390.644	80.002	20.009	100.674	19.177	103.108	0.593
645.500	390.875	80.001	20.009	100.681	19.186	102.212	0.536
646.000	391.123	80.002	20.009	100.683	19.196	101.181	0.479
646.500	391.396	80.002	20.009	100.680	19.206	100.130	0.500
647.000	391.650	80.002	20.010	100.678	19.219	98.779	0.524
647.500	391.885	80.003	20.009	100.679	19.228	97.822	0.508
648.000	392.108	80.003	20.009	100.682	19.237	96.940	0.473
648.501	392.396	80.002	20.009	100.688	19.249	95.690	0.485
649.000	392.671	80.002	20.009	100.694	19.259	94.608	0.537
649.500	392.909	80.002	20.009	100.690	19.267	93.805	0.538
650.000	393.114	80.001	20.010	100.682	19.279	92.645	0.478
650.500	393.325	80.002	20.009	100.673	19.285	92.011	0.430
651.000	393.683	80.002	20.009	100.669	19.297	90.742	0.493
651.500	393.899	80.002	20.009	100.671	19.309	89.529	0.572
652.000	394.204	80.001	20.009	100.680	19.316	88.825	0.547
652.500	394.364	80.001	20.009	100.688	19.329	87.422	0.493
653.000	394.688	80.002	20.009	100.695	19.338	86.507	0.474
653.500	394.911	80.002	20.009	100.690	19.350	85.245	0.515
654.000	395.127	80.002	20.010	100.681	19.360	84.229	0.493
654.500	395.451	80.001	20.009	100.677	19.368	83.480	0.490
655.000	395.646	80.001	20.009	100.675	19.380	82.176	0.530
655.500	395.940	80.004	20.009	100.674	19.388	81.419	0.504
656.000	396.208	80.003	20.009	100.681	19.399	80.266	0.526
656.500	396.447	80.001	20.010	100.687	19.407	79.484	0.534
657.000	396.701	80.003	20.010	100.683	19.418	78.315	0.500
657.500	396.966	80.002	20.010	100.680	19.425	77.574	0.506
658.000	397.139	80.002	20.010	100.675	19.438	76.258	0.479
658.500	397.426	80.001	20.010	100.675	19.449	75.134	0.449
659.000	397.698	80.001	20.009	100.676	19.456	74.388	0.510
659.500	397.970	80.001	20.009	100.681	19.473	72.604	0.552
660.000	398.181	80.002	20.010	100.683	19.481	71.766	0.513
660.500	398.470	80.001	20.010	100.679	19.492	70.701	0.491
661.000	398.710	80.002	20.010	100.670	19.499	69.935	0.514
661.500	398.928	80.002	20.010	100.663	19.509	68.891	0.494
662.000	399.198	80.002	20.009	100.659	19.519	67.906	0.474
662.501	399.512	80.002	20.009	100.662	19.530	66.782	0.536
663.000	399.799	80.002	20.009	100.671	19.537	66.050	0.592
663.500	399.996	80.003	20.009	100.680	19.547	64.974	0.543
664.000	400.202	80.002	20.010	100.684	19.559	63.790	0.444
664.500	400.517	80.001	20.009	100.678	19.568	62.811	0.462
665.000	400.790	80.001	20.009	100.670	19.582	61.428	0.554
665.500	401.062	80.003	20.010	100.666	19.591	60.459	0.566
666.000	401.276	80.001	20.009	100.664	19.601	59.414	0.516
666.500	401.512	80.002	20.010	100.669	19.611	58.439	0.468
667.000	401.759	80.002	20.010	100.677	19.620	57.531	0.467
667.500	402.065	80.001	20.009	100.682	19.627	56.789	0.518
668.000	402.222	80.003	20.010	100.684	19.639	55.581	0.508
668.500	402.511	80.003	20.010	100.685	19.646	54.791	0.454
669.000	402.732	80.001	20.010	100.685	19.655	53.883	0.478
669.500	403.014	80.001	20.010	100.690	19.665	52.876	0.507
670.000	403.220	80.001	20.009	100.695	19.674	51.891	0.495
670.500	403.497	80.003	20.010	100.697	19.683	51.014	0.486
671.000	403.729	80.001	20.010	100.699	19.692	50.096	0.496
671.500	404.023	80.002	20.009	100.692	19.701	49.107	0.517
672.000	404.254	80.001	20.010	100.683	19.710	48.269	0.525
672.500	404.412	80.002	20.009	100.678	19.720	47.219	0.457
673.000	404.590	80.003	20.010	100.678	19.725	46.632	0.363
673.500	404.856	80.001	20.010	100.677	19.735	45.620	0.390
674.001	405.089	80.002	20.010	100.683	19.745	44.582	0.471
674.500	405.373	80.002	20.010	100.688	19.754	43.729	0.508
675.000	405.587	80.003	20.010	100.686	19.759	43.197	0.508
675.501	405.916	80.001	20.009	100.685	19.769	42.139	0.520
676.000	406.125	80.002	20.009	100.684	19.775	41.577	0.540
676.500	406.384	80.001	20.010	100.685	19.783	40.698	0.503
677.000	406.598	80.002	20.010	100.689	19.786	40.398	0.470
677.500	406.882	80.003	20.009	100.693	19.797	39.263	0.485
678.000	407.097	80.002	20.010	100.691	19.803	38.669	0.499
678.500	407.339	80.002	20.010	100.684	19.815	37.353	0.478
679.000	407.555	80.002	20.009	100.675	19.817	37.190	0.457
679.500	407.837	80.003	20.010	100.664	19.828	36.104	0.477
680.000	408.110	80.002	20.009	100.663	19.829	35.927	0.527
680.500	408.373	80.002	20.010	100.667	19.839	34.971	0.546
681.000	408.600	80.000	20.008	100.675	19.845	34.305	0.513
681.500	408.842	80.002	20.009	100.680	19.850	33.769	0.480
682.001	409.137	80.002	20.009	100.678	19.860	32.789	0.503
682.500	409.353	80.002	20.009	100.670	19.868	31.909	0.524
683.000	409.569	80.002	20.009	100.663	19.874	31.333	0.471
683.500	409.850	80.002	20.009	100.659	19.878	30.903	0.464
684.000	410.086	80.001	20.009	100.663	19.884	30.315	0.507
684.500	410.374	80.000	20.009	100.672	19.892	29.451	0.520
685.000	410.527	80.002	20.009	100.679	19.897	28.897	0.482
685.500	410.807	80.002	20.009	100.678	19.904	28.192	0.437
686.000	411.037	80.003	20.009	100.675	19.910	27.629	0.472
686.500	411.333	80.001	20.008	100.669	19.916	27.011	0.518
687.000	411.558	80.001	20.009	100.668	19.920	26.598	0.524
687.501	411.811	80.002	20.008	100.670	19.927	25.907	0.500
688.001	412.109	80.002	20.009	100.672	19.931	25.476	0.514
688.501	412.329	80.002	20.009	100.671	19.936	24.910	0.534
689.000	412.543	80.002	20.009	100.669	19.942	24.365	0.476
689.500	412.817	80.001	20.008	100.660	19.946	23.925	0.461
690.000	413.098	80.002	20.009	100.654	19.947	23.774	0.522
690.500	413.330	80.002	20.009	100.651	19.956	22.849	0.534
691.000	413.596	80.001	20.009	100.652	19.960	22.511	0.505
691.500	413.804	80.002	20.009	100.651	19.962	22.242	0.486
692.000	414.040	80.002	20.009	100.651	19.966	21.795	0.459
692.500	414.274	80.002	20.009	100.644	19.972	21.230	0.457
693.000	414.476	80.002	20.009	100.637	19.974	21.055	0.453
693.500	414.718	80.001	20.009	100.629	19.978	20.592	0.440
694.000	415.012	80.001	20.009	100.627	19.982	20.220	0.490
694.500	415.275	80.003	20.008	100.629	19.989	19.516	0.547
695.000	415.450	80.001	20.008	100.635	19.988	19.576	0.498
695.500	415.737	80.001	20.008	100.635	19.995	18.815	0.450
696.000	415.967	80.002	20.009	100.632	19.999	18.485	0.489
696.500	416.157	80.002	20.009	100.618	20.001	18.272	0.469
697.000	416.418	80.001	20.009	100.609	20.007	17.649	0.436
697.500	416.710	80.001	20.009	100.602	20.011	17.230	0.502
698.000	416.955	80.001	20.009	100.602	20.009	17.367	0.545
698.500	417.172	80.002	20.008	100.608	20.014	16.876	0.499
699.000	417.511	80.002	20.008	100.616	20.016	16.669	0.509
699.500	417.705	80.002	20.009	100.615	20.022	16.100	0.544
700.000	417.972	80.001	20.009	100.608	20.022	16.055	0.497
700.500	418.237	80.002	20.010	100.604	20.025	15.756	0.497
701.000	418.502	80.002	20.009	100.600	20.030	15.243	0.531
701.500	418.733	80.001	20.009	100.600	20.032	15.087	0.513
702.000	418.979	80.002	20.010	100.603	20.037	14.552	0.487
702.500	419.218	80.001	20.009	100.610	20.038	14.422	0.481
703.000	419.481	80.002	20.009	100.614	20.040	14.258	0.493
703.500	419.696	80.002	20.009	100.611	20.043	13.911	0.490
704.000	419.947	80.002	20.010	100.605	20.044	13.853	0.472
704.500	420.164	80.001	20.009	100.599	20.048	13.439	0.467
705.000	420.443	80.002	20.010	100.596	20.048	13.407	0.482
705.500	420.713	79.999	20.009	100.596	20.052	13.033	0.523
706.000	420.918	80.002	20.009	100.600	20.054	12.813	0.512
706.500	421.169	80.002	20.009	100.605	20.055	12.675	0.466
707.000	421.407	80.001	20.009	100.603	20.058	12.396	0.472
707.500	421.633	80.002	20.009	100.593	20.059	12.257	0.476
708.001	421.913	80.001	20.009	100.577	20.062	11.960	0.485
708.501	422.130	80.002	20.009	100.564	20.064	11.736	0.501
709.001	422.372	80.001	20.009	100.557	20.067	11.440	0.478
709.501	422.582	80.002	20.009	100.556	20.069	11.216	0.456
710.000	422.825	80.002	20.009	100.562	20.073	10.870	0.453
710.500	423.151	80.002	20.010	100.568	20.072	10.939	0.511
711.000	423.358	80.001	20.009	100.566	20.075	10.627	0.551
711.500	423.591	80.001	20.009	100.557	20.077	10.399	0.486
712.000	423.887	80.000	20.008	100.549	20.076	10.505	0.485
712.500	424.053	80.002	20.010	100.542	20.079	10.253	0.496
713.000	424.391	80.001	20.009	100.543	20.080	10.154	0.483
713.500	424.604	80.000	20.009	100.549	20.082	9.884	0.527
714.000	424.782	80.003	20.009	100.552	20.083	9.799	0.471
714.500	425.074	80.000	20.009	100.552	20.086	9.471	0.431
715.000	425.322	80.003	20.009	100.549	20.087	9.358	0.505
715.500	425.551	80.000	20.009	100.542	20.088	9.250	0.509
716.000	425.788	80.002	20.009	100.535	20.090	9.060	0.472
716.500	426.078	80.001	20.009	100.535	20.091	9.003	0.496
717.000	426.273	80.002	20.010	100.542	20.093	8.768	0.506
717.500	426.571	80.002	20.009	100.550	20.092	8.826	0.489
718.000	426.799	80.003	20.010	100.552	20.095	8.576	0.510
718.500	427.081	80.002	20.010	100.552	20.095	8.519	0.518
719.000	427.256	80.002	20.010	100.550	20.092	8.837	0.484
719.500	427.556	80.003	20.011	100.543	20.095	8.514	0.466
720.000	427.759	80.002	20.009	100.537	20.098	8.212	0.489
720.500	428.070	80.001	20.010	100.538	20.099	8.198	0.508
721.001	428.300	80.004	20.009	100.538	20.101	7.895	0.527
721.500	428.538	80.001	20.010	100.539	20.102	7.869	0.505
722.000	428.771	80.002	20.010	100.538	20.100	8.011	0.470
722.500	429.035	80.002	20.010	100.535	20.102	7.850	0.484
723.000	429.312	80.001	20.009	100.532	20.106	7.453	0.519
723.500	429.568	80.001	20.009	100.531	20.106	7.479	0.537
724.000	429.779	80.002	20.009	100.531	20.106	7.438	0.500
724.500	430.092	80.001	20.009	100.533	20.109	7.129	0.495
725.000	430.340	80.001	20.009	100.533	20.108	7.206	0.543
725.500	430.605	80.001	20.009	100.530	20.108	7.191	0.537
726.000	430.860	80.001	20.009	100.524	20.112	6.851	0.516
726.500	431.059	80.001	20.010	100.515	20.111	6.873	0.486
727.000	431.293	80.001	20.010	100.512	20.113	6.751	0.444
727.500	431.574	80.001	20.009	100.512	20.113	6.666	0.474
728.000	431.831	80.003	20.009	100.518	20.113	6.703	0.526
728.500	432.072	80.001	20.010	100.525	20.116	6.396	0.518
729.000	432.287	80.002	20.009	100.534	20.117	6.343	0.477
729.500	432.570	80.001	20.009	100.531	20.116	6.387	0.477
730.000	432.819	80.003	20.009	100.523	20.115	6.468	0.515
730.500	433.036	80.002	20.009	100.513	20.119	6.140	0.499
731.000	433.287	80.002	20.009	100.512	20.117	6.296	0.467
731.500	433.504	80.002	20.009	100.510	20.118	6.202	0.467
732.000	433.770	80.000	20.009	100.515	20.122	5.745	0.475
732.501	434.031	80.003	20.009	100.522	20.117	6.247	0.505
733.000	434.256	80.002	20.009	100.522	20.118	6.217	0.507
733.500	434.494	80.001	20.009	100.516	20.120	6.021	0.475
734.000	434.783	80.002	20.009	100.510	20.123	5.668	0.496
734.501	434.950	80.001	20.009	100.509	20.117	6.276	0.492
735.000	435.201	80.001	20.009	100.510	20.118	6.182	0.436
735.500	435.451	80.002	20.009	100.518	20.123	5.732	0.459
736.000	435.732	80.001	20.009	100.524	20.120	5.967	0.516
736.500	435.960	80.001	20.009	100.525	20.122	5.809	0.520
737.000	436.215	80.002	20.009	100.517	20.123	5.678	0.496
737.500	436.448	80.001	20.009	100.510	20.121	5.896	0.486
738.000	436.680	80.003	20.009	100.503	20.124	5.618	0.476
738.500	436.940	80.000	20.009	100.506	20.122	5.813	0.478
739.000	437.198	80.002	20.009	100.515	20.122	5.782	0.505
739.500	437.397	80.002	20.009	100.521	20.122	5.791	0.488
740.000	437.662	80.002	20.009	100.520	20.122	5.769	0.460
740.500	437.920	80.001	20.009	100.517	20.124	5.555	0.493
741.000	438.167	80.002	20.009	100.509	20.123	5.690	0.514
741.500	438.451	80.002	20.009	100.498	20.122	5.742	0.518
742.000	438.667	80.002	20.009	100.498	20.122	5.736	0.516
742.500	438.915	80.003	20.009	100.501	20.125	5.448	0.482
743.000	439.143	80.001	20.008	100.503	20.127	5.311	0.470
743.500	439.414	80.002	20.009	100.504	20.125	5.487	0.487
744.000	439.658	80.002	20.009	100.500	20.122	5.748	0.507
744.500	439.956	80.002	20.009	100.489	20.122	5.801	0.529
745.000	440.173	80.002	20.009	100.485	20.126	5.357	0.528
745.500	440.386	80.002	20.009	100.484	20.126	5.416	0.472
746.000	440.638	80.002	20.008	100.484	20.125	5.437	0.447
746.500	440.882	80.002	20.008	100.488	20.127	5.288	0.480
747.000	441.134	80.002	20.009	100.495	20.126	5.334	0.496
747.500	441.336	80.001	20.009	100.492	20.125	5.519	0.475
748.000	441.637	80.001	20.009	100.489	20.127	5.254	0.478
748.500	441.854	80.002	20.009	100.488	20.127	5.235	0.511
749.000	442.055	80.001	20.009	100.488	20.127	5.268	0.468
749.500	442.361	80.001	20.008	100.489	20.129	5.109	0.462
750.000	442.582	80.001	20.008	100.493	20.128	5.144	0.517
750.500	442.841	80.002	20.009	100.496	20.127	5.252	0.504
751.000	443.042	80.002	20.008	100.496	20.128	5.133	0.470
751.500	443.325	80.001	20.009	100.490	20.131	4.879	0.472
752.000	443.588	80.002	20.009	100.482	20.129	5.057	0.515
752.500	443.781	80.001	20.009	100.482	20.131	4.871	0.502
753.000	444.124	80.001	20.009	100.490	20.132	4.779	0.496
753.500	444.315	80.002	20.009	100.492	20.130	4.933	0.535
754.000	444.545	80.001	20.009	100.499	20.131	4.812	0.478
754.500	444.846	80.003	20.008	100.506	20.130	4.994	0.476
755.000	445.079	80.001	20.009	100.504	20.133	4.607	0.532
755.500	445.309	80.002	20.009	100.496	20.129	5.016	0.498
756.000	445.544	80.002	20.009	100.493	20.131	4.845	0.464
756.500	445.765	80.002	20.009	100.495	20.128	5.119	0.461
757.000	446.033	80.001	20.008	100.500	20.133	4.629	0.472
757.500	446.265	80.003	20.009	100.502	20.133	4.683	0.494
758.000	446.520	80.001	20.009	100.498	20.133	4.639	0.493
758.500	446.864	80.001	20.009	100.492	20.130	4.939	0.543
759.000	447.055	80.001	20.009	100.481	20.131	4.908	0.567
759.501	447.266	80.003	20.009	100.472	20.130	4.957	0.469
760.000	447.511	80.003	20.010	100.471	20.133	4.616	0.429
760.500	447.719	80.002	20.009	100.476	20.133	4.666	0.454
761.000	448.055	80.002	20.008	100.485	20.131	4.855	0.499
761.500	448.282	80.001	20.009	100.492	20.133	4.676	0.554
762.001	448.526	80.001	20.009	100.497	20.129	5.095	0.516
762.500	448.775	80.002	20.009	100.491	20.130	4.956	0.482
763.000	449.000	80.003	20.009	100.484	20.133	4.622	0.483
763.500	449.235	80.002	20.009	100.482	20.137	4.236	0.467
764.000	449.521	80.002	20.009	100.484	20.135	4.405	0.491
764.500	449.713	80.001	20.009	100.486	20.135	4.422	0.500
765.000	450.032	80.002	20.008	100.492	20.135	4.423	0.495
765.500	450.242	80.002	20.009	100.498	20.132	4.716	0.520
766.000	450.502	80.001	20.009	100.498	20.136	4.373	0.500
766.500	450.749	80.002	20.009	100.495	20.133	4.652	0.489
767.000	450.936	80.001	20.009	100.491	20.136	4.362	0.470
767.500	451.266	80.002	20.008	100.491	20.133	4.608	0.475
768.000	451.506	80.000	20.008	100.493	20.134	4.528	0.544
768.500	451.790	80.002	20.008	100.500	20.134	4.556	0.547
769.000	452.007	80.002	20.008	100.507	20.135	4.407	0.512
769.500	452.291	80.003	20.009	100.505	20.135	4.483	0.501
770.000	452.431	80.003	20.010	100.498	20.132	4.754	0.463
770.500	452.689	80.001	20.009	100.488	20.132	4.800	0.411
771.000	453.011	80.002	20.009	100.477	20.133	4.611	0.489
771.500	453.215	80.002	20.009	100.471	20.130	4.933	0.553
772.000	453.485	80.002	20.010	100.474	20.135	4.480	0.500
772.500	453.704	80.003	20.009	100.483	20.130	4.973	0.481
773.000	453.939	80.002	20.009	100.489	20.136	4.381	0.471
773.500	454.208	80.002	20.009	100.489	20.135	4.440	0.479
774.000	454.418	80.001	20.008	100.481	20.138	4.173	0.492
774.500	454.609	80.003	20.009	100.475	20.134	4.566	0.440
775.000	454.906	80.003	20.009	100.470	20.134	4.593	0.445
775.500	455.154	80.003	20.008	100.471	20.133	4.650	0.516
776.000	455.447	80.002	20.009	100.475	20.130	4.917	0.542
776.500	455.703	80.002	20.009	100.481	20.135	4.481	0.545
777.000	455.882	80.003	20.009	100.481	20.133	4.611	0.492
777.500	456.117	80.002	20.009	100.473	20.131	4.815	0.425
778.000	456.415	80.001	20.009	100.458	20.133	4.619	0.474
778.500	456.661	80.003	20.009	100.451	20.137	4.233	0.538
779.000	456.965	80.001	20.009	100.454	20.136	4.333	0.547
779.501	457.179	80.001	20.008	100.467	20.134	4.549	0.534
780.001	457.339	80.002	20.008	100.487	20.138	4.101	0.446
780.500	457.604	80.001	20.009	100.502	20.140	3.899	0.399
781.000	457.912	80.002	20.008	100.508	20.138	4.190	0.499
781.500	458.122	80.002	20.009	100.499	20.137	4.281	0.546
782.000	458.373	80.003	20.009	100.482	20.136	4.377	0.490
782.500	458.542	80.001	20.009	100.470	20.141	3.818	0.440
783.000	458.848	80.001	20.009	100.471	20.137	4.277	0.447
783.500	459.081	80.003	20.009	100.471	20.140	3.927	0.507
784.000	459.373	80.001	20.008	100.478	20.134	4.523	0.532
784.500	459.579	80.001	20.010	100.479	20.134	4.523	0.511
785.000	459.823	80.003	20.009	100.469	20.134	4.555	0.474
785.500	460.076	80.002	20.009	100.453	20.133	4.653	0.474
786.000	460.323	80.000	20.009	100.438	20.135	4.486	0.499
786.500	460.506	80.002	20.009	100.431	20.132	4.801	0.465
787.000	460.825	80.003	20.009	100.432	20.134	4.527	0.466
787.500	461.030	80.001	20.008	100.443	20.137	4.217	0.513
788.000	461.238	80.002	20.008	100.455	20.134	4.574	0.468
788.500	461.581	80.002	20.008	100.468	20.132	4.734	0.482
789.000	461.827	80.002	20.009	100.476	20.135	4.492	0.570
789.500	462.075	80.001	20.008	100.479	20.136	4.368	0.542
790.000	462.289	80.002	20.008	100.474	20.135	4.428	0.478
790.500	462.540	80.003	20.009	100.469	20.134	4.522	0.464
791.000	462.745	80.001	20.009	100.470	20.134	4.550	0.461
791.500	463.041	80.003	20.009	100.471	20.130	4.944	0.478
792.000	463.259	80.001	20.009	100.479	20.133	4.673	0.507
792.500	463.522	80.002	20.008	100.487	20.133	4.650	0.498
793.000	463.744	80.003	20.009	100.496	20.136	4.385	0.483
793.500	464.033	80.001	20.008	100.497	20.134	4.587	0.498
794.000	464.260	80.002	20.009	100.495	20.134	4.530	0.514
794.501	464.489	80.002	20.009	100.486	20.138	4.164	0.486
795.000	464.744	80.003	20.009	100.482	20.134	4.544	0.470
795.500	464.961	80.003	20.009	100.480	20.134	4.546	0.477
796.000	465.267	80.002	20.009	100.481	20.135	4.436	0.497
796.500	465.564	80.001	20.008	100.484	20.133	4.635	0.563
797.000	465.713	80.002	20.009	100.489	20.135	4.452	0.525
797.500	466.031	80.002	20.009	100.494	20.136	4.387	0.457
798.000	466.270	80.002	20.009	100.494	20.135	4.409	0.512
798.500	466.529	80.003	20.009	100.490	20.132	4.761	0.527
799.000	466.814	80.002	20.009	100.489	20.136	4.340	0.522
799.500	467.000	80.002	20.008	100.493	20.132	4.747	0.508
800.000	467.285	80.001	20.008	100.501	20.135	4.470	0.470
800.500	467.449	80.002	20.008	100.508	20.138	4.181	0.460
801.000	467.733	80.001	20.008	100.511	20.135	4.446	0.449
801.500	467.994	80.003	20.009	100.504	20.136	4.385	0.497
802.000	468.321	80.001	20.008	100.492	20.135	4.420	0.567
802.500	468.437	80.001	20.009	100.479	20.131	4.852	0.516
803.000	468.692	80.003	20.009	100.474	20.134	4.581	0.407
803.500	469.042	80.001	20.008	100.475	20.137	4.221	0.488
804.000	469.232	80.001	20.008	100.482	20.135	4.407	0.573
804.500	469.409	80.001	20.008	100.490	20.132	4.733	0.454
805.000	469.720	80.002	20.009	100.491	20.136	4.313	0.427
805.500	469.980	80.002	20.009	100.483	20.133	4.622	0.529
806.000	470.236	80.001	20.008	100.475	20.135	4.476	0.543
806.500	470.452	80.002	20.009	100.470	20.136	4.305	0.494
807.000	470.733	80.001	20.008	100.470	20.135	4.462	0.485
807.500	470.913	80.001	20.008	100.474	20.137	4.280	0.480
808.000	471.157	80.002	20.008	100.482	20.133	4.629	0.443
808.500	471.466	80.002	20.008	100.487	20.134	4.572	0.488
809.000	471.691	80.002	20.009	100.486	20.135	4.470	0.544
809.500	471.956	80.003	20.009	100.478	20.134	4.511	0.513
810.000	472.217	80.002	20.009	100.471	20.134	4.509	0.508
810.500	472.425	80.001	20.009	100.469	20.134	4.581	0.497
811.000	472.703	80.002	20.009	100.472	20.134	4.516	0.477
811.500	472.948	80.001	20.008	100.479	20.135	4.438	0.504
812.000	473.212	80.001	20.008	100.487	20.133	4.701	0.516
812.500	473.459	80.003	20.009	100.495	20.132	4.714	0.511
813.000	473.702	80.002	20.009	100.490	20.133	4.669	0.501
813.500	473.935	80.001	20.009	100.483	20.132	4.801	0.482
814.000	474.174	80.002	20.009	100.475	20.134	4.575	0.473
814.500	474.396	80.001	20.009	100.470	20.130	4.969	0.466
815.000	474.684	80.002	20.008	100.469	20.132	4.795	0.486
815.500	474.917	80.001	20.008	100.476	20.131	4.813	0.516
816.000	475.219	80.003	20.009	100.485	20.135	4.450	0.528
816.501	475.471	80.000	20.009	100.489	20.133	4.667	0.545
817.000	475.625	80.003	20.009	100.485	20.135	4.499	0.480
817.500	475.931	80.003	20.009	100.479	20.133	4.696	0.433
818.000	476.169	80.002	20.009	100.473	20.133	4.644	0.502
818.500	476.395	80.002	20.009	100.473	20.132	4.787	0.504
819.000	476.706	80.002	20.009	100.478	20.133	4.653	0.501
819.500	476.962	80.002	20.008	100.486	20.134	4.566	0.552
820.000	477.200	80.002	20.008	100.494	20.134	4.577	0.531
820.500	477.409	80.002	20.008	100.499	20.133	4.632	0.471
821.000	477.679	80.003	20.009	100.494	20.133	4.649	0.463
821.500	477.927	80.002	20.009	100.484	20.132	4.755	0.498
822.000	478.192	80.003	20.009	100.479	20.132	4.718	0.516
822.500	478.431	80.002	20.009	100.472	20.134	4.540	0.509
823.000	478.705	80.003	20.008	100.472	20.130	4.928	0.508
823.500	478.950	80.001	20.009	100.477	20.130	4.937	0.516
824.000	479.179	80.002	20.008	100.486	20.135	4.471	0.497
824.500	479.427	80.002	20.008	100.492	20.135	4.445	0.475
825.000	479.676	80.002	20.008	100.499	20.136	4.314	0.487
825.500	479.953	80.001	20.009	100.500	20.135	4.481	0.511
826.000	480.208	80.002	20.008	100.500	20.133	4.614	0.529
826.500	480.469	80.002	20.009	100.499	20.137	4.257	0.525
827.000	480.688	80.002	20.009	100.502	20.132	4.781	0.498
827.500	480.959	80.002	20.008	100.509	20.134	4.553	0.484
828.000	481.235	80.002	20.009	100.515	20.133	4.616	0.518
828.500	481.456	80.001	20.008	100.518	20.136	4.340	0.522
829.000	481.694	80.002	20.009	100.517	20.133	4.668	0.478
829.500	481.937	80.001	20.009	100.512	20.133	4.629	0.470
830.000	482.182	80.002	20.008	100.497	20.133	4.705	0.485
830.500	482.481	80.002	20.009	100.489	20.132	4.761	0.516
831.000	482.661	80.002	20.009	100.484	20.135	4.483	0.512
831.500	482.917	80.001	20.008	100.483	20.134	4.513	0.458
832.001	483.248	80.003	20.008	100.486	20.131	4.859	0.511
832.501	483.460	80.000	20.008	100.495	20.132	4.708	0.565
833.000	483.708	80.002	20.008	100.499	20.134	4.571	0.501
833.500	483.919	80.003	20.009	100.500	20.133	4.677	0.459
834.000	484.236	80.002	20.009	100.495	20.134	4.583	0.493
834.500	484.442	80.002	20.009	100.486	20.134	4.539	0.526
835.000	484.698	80.002	20.009	100.482	20.128	5.150	0.493
835.500	484.949	80.001	20.009	100.480	20.132	4.735	0.485
836.000	485.213	80.002	20.008	100.481	20.133	4.649	0.511
836.500	485.472	80.001	20.008	100.486	20.133	4.630	0.519
837.001	485.722	80.003	20.008	100.497	20.132	4.713	0.516
837.500	485.969	80.002	20.009	100.498	20.133	4.684	0.502
838.000	486.226	80.002	20.008	100.499	20.133	4.701	0.501
838.500	486.447	80.001	20.009	100.493	20.134	4.568	0.491
839.000	486.757	80.002	20.008	100.486	20.132	4.776	0.504
839.500	486.941	80.001	20.008	100.482	20.132	4.728	0.512
840.000	487.178	80.002	20.009	100.482	20.132	4.800	0.457
840.500	487.459	80.002	20.008	100.482	20.132	4.776	0.469
841.000	487.716	80.002	20.008	100.488	20.133	4.642	0.529
841.500	488.028	80.002	20.008	100.492	20.131	4.816	0.554
842.000	488.204	80.001	20.008	100.493	20.133	4.690	0.528
842.500	488.507	80.002	20.009	100.488	20.134	4.520	0.483
843.000	488.747	80.003	20.008	100.481	20.135	4.446	0.511
843.500	488.999	80.002	20.009	100.477	20.137	4.200	0.517
844.000	489.268	80.001	20.009	100.477	20.135	4.417	0.506
844.500	489.512	80.001	20.008	100.479	20.130	4.963	0.517
845.000	489.712	80.002	20.008	100.489	20.133	4.640	0.479
845.500	489.945	80.002	20.008	100.500	20.134	4.592	0.438
846.000	490.234	80.002	20.008	100.504	20.131	4.909	0.478
846.500	490.459	80.003	20.009	100.497	20.132	4.774	0.518
847.000	490.770	80.001	20.009	100.487	20.131	4.863	0.525
847.500	490.992	80.003	20.009	100.477	20.131	4.843	0.535
848.000	491.244	80.002	20.008	100.474	20.130	4.971	0.503
848.501	491.465	80.001	20.009	100.481	20.130	4.950	0.474
849.000	491.703	80.001	20.008	100.494	20.131	4.846	0.467
849.500	491.920	80.002	20.009	100.507	20.129	5.046	0.457
850.000	492.229	80.001	20.008	100.512	20.131	4.901	0.490
850.500	492.462	80.000	20.009	100.506	20.130	5.007	0.534
851.000	492.694	80.003	20.008	100.493	20.129	5.079	0.503
851.500	492.926	80.002	20.009	100.479	20.131	4.826	0.464
852.000	493.155	80.001	20.009	100.467	20.132	4.726	0.463
852.500	493.501	80.002	20.009	100.463	20.132	4.772	0.518
853.000	493.700	80.003	20.009	100.469	20.132	4.807	0.560
853.500	493.936	80.003	20.009	100.476	20.133	4.674	0.490
854.000	494.143	80.002	20.008	100.483	20.134	4.579	0.439
854.500	494.451	80.002	20.008	100.490	20.131	4.859	0.479
855.000	494.624	80.002	20.009	100.486	20.133	4.653	0.498
855.501	494.923	80.002	20.009	100.477	20.133	4.650	0.477
856.000	495.151	80.003	20.009	100.470	20.132	4.763	0.500
856.500	495.413	80.003	20.009	100.469	20.130	4.986	0.508
857.000	495.660	80.002	20.008	100.470	20.133	4.672	0.499
857.500	495.896	80.002	20.008	100.478	20.130	4.922	0.496
858.000	496.190	80.002	20.008	100.485	20.132	4.709	0.507
858.500	496.397	80.003	20.009	100.491	20.130	4.955	0.515
859.000	496.730	80.002	20.008	100.485	20.132	4.799	0.520
859.501	496.953	80.003	20.009	100.477	20.131	4.842	0.548
860.000	497.163	80.001	20.009	100.468	20.130	4.913	0.495
860.500	497.388	80.004	20.009	100.461	20.131	4.835	0.434
861.000	497.630	80.002	20.009	100.462	20.130	4.967	0.451
861.500	497.897	80.003	20.008	100.470	20.132	4.774	0.488
862.000	498.072	80.003	20.009	100.478	20.135	4.479	0.475
862.500	498.388	80.002	20.008	100.486	20.133	4.648	0.466
863.000	498.626	80.003	20.009	100.495	20.132	4.792	0.523
863.501	498.940	80.002	20.009	100.495	20.135	4.473	0.553
864.000	499.068	80.003	20.008	100.489	20.135	4.464	0.497
864.500	499.347	80.002	20.009	100.480	20.135	4.459	0.424
865.000	499.583	80.002	20.008	100.475	20.135	4.411	0.461
865.500	499.819	80.002	20.008	100.475	20.133	4.704	0.494
866.000	500.098	80.002	20.008	100.476	20.135	4.444	0.494
866.500	500.311	80.002	20.008	100.483	20.134	4.533	0.504
867.000	500.566	80.003	20.009	100.490	20.135	4.492	0.480
867.501	500.887	80.002	20.008	100.493	20.133	4.690	0.522
868.001	501.131	80.002	20.008	100.485	20.132	4.709	0.571
868.500	501.390	80.003	20.009	100.477	20.134	4.585	0.534
869.000	501.611	80.002	20.009	100.468	20.133	4.622	0.491
869.500	501.901	80.002	20.009	100.466	20.133	4.645	0.495
870.000	502.113	80.002	20.008	100.469	20.133	4.602	0.506
870.500	502.359	80.002	20.008	100.476	20.133	4.687	0.480
871.000	502.584	80.002	20.008	100.484	20.135	4.434	0.465
871.500	502.833	80.003	20.009	100.492	20.133	4.612	0.472
872.000	503.063	80.003	20.008	100.495	20.135	4.473	0.477
872.500	503.274	80.002	20.009	100.491	20.136	4.332	0.460
873.000	503.491	80.002	20.008	100.485	20.134	4.564	0.435
873.500	503.742	80.002	20.009	100.479	20.132	4.729	0.448
874.000	504.024	80.002	20.008	100.477	20.134	4.570	0.500
874.500	504.223	80.002	20.008	100.476	20.133	4.613	0.507
875.000	504.525	80.002	20.009	100.480	20.134	4.544	0.491
875.500	504.728	80.001	20.008	100.488	20.134	4.562	0.503
876.000	504.985	80.003	20.009	100.492	20.134	4.594	0.482
876.500	505.181	80.001	20.009	100.489	20.134	4.505	0.457
877.000	505.444	80.003	20.008	100.483	20.134	4.555	0.457
877.500	505.702	80.002	20.008	100.475	20.135	4.457	0.490
878.000	505.940	80.002	20.009	100.467	20.135	4.456	0.509
878.500	506.133	80.002	20.008	100.466	20.131	4.860	0.464
879.000	506.368	80.001	20.009	100.471	20.133	4.665	0.430
879.501	506.665	80.002	20.008	100.481	20.133	4.641	0.480
880.000	506.930	80.002	20.008	100.490	20.134	4.568	0.547
880.500	507.186	80.002	20.009	100.493	20.136	4.382	0.541
881.000	507.362	80.001	20.008	100.487	20.130	4.938	0.476
881.500	507.642	80.003	20.009	100.478	20.132	4.729	0.443
882.000	507.852	80.001	20.008	100.469	20.133	4.692	0.473
882.500	508.096	80.003	20.008	100.462	20.133	4.633	0.472
883.000	508.379	80.001	20.009	100.466	20.133	4.683	0.491
883.500	508.552	80.003	20.009	100.478	20.135	4.446	0.492
884.000	508.815	80.002	20.009	100.492	20.132	4.755	0.446
884.500	509.046	80.003	20.009	100.500	20.129	5.047	0.465
885.000	509.272	80.001	20.009	100.505	20.134	4.506	0.475
885.500	509.507	80.002	20.009	100.501	20.131	4.864	0.459
886.000	509.819	80.002	20.009	100.495	20.133	4.647	0.504
886.500	510.018	80.001	20.009	100.484	20.132	4.755	0.529
887.000	510.294	80.003	20.008	100.482	20.130	4.961	0.493
887.500	510.512	80.003	20.009	100.481	20.128	5.137	0.485
888.000	510.774	80.002	20.008	100.484	20.128	5.137	0.487
888.500	511.056	80.001	20.008	100.487	20.133	4.697	0.512
889.000	511.269	80.002	20.008	100.490	20.130	4.932	0.519
889.500	511.495	80.002	20.009	100.487	20.133	4.677	0.467
890.000	511.712	80.002	20.008	100.479	20.132	4.783	0.441
890.500	511.931	80.002	20.008	100.472	20.131	4.813	0.440
891.000	512.232	80.002	20.008	100.464	20.133	4.665	0.478
891.500	512.416	80.003	20.009	100.462	20.133	4.624	0.503
892.000	512.716	80.002	20.008	100.466	20.135	4.437	0.485
892.500	512.940	80.002	20.008	100.476	20.134	4.562	0.504
893.000	513.196	80.003	20.009	100.487	20.135	4.420	0.502
893.500	513.446	80.002	20.008	100.495	20.134	4.570	0.493
894.000	513.661	80.002	20.009	100.497	20.136	4.303	0.485
894.500	513.891	80.001	20.008	100.491	20.134	4.508	0.455
895.000	514.127	80.002	20.008	100.483	20.133	4.633	0.456
895.500	514.395	80.002	20.009	100.475	20.133	4.669	0.485
896.000	514.634	80.001	20.008	100.475	20.135	4.483	0.506
896.500	514.886	80.002	20.009	100.476	20.133	4.705	0.499
897.000	515.155	80.002	20.008	100.488	20.132	4.707	0.506
897.500	515.393	80.002	20.008	100.498	20.134	4.577	0.513
898.000	515.606	80.002	20.008	100.503	20.133	4.699	0.479
898.500	515.879	80.001	20.009	100.500	20.132	4.794	0.469
899.000	516.130	80.002	20.008	100.495	20.131	4.867	0.505
899.500	516.344	80.002	20.009	100.486	20.134	4.511	0.494
900.000	516.613	80.001	20.009	100.482	20.133	4.615	0.474
900.500	516.853	80.003	20.008	100.481	20.133	4.683	0.496
901.000	517.147	80.003	20.008	100.491	20.132	4.766	0.521
901.500	517.362	80.003	20.008	100.501	20.133	4.703	0.522
902.000	517.647	80.002	20.008	100.504	20.131	4.820	0.504
902.500	517.879	80.001	20.009	100.501	20.129	5.017	0.508
903.000	518.086	80.003	20.009	100.493	20.133	4.691	0.478
903.500	518.376	80.003	20.008	100.479	20.132	4.805	0.468
904.000	518.646	80.002	20.009	100.467	20.132	4.798	0.528
904.500	518.892	80.002	20.008	100.468	20.130	4.977	0.538
905.000	519.167	80.002	20.008	100.471	20.131	4.880	0.519
905.500	519.434	80.002	20.009	100.452	20.132	4.791	0.532
906.000	519.593	80.001	20.008	100.438	20.131	4.910	0.484
906.500	519.902	80.003	20.008	100.432	20.132	4.721	0.446
907.000	520.148	80.001	20.008	100.424	20.130	4.964	0.511
907.500	520.418	80.003	20.008	100.415	20.130	4.997	0.536
908.000	520.638	80.002	20.008	100.438	20.131	4.849	0.504
908.500	520.994	80.002	20.008	100.459	20.129	5.060	0.533
909.000	521.168	80.002	20.008	100.472	20.132	4.713	0.553
909.500	521.424	80.002	20.008	100.485	20.133	4.691	0.480
910.000	521.690	80.002	20.008	100.494	20.131	4.874	0.476
910.501	521.911	80.003	20.008	100.498	20.129	5.041	0.505
911.000	522.139	80.002	20.008	100.492	20.131	4.841	0.468
911.500	522.386	80.003	20.008	100.483	20.132	4.737	0.462
912.000	522.668	80.002	20.008	100.471	20.131	4.902	0.502
912.500	522.863	80.004	20.008	100.470	20.132	4.774	0.503
913.000	523.134	80.001	20.008	100.471	20.132	4.722	0.471
913.500	523.384	80.003	20.008	100.477	20.132	4.746	0.494
914.000	523.637	80.002	20.008	100.486	20.133	4.666	0.513
914.500	523.927	80.002	20.008	100.493	20.133	4.621	0.523
915.000	524.114	80.003	20.008	100.491	20.132	4.784	0.509
915.500	524.439	80.003	20.010	100.479	20.130	4.986	0.495
916.000	524.710	80.002	20.009	100.477	20.132	4.777	0.554
916.500	524.891	80.004	20.008	100.498	20.137	4.264	0.524
917.000	525.166	80.000	20.008	100.521	20.134	4.539	0.454
917.500	525.495	80.003	20.008	100.540	20.134	4.598	0.530
918.000	525.654	80.003	20.009	100.561	20.135	4.463	0.546
918.500	525.963	80.001	20.009	100.566	20.135	4.404	0.478
919.000	526.177	80.002	20.008	100.543	20.136	4.376	0.495
919.500	526.453	80.003	20.008	100.515	20.134	4.554	0.506
920.000	526.734	80.002	20.008	100.491	20.138	4.121	0.523
920.500	526.950	80.002	20.008	100.473	20.136	4.367	0.527
921.000	527.216	80.002	20.009	100.462	20.137	4.244	0.490
921.500	527.474	80.004	20.008	100.462	20.135	4.411	0.504
922.000	527.714	80.003	20.008	100.468	20.140	3.913	0.511
922.500	527.956	80.002	20.008	100.476	20.135	4.440	0.490
923.000	528.216	80.003	20.009	100.482	20.136	4.309	0.492
923.500	528.454	80.002	20.008	100.484	20.136	4.387	0.500
924.000	528.710	80.002	20.008	100.481	20.137	4.213	0.496
924.500	528.986	80.002	20.009	100.477	20.135	4.442	0.513
925.000	529.227	80.002	20.008	100.476	20.135	4.463	0.524
925.500	529.503	80.002	20.008	100.479	20.135	4.442	0.517
926.000	529.743	80.003	20.010	100.485	20.135	4.415	0.517
926.500	529.977	80.001	20.008	100.493	20.137	4.237	0.495
927.001	530.227	80.003	20.008	100.499	20.135	4.426	0.479
927.500	530.519	80.002	20.009	100.500	20.138	4.118	0.513
928.000	530.745	80.003	20.008	100.500	20.139	4.006	0.530
928.500	530.999	80.002	20.008	100.500	20.139	4.079	0.499
929.000	531.241	80.002	20.008	100.494	20.136	4.362	0.488
929.500	531.457	80.003	20.009	100.485	20.135	4.412	0.477
930.000	531.805	80.003	20.009	100.477	20.130	4.915	0.511
930.500	531.965	80.001	20.009	100.470	20.130	5.002	0.536
931.000	532.270	80.002	20.009	100.462	20.131	4.884	0.487
931.500	532.442	80.003	20.008	100.456	20.130	4.988	0.471
932.000	532.781	80.002	20.009	100.456	20.129	5.044	0.494
932.500	532.994	80.003	20.009	100.454	20.130	4.978	0.532
933.000	533.197	80.002	20.009	100.455	20.130	5.006	0.484
933.500	533.437	80.003	20.009	100.461	20.129	5.066	0.429
934.000	533.744	80.002	20.007	100.472	20.132	4.807	0.495
934.500	534.012	80.003	20.008	100.475	20.129	5.114	0.561
935.000	534.230	80.003	20.010	100.452	20.130	5.016	0.531
935.500	534.505	80.003	20.009	100.431	20.129	5.017	0.490
936.000	534.780	80.002	20.010	100.414	20.131	4.866	0.521
936.500	534.997	80.004	20.007	100.416	20.131	4.879	0.521
937.000	535.205	80.003	20.009	100.416	20.132	4.742	0.459
937.500	535.491	80.003	20.008	100.439	20.130	4.924	0.460
938.000	535.763	80.002	20.008	100.460	20.130	5.008	0.526
938.500	536.023	80.003	20.007	100.478	20.130	4.982	0.545
939.000	536.263	80.003	20.008	100.472	20.131	4.825	0.516
939.500	536.506	80.002	20.008	100.471	20.129	5.036	0.492
940.000	536.778	80.003	20.011	100.462	20.128	5.121	0.499
940.500	536.969	80.004	20.011	100.473	20.130	4.934	0.489
941.000	537.225	80.001	20.004	100.511	20.132	4.757	0.455
941.500	537.448	80.003	20.010	100.520	20.132	4.729	0.463
942.000	537.743	80.003	20.008	100.499	20.130	4.930	0.499
942.500	538.039	80.003	20.008	100.498	20.132	4.745	0.555
943.000	538.277	80.004	20.008	100.483	20.134	4.547	0.562
943.500	538.491	80.001	20.008	100.436	20.135	4.490	0.493
944.000	538.798	80.004	20.010	100.413	20.135	4.414	0.487
944.500	538.948	80.003	20.013	100.411	20.132	4.715	0.489
945.000	539.246	80.003	20.009	100.454	20.133	4.611	0.452
945.500	539.468	80.001	20.007	100.513	20.134	4.561	0.484
946.000	539.698	80.003	20.008	100.557	20.136	4.347	0.486
946.500	539.946	80.003	20.008	100.586	20.134	4.557	0.465
947.000	540.217	80.004	20.008	100.619	20.133	4.687	0.498
947.500	540.471	80.002	20.008	100.593	20.132	4.715	0.522
948.000	540.770	80.003	20.008	100.543	20.135	4.485	0.539
948.500	540.961	80.002	20.009	100.507	20.133	4.705	0.522
949.000	541.121	80.003	20.008	100.491	20.132	4.718	0.421
949.500	541.432	80.002	20.008	100.486	20.132	4.746	0.411
950.000	541.686	80.003	20.008	100.487	20.130	4.922	0.518
950.500	541.915	80.002	20.008	100.482	20.130	4.976	0.524
951.000	542.202	80.003	20.009	100.473	20.130	4.976	0.499
951.500	542.388	80.002	20.008	100.463	20.129	5.090	0.495
952.000	542.657	80.002	20.008	100.455	20.131	4.869	0.464
952.500	542.942	80.002	20.008	100.455	20.132	4.780	0.504
953.000	543.173	80.003	20.008	100.462	20.125	5.463	0.535
953.500	543.425	80.002	20.008	100.472	20.128	5.155	0.500
954.000	543.641	80.002	20.008	100.481	20.130	4.942	0.475
954.500	543.870	80.002	20.008	100.480	20.129	5.099	0.456
955.000	544.171	80.002	20.008	100.473	20.129	5.105	0.488
955.500	544.405	80.003	20.009	100.460	20.132	4.766	0.532
956.000	544.642	80.002	20.009	100.450	20.129	5.054	0.503
956.500	544.873	80.002	20.008	100.443	20.129	5.037	0.470
957.001	545.137	80.003	20.008	100.451	20.130	4.961	0.481
957.501	545.394	80.003	20.009	100.460	20.132	4.764	0.507
958.000	545.639	80.001	20.009	100.474	20.131	4.860	0.511
958.500	545.855	80.003	20.008	100.484	20.132	4.775	0.482
959.000	546.084	80.002	20.009	100.489	20.128	5.177	0.454
959.500	546.383	80.002	20.009	100.484	20.130	4.942	0.487
960.000	546.584	80.003	20.009	100.480	20.133	4.690	0.514
960.500	546.799	80.001	20.008	100.478	20.133	4.670	0.458
961.000	547.049	80.003	20.008	100.478	20.131	4.896	0.440
961.500	547.311	80.003	20.008	100.480	20.130	4.937	0.488
962.000	547.581	80.001	20.009	100.487	20.131	4.814	0.522
962.500	547.756	80.002	20.008	100.485	20.130	4.972	0.489
963.000	548.008	80.003	20.008	100.482	20.131	4.827	0.436
963.500	548.260	80.003	20.008	100.476	20.130	5.011	0.466
964.000	548.502	80.003	20.009	100.469	20.131	4.838	0.499
964.500	548.750	80.001	20.009	100.463	20.131	4.866	0.492
965.000	549.029	80.002	20.009	100.469	20.130	4.957	0.508
965.500	549.272	80.001	20.008	100.477	20.129	5.016	0.524
966.000	549.483	80.002	20.008	100.486	20.129	5.020	0.488
966.500	549.744	80.003	20.008	100.494	20.131	4.875	0.463
967.000	550.005	80.001	20.008	100.499	20.129	5.075	0.498
967.500	550.199	80.001	20.008	100.495	20.129	5.084	0.488
968.000	550.491	80.002	20.008	100.489	20.132	4.771	0.470
968.500	550.716	80.002	20.009	100.483	20.130	4.981	0.502
969.001	550.968	80.003	20.008	100.481	20.132	4.712	0.497
969.501	551.194	80.005	20.011	100.481	20.132	4.736	0.478
970.000	551.479	80.005	20.012	100.485	20.130	4.951	0.495
970.500	551.663	80.003	20.010	100.496	20.133	4.613	0.490
971.000	551.932	80.002	20.008	100.501	20.129	5.030	0.461
971.500	552.186	80.003	20.008	100.502	20.132	4.733	0.488
972.000	552.478	80.001	20.009	100.500	20.129	5.043	0.535
972.500	552.659	80.002	20.008	100.497	20.131	4.891	0.510
973.000	552.943	80.000	20.008	100.491	20.131	4.814	0.469
973.500	553.218	80.002	20.009	100.488	20.131	4.907	0.512
974.000	553.491	80.002	20.008	100.486	20.128	5.163	0.554
974.500	553.709	80.002	20.009	100.488	20.128	5.150	0.519
975.000	553.950	80.003	20.008	100.491	20.126	5.361	0.475
975.500	554.179	80.001	20.008	100.491	20.128	5.175	0.465
976.000	554.430	80.001	20.008	100.492	20.126	5.395	0.475
976.500	554.728	80.002	20.008	100.491	20.126	5.347	0.515
977.000	554.952	80.004	20.009	100.491	20.126	5.410	0.536
977.500	555.188	80.001	20.008	100.491	20.125	5.509	0.491
978.000	555.499	80.001	20.008	100.493	20.125	5.498	0.504
978.500	555.703	80.001	20.009	100.494	20.127	5.320	0.531
979.000	555.956	80.002	20.009	100.496	20.124	5.529	0.486
979.500	556.207	80.001	20.008	100.498	20.126	5.406	0.480
980.000	556.541	80.002	20.008	100.502	20.128	5.130	0.545
980.500	556.745	80.002	20.009	100.501	20.131	4.867	0.562
981.000	556.977	80.002	20.008	100.499	20.129	5.047	0.487
981.500	557.260	80.003	20.008	100.499	20.128	5.188	0.475
982.000	557.438	80.003	20.008	100.499	20.128	5.137	0.488
982.500	557.772	80.001	20.008	100.499	20.128	5.215	0.486
983.000	557.945	80.003	20.008	100.505	20.126	5.347	0.510
983.500	558.220	80.001	20.008	100.513	20.127	5.311	0.478
984.000	558.522	80.003	20.008	100.522	20.129	5.024	0.512
984.500	558.738	80.002	20.008	100.524	20.131	4.838	0.547
985.000	559.017	80.001	20.008	100.521	20.128	5.159	0.507
985.500	559.237	80.003	20.008	100.508	20.129	5.108	0.497
986.000	559.516	80.001	20.008	100.493	20.127	5.322	0.499
986.500	559.758	80.002	20.009	100.481	20.128	5.153	0.510
987.000	560.052	80.002	20.009	100.478	20.125	5.494	0.529
987.501	560.266	80.002	20.008	100.483	20.128	5.218	0.522
988.000	560.499	80.002	20.009	100.496	20.125	5.429	0.478
988.500	560.764	80.003	20.009	100.509	20.129	5.109	0.472
989.000	561.051	80.001	20.008	100.512	20.125	5.438	0.524
989.500	561.336	80.001	20.009	100.512	20.125	5.478	0.562
990.000	561.554	80.002	20.009	100.506	20.125	5.497	0.538
990.500	561.793	80.003	20.008	100.498	20.126	5.353	0.480
991.000	561.984	80.002	20.008	100.493	20.126	5.334	0.443
991.500	562.270	80.003	20.009	100.494	20.124	5.584	0.453
992.000	562.505	80.002	20.008	100.500	20.125	5.457	0.499
992.500	562.799	80.001	20.008	100.508	20.126	5.410	0.525
993.000	563.046	80.001	20.009	100.514	20.125	5.529	0.535
993.500	563.227	80.002	20.008	100.515	20.125	5.509	0.485
994.000	563.496	80.001	20.009	100.514	20.126	5.426	0.439
994.500	563.796	80.002	20.008	100.505	20.124	5.577	0.510
995.000	564.050	80.001	20.009	100.490	20.123	5.666	0.561
995.500	564.303	80.003	20.007	100.488	20.125	5.474	0.531
996.000	564.531	80.003	20.010	100.468	20.125	5.437	0.494
996.500	564.808	80.002	20.009	100.445	20.127	5.239	0.493
997.000	565.084	80.002	20.008	100.438	20.124	5.551	0.529
997.500	565.309	80.003	20.008	100.447	20.127	5.315	0.527
998.000	565.558	80.003	20.008	100.445	20.126	5.413	0.487
998.500	565.749	80.002	20.008	100.467	20.125	5.491	0.457
999.000	566.039	80.002	20.008	100.491	20.127	5.303	0.460
999.500	566.258	80.002	20.008	100.500	20.129	5.106	0.495
1000.000	566.594	80.002	20.008	100.498	20.128	5.185	0.532
1000.500	566.801	80.004	20.008	100.496	20.128	5.119	0.549
1001.000	567.094	80.001	20.008	100.494	20.131	4.815	0.522
1001.500	567.300	80.002	20.009	100.497	20.127	5.238	0.500
1002.000	567.511	80.003	20.009	100.499	20.130	5.009	0.458
1002.500	567.853	80.002	20.008	100.526	20.132	4.755	0.485
1003.000	568.063	80.002	20.008	100.561	20.131	4.902	0.552
1003.500	568.303	80.001	20.007	100.586	20.129	5.031	0.501
1004.000	568.559	80.001	20.008	100.596	20.126	5.414	0.473
1004.500	568.779	80.002	20.008	100.600	20.129	5.053	0.486
1005.000	569.037	80.001	20.008	100.578	20.128	5.192	0.477
1005.500	569.294	80.002	20.008	100.552	20.127	5.248	0.497
1006.000	569.516	80.002	20.008	100.534	20.127	5.296	0.497
1006.500	569.767	80.002	20.008	100.528	20.123	5.641	0.476
1007.000	570.052	80.001	20.008	100.531	20.128	5.170	0.504
1007.500	570.262	80.001	20.008	100.536	20.124	5.555	0.516
1008.000	570.517	80.003	20.008	100.536	20.127	5.268	0.480
1008.500	570.756	80.002	20.008	100.532	20.127	5.280	0.480
1009.000	571.012	80.002	20.008	100.524	20.125	5.480	0.495
1009.501	571.247	80.002	20.008	100.515	20.126	5.354	0.493
1010.000	571.477	80.002	20.008	100.498	20.126	5.397	0.478
1010.500	571.766	80.003	20.008	100.486	20.125	5.501	0.492
1011.000	572.021	80.001	20.008	100.482	20.126	5.327	0.532
1011.500	572.252	80.002	20.008	100.490	20.126	5.420	0.515
1012.000	572.491	80.001	20.008	100.498	20.126	5.331	0.478
1012.500	572.779	80.002	20.008	100.513	20.126	5.372	0.498
1013.000	572.977	80.002	20.008	100.521	20.126	5.324	0.506
1013.500	573.253	80.002	20.008	100.522	20.126	5.407	0.480
1014.000	573.495	80.002	20.009	100.511	20.127	5.250	0.496
1014.500	573.688	80.001	20.009	100.497	20.128	5.173	0.476
1015.000	574.023	80.002	20.008	100.488	20.128	5.160	0.481
1015.500	574.251	80.001	20.009	100.482	20.125	5.479	0.546
1016.000	574.496	80.001	20.008	100.484	20.125	5.525	0.518
1016.500	574.742	80.003	20.008	100.488	20.125	5.437	0.482
1017.000	574.981	80.001	20.008	100.496	20.127	5.274	0.488
1017.500	575.218	80.002	20.008	100.499	20.127	5.244	0.481
1018.000	575.482	80.002	20.008	100.499	20.127	5.270	0.488
1018.500	575.755	80.002	20.008	100.496	20.127	5.294	0.519
1019.000	575.998	80.003	20.008	100.494	20.125	5.518	0.527
1019.500	576.185	80.003	20.008	100.489	20.126	5.396	0.473
1020.000	576.458	80.002	20.009	100.488	20.124	5.571	0.445
1020.500	576.673	80.003	20.009	100.493	20.125	5.443	0.474
1021.000	576.962	80.002	20.008	100.501	20.125	5.462	0.496
1021.500	577.191	80.001	20.008	100.510	20.127	5.260	0.511
1022.000	577.467	80.004	20.009	100.521	20.126	5.382	0.511
1022.500	577.703	80.002	20.009	100.523	20.126	5.339	0.509
1023.000	577.956	80.002	20.008	100.518	20.124	5.596	0.501
1023.500	578.233	80.001	20.008	100.510	20.124	5.605	0.509
1024.000	578.442	80.003	20.008	100.499	20.126	5.351	0.508
1024.500	578.724	79.999	20.008	100.490	20.125	5.435	0.488
1025.001	578.973	80.003	20.009	100.487	20.127	5.298	0.511
1025.501	579.227	80.001	20.008	100.486	20.127	5.249	0.517
1026.000	579.495	80.002	20.008	100.487	20.126	5.416	0.513
1026.500	579.695	80.001	20.009	100.489	20.124	5.531	0.495
1027.000	579.971	80.002	20.008	100.492	20.124	5.612	0.472
1027.500	580.207	80.002	20.008	100.499	20.122	5.773	0.493
1028.000	580.485	80.002	20.008	100.501	20.126	5.406	0.513
1028.500	580.750	80.002	20.008	100.502	20.124	5.531	0.529
1029.000	580.990	80.001	20.008	100.502	20.126	5.403	0.524
1029.500	581.251	80.002	20.008	100.497	20.125	5.457	0.503
1030.000	581.468	80.002	20.009	100.490	20.125	5.504	0.489
1030.500	581.717	80.002	20.009	100.488	20.125	5.513	0.472
1031.000	581.950	80.001	20.008	100.488	20.122	5.750	0.474
1031.500	582.195	80.003	20.008	100.492	20.124	5.604	0.480
1032.000	582.461	80.001	20.008	100.494	20.124	5.620	0.495
1032.500	582.715	80.002	20.008	100.491	20.124	5.537	0.516
1033.000	582.977	80.002	20.008	100.484	20.123	5.711	0.518
1033.501	583.194	80.002	20.008	100.476	20.121	5.909	0.497
1034.001	583.452	80.001	20.008	100.467	20.122	5.750	0.477
1034.501	583.694	80.002	20.009	100.468	20.119	6.056	0.488
1035.001	583.939	80.002	20.008	100.472	20.120	6.034	0.493
1035.500	584.169	80.002	20.008	100.480	20.122	5.777	0.480
1036.000	584.420	80.002	20.008	100.491	20.120	5.983	0.478
1036.500	584.706	80.001	20.009	100.496	20.123	5.712	0.509
1037.000	584.873	80.002	20.008	100.496	20.123	5.686	0.496
1037.500	585.248	80.001	20.008	100.490	20.123	5.719	0.498
1038.000	585.437	80.002	20.008	100.481	20.123	5.700	0.553
1038.500	585.677	80.003	20.008	100.471	20.123	5.694	0.497
1039.000	585.939	80.001	20.008	100.462	20.125	5.520	0.466
1039.500	586.145	80.001	20.009	100.462	20.124	5.619	0.485
1040.000	586.407	80.003	20.008	100.467	20.124	5.552	0.468
1040.500	586.653	80.002	20.009	100.476	20.123	5.649	0.488
1041.000	586.912	80.002	20.009	100.484	20.126	5.393	0.507
1041.501	587.126	80.003	20.008	100.492	20.125	5.441	0.489
1042.001	587.400	80.003	20.008	100.493	20.125	5.527	0.480
1042.501	587.609	80.003	20.009	100.487	20.125	5.499	0.485
1043.000	587.839	80.002	20.008	100.480	20.123	5.640	0.461
1043.500	588.107	80.002	20.009	100.478	20.125	5.517	0.468
1044.000	588.354	80.001	20.008	100.483	20.123	5.733	0.506
1044.500	588.568	80.003	20.008	100.485	20.120	6.000	0.488
1045.001	588.854	80.002	20.009	100.490	20.124	5.560	0.480
1045.501	589.053	80.002	20.008	100.498	20.120	5.940	0.493
1046.000	589.321	80.002	20.009	100.500	20.125	5.495	0.476
1046.501	589.559	80.003	20.008	100.496	20.122	5.738	0.487
1047.001	589.783	80.002	20.009	100.494	20.123	5.639	0.484
1047.500	590.024	80.002	20.009	100.489	20.126	5.394	0.463
1048.001	590.246	80.002	20.009	100.481	20.122	5.766	0.464
1048.501	590.470	80.003	20.009	100.475	20.123	5.699	0.454
1049.000	590.709	80.003	20.008	100.472	20.123	5.651	0.454
1049.500	590.962	80.002	20.008	100.473	20.123	5.687	0.477
1050.001	591.208	80.001	20.008	100.479	20.123	5.639	0.495
1050.501	591.423	80.002	20.008	100.485	20.123	5.708	0.480
1051.000	591.634	80.002	20.008	100.492	20.123	5.697	0.444
1051.500	591.918	80.002	20.009	100.493	20.123	5.695	0.461
1052.000	592.152	80.002	20.008	100.490	20.123	5.670	0.506
1052.500	592.406	80.003	20.008	100.483	20.120	5.942	0.503
1053.000	592.652	80.002	20.009	100.480	20.121	5.879	0.494
1053.500	592.934	80.002	20.009	100.478	20.121	5.844	0.514
1054.000	593.130	80.002	20.009	100.482	20.121	5.919	0.503
1054.500	593.428	80.003	20.008	100.488	20.120	5.951	0.486
1055.000	593.666	80.002	20.009	100.503	20.122	5.831	0.515
1055.500	593.918	80.002	20.008	100.512	20.121	5.903	0.513
1056.000	594.151	80.002	20.008	100.514	20.120	5.979	0.487
1056.501	594.403	80.002	20.009	100.513	20.119	6.080	0.485
1057.001	594.628	80.002	20.009	100.505	20.119	6.048	0.481
1057.501	594.923	80.002	20.008	100.490	20.121	5.866	0.499
1058.000	595.145	80.002	20.009	100.477	20.120	6.025	0.519
1058.500	595.398	80.001	20.008	100.472	20.121	5.918	0.496
1059.000	595.639	80.002	20.009	100.472	20.119	6.072	0.484
1059.500	595.917	80.002	20.008	100.476	20.121	5.895	0.507
1060.001	596.128	80.002	20.008	100.485	20.121	5.849	0.504
1060.501	596.331	80.001	20.008	100.499	20.120	5.953	0.451
1061.000	596.639	80.002	20.008	100.509	20.121	5.929	0.462
1061.500	596.868	80.003	20.008	100.509	20.122	5.830	0.524
1062.000	597.133	80.001	20.008	100.505	20.121	5.928	0.515
1062.500	597.365	80.002	20.008	100.497	20.121	5.887	0.495
1063.000	597.642	80.002	20.008	100.483	20.123	5.635	0.503
1063.500	597.925	80.002	20.009	100.477	20.122	5.767	0.535
1064.000	598.138	80.001	20.009	100.478	20.120	6.010	0.528
1064.500	598.372	80.001	20.008	100.482	20.121	5.915	0.471
1065.000	598.666	80.002	20.009	100.490	20.121	5.921	0.487
1065.500	598.942	80.001	20.008	100.498	20.121	5.884	0.549
1066.000	599.164	80.001	20.008	100.497	20.120	5.976	0.535
1066.500	599.384	80.003	20.008	100.497	20.121	5.854	0.470
1067.000	599.654	80.003	20.009	100.490	20.119	6.119	0.466
1067.500	599.934	80.002	20.008	100.481	20.119	6.080	0.520
1068.001	600.120	80.001	20.008	100.473	20.119	6.060	0.508
1068.501	600.385	80.002	20.009	100.472	20.119	6.085	0.458
1069.001	600.657	80.002	20.008	100.475	20.120	5.951	0.494
1069.500	600.884	80.001	20.008	100.488	20.120	5.979	0.518
1070.000	601.131	80.003	20.009	100.499	20.122	5.775	0.487
1070.500	601.377	80.002	20.008	100.511	20.120	6.038	0.483
1071.001	601.664	80.001	20.008	100.512	20.118	6.158	0.513
1071.501	601.902	80.003	20.009	100.506	20.121	5.896	0.529
1072.001	602.126	80.002	20.008	100.492	20.120	5.993	0.493
1072.501	602.391	80.003	20.009	100.480	20.118	6.180	0.476
1073.000	602.652	80.002	20.008	100.473	20.118	6.155	0.508
1073.500	602.915	80.002	20.009	100.472	20.118	6.188	0.525
1074.000	603.123	80.002	20.008	100.475	20.120	5.995	0.498
1074.500	603.375	80.001	20.009	100.483	20.118	6.232	0.466
1075.000	603.670	80.003	20.008	100.491	20.120	6.023	0.503
1075.500	603.867	80.001	20.008	100.493	20.119	6.143	0.519
1076.000	604.186	80.001	20.008	100.492	20.117	6.276	0.504
1076.501	604.446	80.004	20.008	100.488	20.119	6.060	0.548
1077.001	604.665	80.003	20.009	100.486	20.118	6.162	0.529
1077.500	604.940	80.001	20.008	100.484	20.119	6.120	0.486
1078.000	605.193	80.001	20.008	100.483	20.119	6.103	0.510
1078.501	605.482	80.002	20.009	100.484	20.120	6.006	0.535
1079.001	605.732	80.002	20.008	100.489	20.120	5.993	0.541
1079.500	605.969	80.002	20.008	100.490	20.120	6.002	0.513
1080.000	606.215	80.002	20.008	100.492	20.119	6.053	0.485
1080.500	606.507	80.000	20.008	100.488	20.119	6.098	0.511
1081.000	606.706	80.002	20.008	100.479	20.119	6.058	0.515
1081.500	607.012	80.002	20.008	100.471	20.117	6.281	0.498
1082.000	607.269	80.001	20.008	100.466	20.117	6.249	0.533
1082.500	607.543	80.001	20.008	100.466	20.119	6.064	0.547
1083.000	607.752	80.003	20.008	100.470	20.119	6.143	0.507
1083.500	608.023	80.003	20.008	100.478	20.116	6.416	0.481
1084.001	608.250	80.001	20.008	100.486	20.115	6.473	0.489
1084.501	608.508	80.003	20.008	100.492	20.117	6.323	0.492
1085.000	608.741	80.002	20.008	100.491	20.113	6.672	0.488
1085.500	608.996	80.002	20.008	100.486	20.115	6.476	0.489
1086.001	609.303	80.002	20.008	100.480	20.118	6.217	0.525
1086.501	609.543	80.003	20.008	100.479	20.118	6.170	0.555
1087.001	609.781	80.002	20.008	100.479	20.117	6.281	0.512
1087.501	610.078	80.002	20.008	100.480	20.116	6.423	0.506
1088.000	610.328	80.003	20.008	100.487	20.117	6.270	0.541
1088.500	610.553	80.002	20.008	100.494	20.114	6.559	0.511
1089.001	610.812	80.003	20.008	100.493	20.114	6.570	0.479
1089.501	611.026	80.002	20.008	100.488	20.115	6.460	0.478
1090.000	611.349	80.002	20.008	100.481	20.114	6.627	0.505
1090.500	611.558	80.002	20.008	100.473	20.115	6.477	0.535
1091.000	611.833	80.001	20.008	100.474	20.112	6.829	0.509
1091.500	612.095	80.002	20.008	100.482	20.113	6.755	0.511
1092.000	612.347	80.003	20.007	100.495	20.111	6.901	0.525
1092.500	612.569	80.002	20.009	100.488	20.111	6.923	0.494
1093.000	612.781	80.002	20.008	100.472	20.113	6.715	0.454
1093.500	613.081	80.002	20.008	100.457	20.115	6.472	0.473
1094.000	613.356	80.001	20.008	100.442	20.117	6.334	0.544
1094.500	613.564	80.001	20.008	100.431	20.115	6.512	0.529
1095.000	613.828	80.002	20.008	100.446	20.118	6.203	0.477
1095.500	614.113	80.002	20.008	100.473	20.118	6.176	0.510
1096.000	614.344	80.003	20.008	100.496	20.119	6.091	0.532
1096.500	614.597	80.002	20.007	100.512	20.122	5.766	0.500
1097.000	614.846	80.004	20.010	100.517	20.121	5.870	0.493
1097.500	615.093	80.003	20.009	100.519	20.122	5.825	0.499
1098.001	615.338	80.002	20.007	100.540	20.122	5.736	0.494
1098.501	615.588	80.001	20.007	100.559	20.122	5.814	0.493
1099.000	615.840	80.003	20.008	100.565	20.122	5.757	0.499
1099.500	616.099	80.002	20.008	100.571	20.122	5.766	0.507
1100.001	616.339	80.001	20.008	100.575	20.121	5.911	0.505
1100.501	616.630	80.003	20.008	100.557	20.123	5.722	0.515
1101.000	616.838	80.002	20.008	100.539	20.121	5.886	0.515
1101.501	617.110	80.003	20.008	100.533	20.121	5.878	0.489
1102.001	617.386	80.001	20.007	100.533	20.121	5.846	0.514
1102.500	617.680	80.002	20.008	100.527	20.121	5.929	0.559
1103.000	617.846	80.003	20.008	100.518	20.122	5.738	0.515
1103.500	618.143	80.002	20.007	100.511	20.118	6.166	0.461
1104.000	618.398	80.003	20.008	100.511	20.117	6.286	0.507
1104.500	618.614	80.003	20.008	100.511	20.117	6.273	0.512
1105.000	618.849	80.001	20.008	100.519	20.120	5.969	0.461
1105.501	619.136	80.003	20.008	100.527	20.118	6.230	0.486
1106.001	619.388	80.001	20.007	100.535	20.118	6.157	0.531
1106.500	619.633	80.002	20.008	100.532	20.120	5.971	0.518
1107.000	619.860	80.002	20.008	100.524	20.119	6.115	0.484
1107.500	620.104	80.003	20.008	100.516	20.119	6.137	0.472
1108.000	620.370	80.001	20.008	100.507	20.120	5.986	0.491
1108.500	620.600	80.003	20.008	100.500	20.118	6.188	0.503
1109.000	620.876	80.000	20.008	100.495	20.119	6.114	0.501
1109.500	621.149	80.003	20.008	100.500	20.116	6.414	0.528
1110.000	621.434	80.002	20.008	100.507	20.117	6.291	0.553
1110.501	621.662	80.002	20.008	100.513	20.114	6.608	0.535
1111.001	621.907	80.002	20.008	100.514	20.112	6.773	0.493
1111.501	622.171	80.001	20.007	100.510	20.112	6.807	0.491
1112.001	622.491	80.003	20.008	100.493	20.113	6.759	0.547
1112.501	622.748	80.000	20.009	100.474	20.113	6.723	0.581
1113.001	622.921	80.001	20.008	100.460	20.113	6.754	0.503
1113.500	623.185	80.002	20.007	100.451	20.113	6.747	0.434
1114.000	623.443	80.002	20.009	100.447	20.110	7.040	0.480
1114.501	623.716	80.002	20.008	100.451	20.112	6.774	0.526
1115.001	623.954	80.002	20.008	100.458	20.113	6.705	0.521
1115.501	624.230	80.002	20.008	100.466	20.112	6.795	0.513
1116.000	624.461	80.002	20.008	100.473	20.110	7.017	0.511
1116.500	624.678	80.003	20.007	100.480	20.112	6.852	0.478
1117.000	624.978	80.001	20.009	100.482	20.114	6.587	0.483
1117.500	625.198	80.002	20.008	100.483	20.114	6.647	0.519
1118.000	625.473	80.002	20.008	100.486	20.114	6.575	0.508
1118.500	625.697	80.002	20.008	100.496	20.113	6.720	0.497
1119.000	625.980	80.003	20.009	100.505	20.116	6.395	0.502
1119.501	626.144	80.001	20.008	100.518	20.117	6.269	0.477
1120.001	626.443	80.001	20.008	100.527	20.115	6.518	0.455
1120.500	626.684	80.002	20.008	100.524	20.117	6.262	0.501
1121.000	626.907	80.002	20.008	100.517	20.119	6.090	0.502
1121.500	627.185	80.001	20.008	100.511	20.120	6.038	0.483
1122.000	627.395	80.002	20.008	100.507	20.116	6.357	0.495
1122.500	627.680	80.003	20.009	100.510	20.119	6.100	0.491
1123.001	627.938	80.002	20.008	100.525	20.120	5.945	0.518
1123.501	628.203	80.002	20.007	100.556	20.120	5.981	0.533
1124.000	628.458	80.000	20.007	100.585	20.122	5.806	0.522
1124.500	628.660	80.003	20.008	100.600	20.117	6.269	0.489
1125.000	628.922	80.001	20.008	100.602	20.120	6.001	0.461
1125.500	629.162	80.002	20.008	100.592	20.119	6.088	0.483
1126.000	629.383	80.003	20.008	100.561	20.120	6.025	0.481
1126.500	629.615	80.002	20.008	100.530	20.119	6.101	0.457
1127.000	629.896	80.001	20.008	100.512	20.120	5.946	0.483
1127.500	630.094	80.002	20.009	100.508	20.118	6.159	0.496
1128.000	630.389	80.001	20.008	100.510	20.118	6.243	0.486
1128.501	630.617	80.001	20.008	100.518	20.116	6.353	0.508
1129.001	630.860	80.002	20.008	100.526	20.116	6.351	0.497
1129.500	631.080	80.002	20.008	100.532	20.116	6.387	0.467
1130.000	631.338	80.001	20.008	100.528	20.117	6.333	0.470
1130.500	631.578	80.002	20.008	100.520	20.119	6.084	0.488
1131.001	631.831	80.002	20.008	100.511	20.118	6.217	0.496
1131.501	632.059	80.001	20.008	100.503	20.116	6.356	0.486
1132.001	632.327	80.002	20.009	100.495	20.117	6.335	0.488
1132.500	632.552	80.002	20.008	100.495	20.119	6.096	0.495
1133.000	632.805	80.000	20.008	100.503	20.116	6.354	0.486
1133.500	633.031	80.002	20.008	100.510	20.116	6.436	0.479
1134.000	633.327	80.002	20.008	100.516	20.117	6.254	0.501
1134.501	633.500	80.002	20.008	100.516	20.115	6.511	0.495
1135.001	633.767	80.002	20.008	100.507	20.116	6.421	0.454
1135.501	634.031	80.002	20.008	100.492	20.115	6.532	0.485
1136.000	634.289	80.001	20.008	100.479	20.115	6.523	0.527
1136.500	634.470	80.002	20.009	100.472	20.117	6.292	0.481
1137.000	634.723	80.002	20.008	100.475	20.116	6.416	0.436
1137.500	634.955	80.002	20.008	100.489	20.113	6.674	0.460
1138.000	635.241	80.002	20.008	100.504	20.114	6.584	0.502
1138.500	635.493	80.002	20.008	100.517	20.113	6.691	0.528
1139.001	635.791	80.002	20.008	100.521	20.113	6.672	0.544
1139.501	636.014	80.001	20.008	100.518	20.112	6.768	0.536
1140.001	636.267	80.002	20.008	100.507	20.114	6.562	0.499
1140.501	636.502	80.003	20.008	100.496	20.114	6.610	0.482
1141.001	636.788	80.001	20.008	100.485	20.115	6.528	0.504
1141.500	636.991	80.002	20.009	100.483	20.114	6.652	0.505
1142.000	637.234	80.004	20.008	100.488	20.114	6.611	0.468
1142.500	637.518	80.002	20.008	100.497	20.114	6.624	0.486
1143.001	637.727	80.001	20.008	100.508	20.112	6.844	0.510
1143.501	638.012	80.002	20.008	100.520	20.113	6.692	0.493
1144.000	638.215	80.003	20.008	100.525	20.112	6.797	0.491
1144.500	638.501	80.002	20.008	100.519	20.115	6.508	0.489
1145.000	638.764	80.001	20.008	100.507	20.112	6.851	0.519
1145.500	639.010	80.002	20.008	100.499	20.113	6.718	0.528
1146.000	639.238	80.003	20.008	100.491	20.113	6.680	0.491
1146.500	639.513	80.002	20.008	100.489	20.116	6.425	0.488
1147.000	639.766	80.002	20.008	100.498	20.114	6.584	0.516
1147.500	639.992	80.002	20.008	100.510	20.115	6.544	0.504
1148.000	640.230	80.001	20.008	100.519	20.115	6.474	0.471
1148.500	640.490	80.002	20.008	100.524	20.115	6.544	0.481
1149.000	640.763	80.002	20.008	100.521	20.117	6.339	0.516
1149.500	640.950	80.002	20.008	100.513	20.115	6.461	0.496
1150.000	641.251	80.003	20.008	100.506	20.112	6.850	0.474
1150.501	641.451	80.003	20.008	100.496	20.115	6.543	0.494
1151.001	641.766	80.001	20.008	100.491	20.112	6.850	0.508
1151.500	641.987	80.002	20.008	100.493	20.113	6.741	0.526
1152.000	642.208	80.002	20.008	100.501	20.113	6.676	0.489
1152.500	642.472	80.001	20.008	100.510	20.115	6.469	0.463
1153.001	642.743	80.003	20.008	100.519	20.116	6.361	0.510
1153.501	642.970	80.002	20.008	100.527	20.115	6.524	0.517
1154.001	643.261	80.002	20.008	100.533	20.116	6.431	0.508
1154.501	643.460	80.002	20.008	100.532	20.117	6.297	0.504
1155.000	643.746	80.001	20.008	100.532	20.118	6.156	0.487
1155.501	643.992	80.003	20.008	100.533	20.119	6.119	0.508
1156.001	644.231	80.002	20.008	100.536	20.118	6.212	0.509
1156.501	644.450	80.001	20.008	100.543	20.117	6.292	0.471
1157.001	644.694	80.002	20.008	100.552	20.121	5.910	0.460
1157.501	644.936	80.002	20.008	100.556	20.118	6.186	0.474
1158.001	645.204	80.003	20.008	100.556	20.120	6.011	0.498
1158.501	645.469	80.001	20.008	100.548	20.119	6.132	0.522
1159.000	645.726	80.003	20.008	100.533	20.119	6.123	0.528
1159.501	645.950	80.002	20.008	100.519	20.119	6.128	0.502
1160.001	646.164	80.002	20.008	100.515	20.120	6.034	0.459
1160.501	646.488	80.003	20.009	100.516	20.122	5.775	0.488
1161.001	646.699	80.003	20.008	100.529	20.120	5.966	0.536
1161.500	646.926	80.002	20.008	100.544	20.120	5.966	0.486
1162.000	647.206	80.002	20.008	100.559	20.119	6.131	0.473
1162.501	647.441	80.003	20.008	100.568	20.120	5.951	0.511
1163.001	647.675	80.000	20.008	100.568	20.120	6.041	0.492
1163.501	647.945	80.005	20.008	100.555	20.118	6.150	0.486
1164.000	648.186	80.002	20.008	100.539	20.119	6.102	0.508
1164.500	648.408	80.001	20.008	100.523	20.117	6.347	0.487
1165.000	648.656	80.002	20.008	100.506	20.118	6.209	0.466
1165.500	648.893	80.003	20.008	100.497	20.117	6.341	0.477
1166.000	649.141	80.002	20.008	100.496	20.116	6.391	0.485
1166.500	649.393	80.002	20.008	100.503	20.116	6.417	0.493
1167.000	649.646	80.001	20.008	100.512	20.116	6.374	0.502
1167.500	649.853	80.003	20.008	100.519	20.120	5.946	0.482
1168.001	650.147	80.001	20.008	100.524	20.118	6.241	0.480
1168.501	650.363	80.002	20.008	100.524	20.114	6.630	0.505
1169.000	650.611	80.003	20.008	100.516	20.118	6.164	0.487
1169.500	650.904	80.002	20.008	100.514	20.115	6.505	0.503
1170.000	651.073	80.002	20.008	100.515	20.120	6.005	0.502
1170.500	651.331	80.002	20.008	100.522	20.119	6.114	0.445
1171.000	651.646	80.001	20.008	100.536	20.118	6.197	0.500
1171.500	651.868	80.002	20.008	100.552	20.120	5.995	0.555
1172.000	652.080	80.003	20.008	100.559	20.120	6.007	0.486
1172.500	652.341	80.002	20.008	100.560	20.123	5.726	0.453
1173.001	652.616	80.004	20.008	100.557	20.122	5.752	0.504
1173.501	652.785	80.003	20.008	100.549	20.121	5.862	0.490
1174.001	653.085	80.001	20.008	100.541	20.118	6.199	0.457
1174.500	653.298	80.002	20.008	100.541	20.118	6.179	0.491
1175.000	653.529	80.002	20.008	100.547	20.120	6.022	0.478
1175.500	653.794	80.002	20.008	100.555	20.120	5.979	0.470
1176.000	654.060	80.003	20.008	100.562	20.122	5.751	0.514
1176.500	654.348	80.002	20.008	100.567	20.123	5.728	0.542
1177.000	654.601	80.001	20.008	100.562	20.121	5.910	0.547
1177.500	654.835	80.002	20.008	100.552	20.119	6.096	0.514
1178.000	655.030	80.002	20.008	100.538	20.120	6.025	0.458
1178.500	655.312	80.001	20.008	100.525	20.117	6.281	0.454
1179.000	655.544	80.001	20.008	100.521	20.120	6.006	0.496
1179.500	655.808	80.001	20.008	100.527	20.120	5.984	0.505
1180.000	656.045	80.002	20.008	100.536	20.118	6.204	0.498
1180.500	656.271	80.003	20.008	100.544	20.119	6.095	0.482
1181.000	656.532	80.001	20.008	100.555	20.119	6.061	0.475
1181.500	656.767	80.002	20.008	100.557	20.117	6.261	0.492
1182.000	656.918	80.002	20.008	100.550	20.117	6.295	0.441
1182.500	657.262	80.001	20.008	100.544	20.118	6.202	0.440
1183.000	657.535	80.003	20.008	100.545	20.119	6.095	0.556
1183.500	657.780	80.002	20.008	100.547	20.119	6.120	0.567
1184.000	658.019	80.001	20.008	100.555	20.119	6.096	0.501
1184.500	658.236	80.002	20.008	100.563	20.120	6.015	0.470
1185.001	658.506	80.001	20.007	100.570	20.118	6.226	0.471
1185.501	658.772	80.002	20.007	100.571	20.117	6.247	0.512
1186.001	659.016	80.004	20.008	100.563	20.116	6.371	0.523
1186.500	659.273	80.000	20.008	100.554	20.116	6.449	0.506
1187.001	659.477	80.003	20.008	100.546	20.115	6.496	0.481
1187.501	659.788	80.000	20.008	100.538	20.117	6.300	0.488
1188.000	660.012	80.002	20.007	100.537	20.116	6.350	0.525
1188.500	660.289	80.003	20.008	100.545	20.117	6.244	0.518
1189.000	660.529	80.002	20.007	100.553	20.115	6.453	0.509
1189.500	660.747	80.001	20.008	100.555	20.115	6.551	0.487
1190.000	660.965	80.001	20.008	100.550	20.113	6.682	0.447
1190.501	661.248	80.003	20.008	100.539	20.112	6.768	0.469
1191.001	661.490	80.002	20.008	100.520	20.111	6.873	0.514
1191.500	661.772	80.002	20.008	100.503	20.111	6.942	0.525
1192.001	662.024	80.001	20.008	100.492	20.110	7.022	0.528
1192.501	662.267	80.003	20.007	100.489	20.112	6.850	0.514
1193.001	662.485	80.002	20.008	100.488	20.109	7.138	0.478
1193.500	662.769	80.002	20.008	100.491	20.111	6.927	0.481
1194.000	663.009	80.002	20.008	100.492	20.106	7.390	0.513
1194.500	663.223	80.003	20.008	100.493	20.108	7.206	0.489
1195.001	663.475	80.001	20.007	100.490	20.106	7.384	0.460
1195.501	663.741	80.003	20.008	100.487	20.108	7.263	0.492
1196.001	663.996	80.001	20.008	100.479	20.106	7.402	0.520
1196.500	664.218	80.002	20.008	100.471	20.106	7.471	0.499
1197.000	664.491	80.002	20.007	100.463	20.106	7.419	0.487
1197.500	664.701	80.002	20.008	100.457	20.106	7.446	0.489
1198.000	664.959	80.003	20.007	100.454	20.107	7.291	0.475
1198.500	665.193	80.002	20.007	100.453	20.110	7.059	0.480
1199.001	665.474	80.000	20.008	100.453	20.106	7.404	0.503
1199.501	665.742	80.002	20.008	100.451	20.107	7.333	0.532
1200.001	665.958	80.002	20.008	100.445	20.104	7.617	0.517
1200.500	666.203	80.002	20.008	100.437	20.105	7.543	0.472
1201.000	666.505	80.002	20.008	100.433	20.104	7.641	0.504
1201.500	666.694	80.004	20.008	100.432	20.105	7.501	0.520
1202.000	666.935	80.002	20.007	100.438	20.105	7.503	0.461
1202.500	667.166	80.002	20.008	100.451	20.107	7.334	0.451
1203.000	667.418	80.002	20.008	100.466	20.105	7.485	0.478
1203.501	667.631	80.002	20.007	100.478	20.107	7.290	0.474
1204.001	667.885	80.002	20.008	100.486	20.105	7.534	0.465
1204.501	668.165	80.004	20.008	100.484	20.109	7.147	0.500
1205.000	668.357	80.001	20.008	100.477	20.108	7.186	0.503
1205.501	668.629	80.002	20.008	100.470	20.108	7.237	0.468
1206.001	668.829	80.003	20.008	100.462	20.107	7.328	0.468
1206.500	669.112	80.002	20.008	100.457	20.108	7.263	0.477
1207.001	669.317	80.001	20.008	100.461	20.105	7.525	0.486
1207.501	669.570	80.001	20.008	100.466	20.105	7.566	0.473
1208.001	669.770	80.003	20.008	100.468	20.106	7.424	0.456
1208.501	670.029	80.002	20.008	100.470	20.107	7.337	0.456
1209.000	670.308	80.002	20.008	100.470	20.107	7.285	0.498
1209.500	670.539	80.001	20.008	100.472	20.105	7.521	0.524
1210.000	670.727	80.003	20.008	100.475	20.107	7.374	0.465
1210.500	670.996	80.000	20.008	100.485	20.109	7.122	0.438
1211.000	671.229	80.002	20.008	100.499	20.106	7.412	0.479
1211.500	671.440	80.002	20.007	100.516	20.107	7.349	0.472
1212.001	671.678	80.003	20.007	100.530	20.108	7.256	0.447
1212.501	671.968	80.002	20.008	100.537	20.109	7.136	0.489
1213.000	672.184	80.003	20.008	100.539	20.108	7.188	0.517
1213.501	672.462	80.003	20.008	100.535	20.107	7.357	0.500
1214.001	672.671	80.002	20.008	100.529	20.108	7.189	0.490
1214.500	672.989	80.002	20.008	100.525	20.110	7.039	0.507
1215.000	673.191	80.002	20.008	100.526	20.112	6.863	0.524
1215.501	673.433	80.003	20.007	100.533	20.108	7.277	0.482
1216.001	673.678	80.002	20.008	100.544	20.111	6.875	0.465
1216.501	673.882	80.000	20.007	100.553	20.109	7.168	0.468
1217.000	674.186	80.003	20.008	100.556	20.109	7.141	0.479
1217.500	674.425	80.003	20.008	100.553	20.109	7.128	0.526
1218.000	674.664	80.001	20.008	100.548	20.109	7.171	0.510
1218.501	674.921	80.001	20.008	100.542	20.108	7.222	0.487
1219.001	675.139	80.002	20.008	100.539	20.110	7.066	0.486
1219.501	675.441	80.002	20.008	100.543	20.110	7.040	0.497
1220.001	675.679	80.002	20.008	100.549	20.108	7.184	0.530
1220.500	675.956	80.002	20.008	100.550	20.108	7.235	0.527
1221.000	676.230	80.002	20.008	100.542	20.110	7.032	0.533
1221.500	676.457	80.002	20.008	100.532	20.108	7.197	0.526
1222.000	676.679	80.002	20.008	100.517	20.109	7.101	0.475
1222.500	676.992	80.002	20.008	100.506	20.109	7.149	0.492
1223.001	677.218	80.003	20.008	100.503	20.109	7.153	0.537
1223.501	677.441	80.003	20.008	100.510	20.109	7.143	0.494
1224.001	677.677	80.002	20.008	100.518	20.110	7.021	0.454
1224.501	677.989	80.003	20.008	100.526	20.109	7.149	0.504
1225.001	678.264	80.001	20.008	100.531	20.109	7.072	0.568
1225.500	678.499	80.002	20.008	100.527	20.110	7.015	0.548
1226.000	678.784	80.002	20.008	100.519	20.109	7.145	0.515
1226.501	679.050	80.002	20.008	100.510	20.110	7.035	0.536
1227.001	679.309	80.002	20.008	100.502	20.110	6.981	0.538
1227.500	679.539	80.002	20.008	100.505	20.109	7.096	0.507
1228.000	679.831	80.002	20.007	100.510	20.108	7.261	0.505
1228.501	680.080	80.002	20.008	100.516	20.107	7.361	0.532
1229.001	680.377	80.001	20.007	100.516	20.108	7.189	0.544
1229.500	680.614	80.001	20.008	100.516	20.105	7.506	0.540
1230.000	680.877	80.002	20.008	100.508	20.106	7.425	0.517
1230.500	681.156	80.001	20.008	100.501	20.106	7.421	0.521
1231.001	681.479	80.002	20.008	100.498	20.105	7.517	0.571
1231.501	681.715	80.002	20.008	100.505	20.107	7.374	0.580
1232.001	681.939	80.002	20.008	100.513	20.107	7.366	0.510
1232.500	682.187	80.002	20.007	100.521	20.106	7.455	0.466
1233.000	682.466	80.002	20.008	100.529	20.106	7.443	0.500
1233.500	682.718	80.001	20.008	100.534	20.107	7.367	0.529
1234.000	683.032	80.002	20.008	100.532	20.109	7.163	0.548
1234.501	683.280	80.002	20.008	100.525	20.108	7.186	0.563
1235.001	683.563	80.002	20.008	100.522	20.111	6.888	0.546
1235.500	683.814	80.003	20.008	100.522	20.107	7.306	0.532
1236.000	684.071	80.002	20.008	100.522	20.110	6.977	0.521
1236.500	684.329	80.001	20.008	100.525	20.107	7.328	0.512
1237.000	684.652	80.002	20.008	100.526	20.105	7.576	0.548
1237.501	684.881	80.002	20.008	100.522	20.105	7.515	0.566
1238.001	685.176	80.003	20.008	100.513	20.108	7.231	0.538
1238.501	685.409	80.002	20.008	100.505	20.107	7.312	0.526
1239.001	685.705	80.002	20.008	100.500	20.106	7.384	0.529
1239.501	685.941	80.002	20.008	100.504	20.107	7.355	0.531
1240.001	686.228	80.002	20.008	100.508	20.105	7.498	0.527
1240.501	686.537	80.003	20.008	100.509	20.107	7.367	0.559
1241.000	686.741	80.002	20.008	100.510	20.106	7.469	0.555
1241.500	687.067	80.002	20.008	100.507	20.109	7.098	0.522
1242.001	687.341	80.001	20.008	100.501	20.108	7.260	0.565
1242.501	687.568	80.002	20.008	100.497	20.107	7.310	0.551
1243.001	687.899	80.003	20.008	100.497	20.105	7.566	0.530
1243.500	688.155	80.002	20.008	100.503	20.106	7.388	0.572
1244.001	688.409	80.003	20.008	100.510	20.105	7.498	0.549
1244.501	688.631	80.001	20.008	100.513	20.103	7.730	0.493
1245.001	688.917	80.002	20.008	100.513	20.105	7.557	0.492
1245.500	689.194	80.003	20.009	100.511	20.105	7.540	0.535
1246.000	689.510	80.001	20.008	100.505	20.104	7.636	0.578
1246.500	689.750	80.003	20.008	100.506	20.102	7.873	0.575
1247.000	689.992	80.003	20.008	100.509	20.103	7.725	0.519
1247.500	690.255	80.003	20.008	100.518	20.104	7.670	0.493
1248.000	690.534	80.004	20.008	100.524	20.103	7.693	0.524
1248.500	690.826	80.001	20.008	100.523	20.106	7.411	0.557
1249.000	691.040	80.002	20.008	100.516	20.103	7.720	0.539
1249.500	691.341	80.003	20.008	100.510	20.104	7.610	0.510
1250.000	691.660	80.002	20.008	100.507	20.105	7.521	0.567
1250.500	691.857	80.001	20.008	100.508	20.105	7.486	0.568
1251.000	692.250	80.002	20.007	100.518	20.104	7.640	0.553
1251.500	692.434	80.002	20.008	100.524	20.107	7.281	0.584
1252.000	692.631	80.001	20.008	100.522	20.103	7.729	0.480
1252.500	692.943	80.002	20.008	100.516	20.101	7.961	0.445
1253.001	693.192	80.001	20.008	100.509	20.102	7.842	0.535
1253.501	693.449	80.001	20.008	100.503	20.101	7.965	0.534
1254.000	693.737	80.003	20.008	100.504	20.099	8.114	0.526
1254.500	694.050	80.003	20.008	100.513	20.100	8.007	0.573
1255.000	694.251	80.001	20.008	100.521	20.097	8.350	0.557
1255.500	694.530	80.002	20.008	100.526	20.099	8.168	0.497
1256.000	694.842	80.000	20.008	100.524	20.099	8.159	0.536
1256.500	695.044	80.002	20.008	100.517	20.101	7.960	0.553
1257.000	695.315	80.002	20.008	100.510	20.101	7.991	0.494
1257.501	695.629	80.002	20.008	100.510	20.104	7.671	0.529
1258.001	695.891	80.003	20.008	100.512	20.099	8.196	0.581
1258.501	696.154	80.002	20.008	100.519	20.100	8.087	0.550
1259.000	696.400	80.003	20.008	100.525	20.101	7.945	0.517
1259.500	696.685	80.002	20.008	100.526	20.100	8.071	0.520
1260.000	696.962	80.001	20.008	100.519	20.099	8.200	0.546
1260.500	697.187	80.001	20.008	100.511	20.099	8.113	0.532
1261.000	697.416	80.003	20.008	100.508	20.098	8.287	0.478
1261.501	697.737	80.002	20.008	100.509	20.100	8.061	0.502
1262.001	697.967	80.002	20.008	100.515	20.100	8.060	0.550
1262.500	698.265	80.002	20.007	100.523	20.101	7.943	0.540
1263.001	698.537	80.003	20.008	100.529	20.099	8.127	0.549
1263.501	698.775	80.002	20.007	100.525	20.099	8.101	0.540
1264.000	699.038	80.002	20.008	100.517	20.099	8.161	0.506
1264.500	699.342	80.003	20.008	100.515	20.097	8.388	0.534
1265.000	699.569	80.001	20.008	100.514	20.098	8.216	0.549
1265.501	699.885	80.002	20.008	100.516	20.099	8.190	0.537
1266.001	700.105	80.002	20.008	100.524	20.100	8.061	0.539
1266.500	700.388	80.004	20.008	100.531	20.097	8.323	0.519
1267.001	700.636	80.002	20.008	100.528	20.100	8.028	0.517
1267.501	700.928	80.003	20.008	100.521	20.099	8.118	0.536
1268.000	701.189	80.002	20.008	100.518	20.102	7.877	0.546
1268.500	701.408	80.003	20.008	100.518	20.101	7.954	0.516
1269.000	701.648	80.002	20.008	100.519	20.101	7.971	0.469
1269.500	701.895	80.002	20.008	100.524	20.101	7.996	0.473
1270.000	702.142	80.002	20.007	100.531	20.100	8.041	0.491
1270.500	702.389	80.003	20.007	100.531	20.100	8.009	0.494
1271.001	702.632	80.003	20.008	100.523	20.100	8.077	0.492
1271.501	702.949	80.003	20.008	100.515	20.099	8.105	0.525
1272.000	703.196	80.001	20.008	100.508	20.100	8.084	0.562
1272.500	703.486	80.001	20.008	100.507	20.099	8.141	0.550
1273.000	703.757	80.003	20.008	100.509	20.098	8.232	0.549
1273.500	704.018	80.003	20.008	100.516	20.101	7.979	0.547
1274.000	704.223	80.002	20.008	100.520	20.100	8.022	0.499
1274.500	704.525	80.002	20.008	100.519	20.101	7.996	0.486
1275.001	704.763	80.004	20.008	100.508	20.098	8.268	0.523
1275.501	705.044	80.002	20.008	100.500	20.099	8.199	0.530
1276.001	705.280	80.002	20.008	100.498	20.100	8.031	0.518
1276.501	705.542	80.003	20.008	100.504	20.099	8.102	0.507
1277.000	705.784	80.002	20.007	100.512	20.101	7.995	0.501
1277.500	706.078	80.001	20.008	100.524	20.100	8.036	0.520
1278.001	706.369	80.004	20.008	100.526	20.101	7.908	0.561
1278.501	706.630	80.002	20.008	100.522	20.100	8.073	0.568
1279.001	706.897	80.002	20.008	100.514	20.100	8.018	0.540
1279.500	707.147	80.003	20.008	100.510	20.099	8.128	0.523
1280.000	707.393	80.003	20.008	100.511	20.100	8.022	0.506
1280.501	707.661	80.001	20.008	100.517	20.100	8.089	0.505
1281.002	707.929	80.003	20.008	100.525	20.101	7.943	0.525
1281.501	708.181	80.003	20.008	100.532	20.100	8.082	0.528
1282.000	708.428	80.001	20.008	100.529	20.097	8.372	0.510
1282.501	708.663	80.002	20.008	100.521	20.098	8.294	0.490
1283.001	708.926	80.002	20.008	100.514	20.097	8.314	0.490
1283.500	709.231	80.002	20.008	100.515	20.095	8.595	0.533
1284.000	709.490	80.004	20.008	100.520	20.096	8.414	0.566
1284.500	709.737	80.003	20.008	100.527	20.096	8.462	0.535
1285.000	710.027	80.004	20.007	100.535	20.094	8.692	0.522
1285.501	710.267	80.002	20.008	100.541	20.096	8.481	0.534
1286.001	710.490	80.002	20.008	100.533	20.097	8.317	0.496
1286.500	710.734	80.001	20.008	100.523	20.098	8.274	0.465
1287.001	711.003	80.004	20.008	100.522	20.099	8.168	0.490
1287.501	711.253	80.002	20.008	100.520	20.093	8.737	0.516
1288.000	711.569	80.002	20.008	100.522	20.097	8.367	0.542
1288.500	711.838	80.002	20.008	100.524	20.095	8.520	0.575
1289.000	712.092	80.002	20.008	100.523	20.095	8.566	0.554
1289.501	712.355	80.003	20.008	100.513	20.095	8.541	0.521
1290.001	712.598	80.003	20.008	100.504	20.094	8.713	0.512
1290.501	712.823	80.002	20.008	100.497	20.093	8.724	0.487
1291.001	713.067	80.003	20.008	100.501	20.096	8.509	0.468
1291.500	713.383	80.002	20.008	100.508	20.093	8.758	0.514
1292.000	713.620	80.002	20.008	100.514	20.094	8.621	0.556
1292.500	713.938	80.002	20.008	100.516	20.094	8.621	0.554
1293.000	714.142	80.002	20.008	100.515	20.093	8.745	0.539
1293.500	714.437	80.002	20.008	100.509	20.094	8.687	0.511
1294.000	714.681	80.002	20.008	100.504	20.094	8.689	0.519
1294.500	714.926	80.003	20.008	100.506	20.094	8.641	0.514
1295.001	715.228	80.002	20.007	100.513	20.096	8.497	0.518
1295.501	715.454	80.002	20.008	100.521	20.096	8.456	0.537
1296.000	715.735	80.002	20.008	100.528	20.096	8.430	0.518
1296.500	715.986	80.002	20.008	100.529	20.096	8.426	0.520
1297.000	716.271	80.002	20.008	100.526	20.095	8.561	0.534
1297.500	716.431	80.003	20.008	100.524	20.093	8.761	0.491
1298.000	716.732	80.002	20.008	100.524	20.093	8.779	0.453
1298.500	716.921	80.002	20.008	100.527	20.096	8.455	0.475
1299.000	717.166	80.001	20.008	100.539	20.098	8.267	0.461
1299.501	717.496	80.003	20.008	100.544	20.096	8.486	0.504
1300.001	717.712	80.002	20.007	100.544	20.098	8.224	0.561
1300.500	718.008	80.001	20.008	100.538	20.097	8.328	0.529
1301.000	718.223	80.003	20.008	100.532	20.093	8.772	0.512
1301.500	718.522	80.000	20.008	100.525	20.095	8.584	0.513
1302.000	718.789	80.002	20.008	100.526	20.094	8.685	0.540
1302.500	719.007	80.003	20.008	100.534	20.093	8.733	0.525
1303.000	719.344	80.001	20.008	100.542	20.094	8.633	0.520
1303.500	719.572	80.001	20.008	100.544	20.093	8.805	0.560
1304.001	719.830	80.003	20.008	100.540	20.095	8.521	0.525
1304.501	720.120	80.001	20.008	100.537	20.095	8.517	0.517
1305.000	720.343	80.002	20.008	100.530	20.094	8.698	0.530
1305.500	720.551	80.004	20.008	100.534	20.095	8.552	0.473
1306.001	720.810	80.002	20.008	100.539	20.094	8.632	0.449
1306.501	721.096	80.002	20.007	100.545	20.095	8.551	0.506
1307.000	721.317	80.002	20.008	100.546	20.097	8.359	0.525
1307.501	721.577	80.002	20.008	100.542	20.095	8.542	0.494
1308.001	721.819	80.002	20.008	100.527	20.095	8.527	0.492
1308.500	722.139	80.002	20.008	100.515	20.091	8.971	0.532
1309.000	722.313	80.004	20.008	100.513	20.096	8.417	0.528
1309.500	722.570	80.003	20.008	100.513	20.099	8.164	0.462
1310.000	722.817	80.001	20.008	100.517	20.094	8.625	0.468
1310.500	723.064	80.002	20.008	100.523	20.095	8.585	0.499
1311.000	723.334	80.003	20.008	100.527	20.094	8.694	0.505
1311.500	723.582	80.002	20.008	100.519	20.094	8.617	0.518
1312.000	723.872	80.002	20.008	100.511	20.095	8.587	0.528
1312.500	724.136	80.002	20.008	100.510	20.094	8.711	0.546
1313.001	724.347	80.004	20.008	100.511	20.094	8.717	0.515
1313.501	724.605	80.002	20.008	100.514	20.094	8.662	0.472
1314.001	724.872	80.002	20.008	100.523	20.095	8.568	0.497
1314.501	725.135	80.002	20.008	100.530	20.094	8.709	0.528
1315.000	725.418	80.003	20.008	100.525	20.093	8.768	0.537
1315.500	725.624	80.002	20.008	100.524	20.095	8.564	0.517
1316.001	725.925	80.002	20.008	100.524	20.097	8.371	0.499
1316.501	726.248	80.002	20.008	100.524	20.095	8.558	0.566
1317.000	726.483	80.002	20.008	100.529	20.097	8.383	0.591
1317.500	726.686	80.001	20.008	100.538	20.094	8.622	0.498
1318.000	726.996	80.002	20.008	100.540	20.095	8.603	0.476
1318.500	727.265	80.003	20.008	100.536	20.096	8.507	0.546
1319.000	727.517	80.002	20.008	100.529	20.093	8.753	0.550
1319.500	727.706	80.001	20.008	100.525	20.093	8.750	0.481
1320.000	728.019	80.002	20.008	100.521	20.094	8.617	0.472
1320.500	728.293	80.001	20.008	100.524	20.093	8.743	0.544
1321.001	728.566	80.002	20.008	100.531	20.095	8.602	0.567
1321.501	728.825	80.003	20.008	100.538	20.091	8.978	0.540
1322.001	729.084	80.004	20.008	100.532	20.091	9.000	0.525
1322.501	729.354	80.003	20.008	100.529	20.094	8.624	0.523
1323.000	729.624	80.003	20.008	100.524	20.093	8.770	0.534
1323.501	729.879	80.003	20.009	100.520	20.093	8.788	0.533
1324.001	730.141	80.002	20.008	100.521	20.094	8.640	0.521
1324.500	730.401	80.003	20.008	100.532	20.093	8.784	0.520
1325.000	730.647	80.002	20.007	100.540	20.096	8.488	0.514
1325.500	730.961	80.001	20.007	100.542	20.097	8.355	0.533
1326.000	731.150	80.003	20.008	100.540	20.093	8.736	0.532
1326.500	731.393	80.002	20.008	100.534	20.093	8.764	0.468
1327.001	731.640	80.002	20.008	100.529	20.091	8.951	0.461
1327.501	731.900	80.002	20.008	100.526	20.093	8.770	0.498
1328.000	732.180	80.003	20.008	100.528	20.091	8.941	0.523
1328.501	732.457	80.001	20.008	100.531	20.090	9.110	0.549
1329.001	732.678	80.002	20.008	100.535	20.090	9.032	0.528
1329.500	732.947	80.002	20.008	100.532	20.090	9.028	0.494
1330.001	733.231	80.002	20.009	100.524	20.092	8.881	0.521
1330.501	733.492	80.001	20.008	100.521	20.090	9.062	0.549
1331.000	733.745	80.002	20.008	100.521	20.090	9.065	0.530
1331.500	734.044	80.002	20.008	100.522	20.091	8.963	0.533
1332.001	734.297	80.002	20.008	100.528	20.090	9.065	0.552
1332.501	734.554	80.002	20.007	100.539	20.092	8.825	0.531
1333.000	734.785	80.002	20.008	100.541	20.091	8.962	0.499
1333.500	735.023	80.002	20.008	100.541	20.091	9.025	0.479
1334.001	735.336	80.003	20.008	100.541	20.091	8.960	0.510
1334.501	735.570	80.003	20.008	100.536	20.094	8.686	0.549
1335.001	735.821	80.002	20.008	100.538	20.091	8.941	0.516
1335.501	736.096	80.003	20.008	100.546	20.092	8.869	0.506
1336.000	736.350	80.003	20.008	100.551	20.092	8.903	0.527
1336.500	736.589	80.001	20.008	100.552	20.091	9.006	0.511
1337.000	736.884	80.003	20.008	100.549	20.089	9.157	0.514
1337.500	737.085	80.002	20.009	100.538	20.091	8.969	0.515
1338.000	737.344	80.002	20.008	100.530	20.091	8.996	0.478
1338.501	737.703	80.003	20.008	100.526	20.090	9.118	0.539
1339.001	737.894	80.002	20.008	100.526	20.091	8.950	0.584
1339.500	738.199	80.001	20.008	100.530	20.090	9.027	0.523
1340.000	738.429	80.002	20.008	100.535	20.091	8.981	0.516
1340.500	738.710	80.002	20.008	100.527	20.091	8.942	0.523
1341.000	738.990	80.002	20.008	100.519	20.091	8.990	0.536
1341.500	739.298	80.003	20.008	100.510	20.090	9.130	0.575
1342.000	739.504	80.002	20.008	100.510	20.091	8.978	0.551
1342.501	739.766	80.002	20.008	100.511	20.088	9.329	0.491
1343.001	739.977	80.001	20.008	100.524	20.090	9.081	0.471
1343.500	740.224	80.003	20.008	100.533	20.089	9.151	0.466
1344.000	740.484	80.002	20.008	100.540	20.091	9.023	0.482
1344.500	740.736	80.000	20.007	100.537	20.089	9.171	0.509
1345.000	740.940	80.003	20.008	100.536	20.090	9.120	0.484
1345.500	741.224	80.003	20.008	100.531	20.092	8.892	0.472
1346.000	741.491	80.001	20.008	100.531	20.089	9.175	0.519
1346.500	741.745	80.001	20.008	100.533	20.087	9.366	0.536
1347.000	741.996	80.002	20.008	100.534	20.089	9.215	0.513
1347.500	742.236	80.002	20.008	100.528	20.088	9.315	0.498
1348.000	742.496	80.002	20.008	100.520	20.090	9.128	0.495
