Sample Weight (mg):	3.01
Heating Rate (C/s):	0.5
Combustor Temp (C):	900
N2 Flow Rate (cc/min):	80
O2 Flow Rate (cc/min):	20
Time (s)	Temperature (C)	N2 flow rate (cc/min)	O2 flow rate (cc/min)	Flow Rate (cc/min)	Oxygen (%)	HRR (W/g)	Heating rate (C/s)
0.000	87.794	80.003	20.008	100.508	20.190	0.476	-0.067
0.500	87.795	80.002	20.008	100.518	20.191	0.394	-0.046
1.000	87.839	80.003	20.008	100.525	20.193	0.196	0.004
1.500	87.816	80.003	20.009	100.530	20.189	0.592	0.033
2.000	87.813	80.002	20.009	100.524	20.189	0.544	-0.003
2.500	87.787	80.003	20.008	100.517	20.190	0.508	-0.028
3.000	87.744	80.002	20.008	100.507	20.189	0.544	-0.049
3.500	87.716	80.003	20.008	100.500	20.191	0.401	-0.070
4.000	87.748	80.002	20.008	100.499	20.189	0.572	-0.033
4.500	87.712	80.005	20.009	100.507	20.189	0.548	-0.000
5.000	87.731	80.001	20.008	100.515	20.191	0.427	-0.010
5.500	87.720	80.003	20.008	100.518	20.191	0.425	-0.004
6.000	87.689	80.003	20.009	100.517	20.192	0.244	-0.017
6.500	87.687	80.003	20.009	100.512	20.188	0.660	-0.038
7.000	87.715	80.002	20.008	100.504	20.188	0.696	-0.004
7.500	87.695	80.003	20.008	100.496	20.190	0.462	0.017
8.000	87.705	80.002	20.009	100.500	20.191	0.414	-0.001
8.500	87.735	80.003	20.008	100.508	20.191	0.343	0.015
9.000	87.746	80.002	20.008	100.517	20.190	0.451	0.040
9.501	87.721	80.002	20.009	100.523	20.190	0.493	0.014
10.001	87.744	80.003	20.008	100.525	20.191	0.405	-0.007
10.500	87.696	80.004	20.008	100.520	20.190	0.526	-0.013
11.000	87.719	80.003	20.009	100.512	20.189	0.639	-0.026
11.500	87.755	80.002	20.008	100.505	20.191	0.368	0.017
12.000	87.757	80.004	20.009	100.506	20.191	0.377	0.049
12.501	87.784	80.001	20.008	100.511	20.189	0.562	0.033
13.001	87.779	80.002	20.009	100.516	20.189	0.603	0.026
13.500	87.703	80.004	20.008	100.518	20.189	0.573	-0.029
14.000	87.727	80.003	20.008	100.517	20.190	0.487	-0.066
14.500	87.732	80.004	20.009	100.504	20.188	0.676	-0.011
15.000	87.732	80.002	20.009	100.496	20.189	0.590	0.017
15.500	87.762	80.002	20.009	100.491	20.187	0.777	0.017
16.000	87.782	80.003	20.008	100.492	20.188	0.678	0.040
16.500	87.827	80.002	20.008	100.496	20.188	0.714	0.057
17.000	87.804	80.004	20.008	100.508	20.188	0.740	0.044
17.500	87.749	80.003	20.009	100.512	20.188	0.724	-0.027
18.000	87.701	80.001	20.008	100.511	20.187	0.824	-0.090
18.500	87.779	80.003	20.008	100.507	20.183	1.187	-0.037
19.000	87.825	80.002	20.009	100.502	20.184	1.103	0.077
19.500	87.772	80.002	20.008	100.498	20.182	1.323	0.058
20.000	87.784	80.003	20.009	100.501	20.183	1.182	-0.024
20.500	87.826	80.003	20.009	100.509	20.181	1.385	0.007
21.000	87.830	80.001	20.008	100.517	20.186	0.940	0.050
21.500	87.843	80.003	20.008	100.525	20.184	1.129	0.031
22.000	87.816	80.002	20.009	100.524	20.184	1.096	0.001
22.500	87.876	80.003	20.008	100.519	20.184	1.081	0.010
23.000	87.920	80.001	20.008	100.517	20.184	1.161	0.069
23.500	87.946	80.003	20.009	100.518	20.184	1.136	0.087
24.000	87.965	80.002	20.008	100.519	20.183	1.189	0.058
24.500	87.911	80.003	20.008	100.530	20.184	1.121	0.005
25.000	87.941	80.001	20.008	100.542	20.187	0.764	-0.030
25.500	87.926	80.003	20.008	100.544	20.182	1.279	-0.005
26.000	87.945	80.003	20.009	100.544	20.185	1.033	0.010
26.500	87.984	80.003	20.008	100.543	20.184	1.079	0.031
27.000	87.988	80.002	20.009	100.537	20.186	0.852	0.051
27.500	87.999	80.002	20.009	100.531	20.181	1.396	0.029
28.000	88.013	80.004	20.009	100.534	20.182	1.304	0.020
28.500	88.072	80.003	20.008	100.542	20.182	1.313	0.049
29.000	88.090	80.002	20.008	100.549	20.184	1.061	0.075
29.500	88.091	80.003	20.008	100.548	20.184	1.136	0.048
30.000	88.112	80.003	20.009	100.544	20.185	0.980	0.020
30.500	88.184	80.003	20.008	100.534	20.185	0.976	0.057
31.000	88.153	80.002	20.008	100.525	20.181	1.381	0.067
31.500	88.236	80.003	20.009	100.520	20.183	1.251	0.046
32.000	88.222	80.003	20.008	100.522	20.184	1.102	0.060
32.500	88.247	80.002	20.008	100.525	20.185	1.000	0.040
33.000	88.309	80.002	20.009	100.530	20.184	1.062	0.049
33.500	88.300	80.002	20.008	100.527	20.184	1.117	0.070
34.000	88.339	80.003	20.008	100.519	20.186	0.890	0.041
34.500	88.304	80.003	20.009	100.515	20.185	0.994	0.017
35.000	88.321	80.002	20.009	100.516	20.184	1.144	-0.007
35.500	88.342	80.003	20.008	100.524	20.182	1.305	0.010
36.000	88.413	80.002	20.008	100.535	20.183	1.203	0.065
36.500	88.445	80.002	20.008	100.546	20.184	1.122	0.098
37.001	88.475	80.003	20.008	100.547	20.178	1.785	0.082
37.501	88.530	80.002	20.008	100.547	20.181	1.439	0.073
38.000	88.509	80.002	20.009	100.540	20.180	1.505	0.060
38.500	88.571	80.002	20.009	100.533	20.184	1.062	0.038
39.000	88.578	80.004	20.008	100.531	20.184	1.106	0.055
39.500	88.590	80.000	20.008	100.538	20.181	1.415	0.043
40.001	88.675	80.003	20.008	100.543	20.181	1.431	0.058
40.501	88.719	80.002	20.008	100.550	20.179	1.627	0.114
41.000	88.760	80.003	20.008	100.550	20.181	1.395	0.108
41.500	88.783	80.001	20.009	100.548	20.179	1.629	0.074
42.000	88.857	80.003	20.008	100.543	20.179	1.662	0.080
42.500	88.873	80.004	20.009	100.544	20.179	1.607	0.094
43.000	88.853	80.001	20.008	100.545	20.177	1.887	0.043
43.501	88.898	80.004	20.008	100.559	20.178	1.784	0.010
44.001	88.920	80.001	20.008	100.575	20.177	1.886	0.046
44.500	89.001	80.002	20.008	100.590	20.178	1.780	0.085
45.000	89.020	80.003	20.008	100.592	20.177	1.802	0.102
45.500	89.048	80.003	20.009	100.593	20.178	1.773	0.074
46.000	89.119	80.002	20.009	100.587	20.177	1.879	0.073
46.500	89.144	80.002	20.008	100.581	20.175	2.015	0.098
47.000	89.228	80.002	20.009	100.582	20.177	1.854	0.102
47.500	89.226	80.003	20.008	100.597	20.177	1.865	0.095
48.001	89.281	80.002	20.008	100.608	20.176	1.969	0.068
48.501	89.325	80.003	20.008	100.616	20.177	1.797	0.077
49.000	89.377	80.002	20.008	100.620	20.177	1.821	0.097
49.500	89.409	80.003	20.008	100.613	20.176	1.991	0.089
50.000	89.489	80.003	20.008	100.599	20.178	1.731	0.098
50.500	89.537	80.002	20.008	100.587	20.179	1.640	0.121
51.000	89.523	80.003	20.008	100.584	20.176	1.980	0.081
51.500	89.596	80.002	20.008	100.590	20.175	2.075	0.046
52.000	89.627	80.003	20.008	100.605	20.176	1.971	0.081
52.500	89.656	80.001	20.008	100.622	20.178	1.768	0.082
53.000	89.683	80.003	20.008	100.637	20.178	1.722	0.058
53.500	89.718	80.002	20.008	100.645	20.175	2.024	0.059
54.000	89.830	80.004	20.008	100.642	20.176	1.980	0.105
54.500	89.930	80.002	20.009	100.638	20.177	1.866	0.180
55.000	89.934	80.003	20.008	100.639	20.172	2.333	0.158
55.501	90.007	80.002	20.008	100.647	20.174	2.152	0.090
56.001	90.077	80.002	20.009	100.658	20.172	2.393	0.110
56.501	90.119	80.001	20.008	100.676	20.176	1.961	0.128
57.001	90.191	80.004	20.008	100.690	20.177	1.807	0.113
57.501	90.296	80.003	20.008	100.696	20.176	1.946	0.146
58.001	90.297	80.002	20.008	100.689	20.173	2.310	0.141
58.501	90.325	80.002	20.009	100.680	20.176	1.920	0.067
59.000	90.406	80.003	20.009	100.668	20.175	2.092	0.069
59.500	90.467	80.003	20.008	100.656	20.174	2.125	0.126
60.000	90.514	80.003	20.008	100.653	20.174	2.145	0.125
60.500	90.652	80.002	20.009	100.659	20.175	2.061	0.147
61.000	90.727	80.003	20.008	100.664	20.173	2.244	0.199
61.500	90.752	80.002	20.008	100.665	20.174	2.203	0.156
62.001	90.772	80.003	20.008	100.669	20.173	2.278	0.073
62.501	90.906	80.003	20.009	100.666	20.171	2.441	0.100
63.001	90.963	80.003	20.009	100.660	20.172	2.339	0.173
63.500	91.008	80.002	20.008	100.658	20.171	2.436	0.147
64.000	91.141	80.003	20.008	100.658	20.169	2.710	0.140
64.500	91.265	80.002	20.008	100.656	20.170	2.615	0.218
65.000	91.284	80.003	20.008	100.663	20.171	2.458	0.200
65.500	91.419	80.002	20.009	100.672	20.169	2.664	0.148
66.000	91.470	80.002	20.008	100.678	20.169	2.638	0.170
66.500	91.563	80.002	20.008	100.683	20.169	2.682	0.165
67.001	91.604	80.003	20.009	100.682	20.169	2.684	0.139
67.501	91.725	80.003	20.008	100.674	20.169	2.711	0.148
68.000	91.782	80.003	20.009	100.667	20.167	2.854	0.170
68.500	91.896	80.001	20.008	100.668	20.166	2.987	0.174
69.000	91.972	80.003	20.009	100.677	20.164	3.219	0.180
69.500	92.023	80.003	20.008	100.694	20.163	3.272	0.158
70.000	92.167	80.002	20.008	100.716	20.163	3.290	0.161
70.500	92.220	80.002	20.008	100.736	20.161	3.487	0.196
71.000	92.258	80.003	20.008	100.749	20.160	3.655	0.144
71.500	92.363	80.003	20.008	100.751	20.160	3.613	0.117
72.000	92.472	80.004	20.008	100.748	20.156	4.008	0.178
72.500	92.576	80.002	20.008	100.741	20.157	3.924	0.213
73.000	92.693	80.003	20.008	100.740	20.158	3.820	0.217
73.500	92.782	80.003	20.008	100.741	20.156	4.008	0.213
74.000	92.879	80.003	20.008	100.749	20.156	4.000	0.196
74.500	92.990	80.002	20.008	100.758	20.155	4.150	0.197
75.000	93.061	80.003	20.008	100.766	20.155	4.172	0.195
75.500	93.173	80.003	20.008	100.766	20.154	4.226	0.182
76.000	93.313	80.002	20.009	100.757	20.154	4.284	0.218
76.500	93.366	80.002	20.008	100.747	20.154	4.246	0.223
77.000	93.458	80.004	20.008	100.738	20.153	4.377	0.169
77.500	93.625	80.002	20.009	100.737	20.152	4.489	0.202
78.000	93.730	80.003	20.008	100.740	20.150	4.668	0.265
78.500	93.857	80.004	20.008	100.752	20.147	4.963	0.252
79.000	93.942	80.002	20.008	100.767	20.148	4.861	0.222
79.500	94.010	80.003	20.008	100.777	20.147	4.973	0.183
80.000	94.143	80.002	20.008	100.779	20.147	4.964	0.178
80.500	94.267	80.003	20.008	100.778	20.147	4.942	0.229
81.000	94.415	80.002	20.009	100.775	20.144	5.272	0.264
81.500	94.501	80.003	20.008	100.776	20.145	5.202	0.253
82.000	94.685	80.003	20.009	100.783	20.144	5.262	0.252
82.501	94.783	80.003	20.008	100.798	20.142	5.487	0.276
83.001	94.921	80.004	20.009	100.810	20.142	5.460	0.259
83.500	95.088	80.003	20.008	100.818	20.142	5.508	0.270
84.000	95.182	80.003	20.008	100.820	20.141	5.565	0.283
84.500	95.386	80.003	20.009	100.819	20.140	5.688	0.280
85.000	95.516	80.003	20.009	100.812	20.142	5.549	0.316
85.500	95.609	80.003	20.008	100.813	20.139	5.762	0.279
86.000	95.745	80.002	20.008	100.821	20.137	5.999	0.226
86.500	95.862	80.003	20.008	100.826	20.136	6.156	0.241
87.000	96.017	80.004	20.008	100.826	20.136	6.096	0.262
87.500	96.168	80.003	20.008	100.826	20.136	6.098	0.289
88.000	96.378	80.003	20.009	100.821	20.137	6.029	0.334
88.500	96.462	80.002	20.008	100.813	20.135	6.249	0.328
89.000	96.642	80.004	20.009	100.809	20.136	6.117	0.279
89.500	96.813	80.003	20.008	100.813	20.136	6.157	0.308
90.000	96.947	80.003	20.008	100.815	20.135	6.209	0.329
90.501	97.115	80.004	20.008	100.815	20.136	6.077	0.304
91.001	97.257	80.003	20.008	100.810	20.137	6.053	0.306
91.501	97.431	80.003	20.009	100.801	20.135	6.187	0.313
92.001	97.577	80.003	20.008	100.790	20.137	6.006	0.318
92.500	97.728	80.002	20.008	100.779	20.136	6.169	0.308
93.000	97.953	80.003	20.009	100.774	20.134	6.335	0.336
93.500	98.133	80.003	20.008	100.779	20.133	6.416	0.390
94.001	98.288	80.002	20.008	100.787	20.132	6.498	0.370
94.501	98.478	80.003	20.009	100.798	20.135	6.242	0.340
95.000	98.671	80.003	20.008	100.806	20.134	6.289	0.363
95.500	98.771	80.002	20.009	100.810	20.138	5.895	0.338
96.000	98.987	80.003	20.008	100.802	20.134	6.308	0.305
96.500	99.159	80.003	20.008	100.793	20.135	6.252	0.353
97.000	99.337	80.002	20.008	100.782	20.136	6.108	0.369
97.500	99.480	80.003	20.009	100.777	20.139	5.847	0.335
98.001	99.689	80.002	20.008	100.779	20.137	5.972	0.336
98.501	99.878	80.002	20.008	100.786	20.136	6.087	0.375
99.000	100.032	80.003	20.007	100.795	20.135	6.243	0.371
99.501	100.236	80.003	20.009	100.799	20.139	5.855	0.351
100.001	100.439	80.001	20.009	100.799	20.139	5.822	0.383
100.501	100.674	80.004	20.008	100.791	20.137	5.989	0.423
101.001	100.832	80.003	20.009	100.783	20.135	6.235	0.416
101.501	100.987	80.002	20.009	100.781	20.136	6.098	0.354
102.001	101.195	80.004	20.009	100.785	20.136	6.126	0.338
102.500	101.326	80.002	20.007	100.793	20.140	5.703	0.350
103.000	101.579	80.002	20.008	100.802	20.136	6.173	0.362
103.500	101.740	80.003	20.008	100.810	20.136	6.165	0.400
104.000	101.939	80.003	20.008	100.813	20.139	5.847	0.387
104.500	102.067	80.003	20.008	100.811	20.137	5.977	0.343
105.000	102.344	80.001	20.009	100.806	20.137	6.006	0.366
105.500	102.509	80.004	20.008	100.805	20.136	6.163	0.424
106.000	102.742	80.003	20.009	100.805	20.137	6.065	0.420
106.500	102.931	80.002	20.008	100.805	20.135	6.249	0.410
107.000	103.190	80.003	20.008	100.807	20.138	5.940	0.435
107.500	103.361	80.002	20.008	100.810	20.138	5.963	0.439
108.000	103.560	80.003	20.008	100.811	20.136	6.098	0.400
108.500	103.796	80.003	20.008	100.805	20.138	5.960	0.402
109.000	103.970	80.002	20.008	100.796	20.135	6.191	0.423
109.500	104.133	80.002	20.008	100.788	20.138	5.921	0.374
110.000	104.376	80.003	20.009	100.780	20.138	5.911	0.371
110.500	104.569	80.002	20.008	100.778	20.137	6.072	0.421
111.000	104.808	80.004	20.008	100.786	20.138	5.928	0.434
111.500	104.999	80.003	20.008	100.803	20.138	5.942	0.431
112.000	105.227	80.003	20.009	100.817	20.136	6.117	0.425
112.500	105.452	80.004	20.008	100.827	20.135	6.243	0.436
113.001	105.642	80.002	20.008	100.827	20.136	6.133	0.433
113.501	105.893	80.004	20.008	100.820	20.135	6.225	0.428
114.001	106.133	80.003	20.009	100.804	20.133	6.399	0.466
114.501	106.321	80.001	20.009	100.792	20.136	6.090	0.459
115.000	106.555	80.003	20.009	100.790	20.136	6.154	0.425
115.500	106.772	80.002	20.009	100.791	20.134	6.349	0.437
116.000	106.970	80.002	20.008	100.797	20.135	6.272	0.433
116.500	107.188	80.002	20.008	100.806	20.134	6.343	0.415
117.000	107.388	80.003	20.008	100.810	20.134	6.321	0.417
117.500	107.633	80.002	20.009	100.808	20.134	6.292	0.432
118.000	107.875	80.003	20.008	100.807	20.132	6.576	0.466
118.500	108.134	80.003	20.008	100.805	20.130	6.739	0.494
119.000	108.335	80.002	20.008	100.805	20.132	6.503	0.481
119.500	108.517	80.001	20.008	100.810	20.133	6.426	0.422
120.000	108.785	80.003	20.008	100.820	20.135	6.254	0.416
120.500	108.958	80.001	20.008	100.829	20.135	6.237	0.445
121.000	109.233	80.004	20.008	100.838	20.131	6.668	0.445
121.500	109.492	80.003	20.008	100.845	20.133	6.451	0.491
122.000	109.738	80.003	20.008	100.841	20.133	6.396	0.519
122.500	109.952	80.002	20.008	100.829	20.130	6.760	0.483
123.000	110.215	80.002	20.009	100.814	20.130	6.783	0.469
123.500	110.407	80.003	20.008	100.805	20.130	6.745	0.466
124.000	110.668	80.002	20.008	100.799	20.129	6.849	0.454
124.501	110.893	80.002	20.008	100.804	20.130	6.785	0.469
125.001	111.131	80.002	20.008	100.813	20.129	6.893	0.475
125.500	111.358	80.004	20.008	100.821	20.128	7.001	0.464
126.000	111.651	80.002	20.008	100.821	20.130	6.752	0.492
126.500	111.868	80.001	20.008	100.820	20.130	6.726	0.515
127.000	112.129	80.003	20.009	100.815	20.127	7.030	0.494
127.500	112.334	80.002	20.008	100.812	20.128	6.969	0.472
128.000	112.588	80.003	20.008	100.816	20.127	7.055	0.463
128.500	112.830	80.002	20.008	100.823	20.127	7.046	0.478
129.000	113.098	80.003	20.008	100.827	20.129	6.854	0.503
129.500	113.374	80.002	20.008	100.828	20.130	6.713	0.527
130.000	113.538	80.003	20.008	100.827	20.130	6.777	0.492
130.500	113.863	80.001	20.008	100.821	20.132	6.585	0.464
131.001	114.075	80.002	20.008	100.814	20.133	6.439	0.513
131.501	114.302	80.002	20.009	100.809	20.132	6.512	0.489
132.000	114.601	80.003	20.009	100.811	20.132	6.509	0.483
132.500	114.843	80.002	20.008	100.818	20.132	6.574	0.533
133.000	115.089	80.002	20.008	100.826	20.133	6.473	0.514
133.500	115.366	80.003	20.008	100.834	20.132	6.572	0.506
134.000	115.605	80.003	20.008	100.837	20.133	6.444	0.520
134.500	115.830	80.003	20.009	100.833	20.134	6.356	0.490
135.000	116.071	80.003	20.009	100.825	20.134	6.352	0.465
135.500	116.318	80.001	20.008	100.817	20.130	6.707	0.477
136.000	116.604	80.002	20.008	100.810	20.136	6.162	0.511
136.500	116.944	80.001	20.008	100.803	20.135	6.219	0.579
137.000	117.122	80.002	20.008	100.801	20.132	6.497	0.572
137.500	117.371	80.002	20.009	100.802	20.132	6.520	0.473
138.000	117.646	80.002	20.008	100.802	20.135	6.247	0.476
138.500	117.951	80.003	20.009	100.802	20.133	6.436	0.551
139.000	118.149	80.001	20.008	100.806	20.134	6.327	0.541
139.500	118.463	80.003	20.009	100.807	20.135	6.250	0.508
140.000	118.710	80.003	20.008	100.807	20.133	6.470	0.536
140.500	118.973	80.002	20.008	100.808	20.133	6.423	0.535
141.000	119.258	80.004	20.008	100.810	20.133	6.477	0.529
141.500	119.514	80.002	20.008	100.811	20.133	6.420	0.544
142.000	119.812	80.003	20.008	100.816	20.132	6.513	0.548
142.500	120.061	80.002	20.008	100.817	20.132	6.566	0.551
143.000	120.309	80.003	20.009	100.816	20.133	6.389	0.522
143.500	120.592	80.003	20.008	100.814	20.135	6.247	0.513
144.000	120.890	80.001	20.008	100.814	20.133	6.393	0.556
144.500	121.113	80.002	20.009	100.809	20.133	6.428	0.552
145.000	121.415	80.003	20.008	100.809	20.133	6.451	0.523
145.500	121.677	80.003	20.008	100.816	20.134	6.352	0.544
146.000	121.976	80.002	20.008	100.821	20.133	6.467	0.562
146.500	122.267	80.002	20.008	100.822	20.132	6.536	0.576
147.000	122.559	80.002	20.008	100.823	20.131	6.650	0.586
147.500	122.821	80.003	20.008	100.819	20.132	6.539	0.569
148.000	123.127	80.002	20.008	100.805	20.137	6.068	0.561
148.500	123.399	80.003	20.009	100.795	20.138	5.964	0.572
149.000	123.692	80.002	20.008	100.792	20.137	6.039	0.571
149.500	123.912	80.004	20.008	100.792	20.136	6.085	0.539
150.000	124.263	80.003	20.009	100.794	20.136	6.169	0.542
150.500	124.526	80.002	20.008	100.801	20.136	6.133	0.592
151.000	124.878	80.003	20.008	100.807	20.135	6.276	0.615
151.500	125.119	80.003	20.008	100.803	20.138	5.967	0.604
152.000	125.416	80.002	20.008	100.795	20.141	5.636	0.565
152.500	125.684	80.003	20.009	100.784	20.138	5.914	0.552
153.000	125.982	80.003	20.009	100.777	20.136	6.108	0.566
153.500	126.232	80.002	20.008	100.775	20.137	5.974	0.558
154.000	126.547	80.003	20.008	100.781	20.137	6.033	0.557
154.500	126.848	80.002	20.008	100.789	20.137	5.978	0.590
155.000	127.147	80.004	20.008	100.795	20.137	5.998	0.608
155.500	127.406	80.003	20.008	100.794	20.138	5.918	0.579
156.000	127.598	80.003	20.008	100.789	20.140	5.750	0.504
156.500	127.885	80.001	20.008	100.780	20.139	5.767	0.465
157.000	128.167	80.002	20.009	100.778	20.140	5.688	0.524
157.500	128.492	80.002	20.008	100.784	20.141	5.641	0.588
158.000	128.765	80.002	20.008	100.792	20.141	5.610	0.603
158.500	129.060	80.003	20.008	100.801	20.139	5.851	0.583
159.000	129.324	80.002	20.009	100.807	20.139	5.858	0.563
159.500	129.612	80.001	20.008	100.802	20.138	5.961	0.555
160.000	129.937	80.004	20.009	100.792	20.134	6.333	0.583
160.500	130.189	80.004	20.008	100.784	20.137	5.978	0.595
161.000	130.475	80.003	20.008	100.770	20.137	6.071	0.557
161.500	130.741	80.003	20.008	100.765	20.136	6.175	0.545
162.000	131.045	80.005	20.009	100.764	20.139	5.767	0.561
162.500	131.305	80.002	20.009	100.764	20.137	6.008	0.567
163.000	131.590	80.003	20.008	100.764	20.137	6.019	0.554
163.500	131.870	80.003	20.009	100.762	20.137	6.016	0.555
164.000	132.187	80.002	20.009	100.754	20.137	5.985	0.581
164.500	132.480	80.002	20.009	100.746	20.140	5.753	0.604
165.000	132.766	80.003	20.009	100.739	20.136	6.073	0.595
165.500	133.037	80.002	20.009	100.740	20.134	6.301	0.568
166.000	133.357	80.004	20.008	100.745	20.134	6.306	0.574
166.500	133.584	80.004	20.008	100.751	20.137	5.975	0.569
167.000	133.902	80.001	20.009	100.752	20.137	5.978	0.546
167.500	134.177	80.002	20.009	100.752	20.136	6.099	0.569
168.000	134.478	80.002	20.008	100.743	20.137	6.041	0.585
168.500	134.789	80.004	20.009	100.734	20.137	6.028	0.595
169.000	135.047	80.003	20.008	100.727	20.137	5.971	0.590
169.500	135.339	80.003	20.009	100.730	20.139	5.799	0.559
170.000	135.659	80.002	20.009	100.739	20.136	6.133	0.581
170.500	135.915	80.003	20.009	100.750	20.139	5.853	0.594
171.000	136.218	80.003	20.008	100.762	20.139	5.828	0.568
171.500	136.521	80.003	20.009	100.768	20.138	5.951	0.583
172.000	136.765	80.003	20.009	100.765	20.140	5.715	0.577
172.500	137.077	80.003	20.008	100.757	20.139	5.851	0.552
173.000	137.386	80.003	20.009	100.749	20.139	5.814	0.588
173.500	137.635	80.002	20.009	100.747	20.140	5.723	0.589
174.000	137.891	80.002	20.008	100.749	20.138	5.962	0.532
174.500	138.206	80.003	20.008	100.758	20.139	5.823	0.538
175.000	138.454	80.003	20.009	100.766	20.137	5.977	0.566
175.500	138.705	80.002	20.008	100.768	20.139	5.789	0.531
176.000	138.988	80.003	20.008	100.760	20.141	5.570	0.517
176.500	139.291	80.003	20.009	100.753	20.141	5.576	0.560
177.000	139.589	80.002	20.009	100.744	20.142	5.545	0.594
177.500	139.885	80.003	20.009	100.745	20.141	5.607	0.597
178.000	140.140	80.002	20.008	100.747	20.145	5.235	0.572
178.500	140.476	80.003	20.009	100.755	20.140	5.726	0.571
179.000	140.757	80.002	20.008	100.762	20.144	5.334	0.604
179.500	141.003	80.003	20.008	100.762	20.143	5.365	0.572
180.000	141.429	80.003	20.009	100.754	20.141	5.587	0.600
180.500	141.510	80.001	20.008	100.745	20.143	5.353	0.589
181.000	141.836	80.002	20.009	100.738	20.142	5.460	0.457
181.500	142.218	80.003	20.008	100.732	20.143	5.401	0.558
182.000	142.402	80.003	20.009	100.739	20.142	5.509	0.637
182.500	142.686	80.003	20.008	100.747	20.143	5.390	0.517
183.000	143.047	80.003	20.009	100.754	20.146	5.126	0.557
183.500	143.279	80.003	20.008	100.755	20.146	5.062	0.619
184.000	143.559	80.002	20.008	100.753	20.145	5.183	0.552
184.500	143.878	80.004	20.009	100.743	20.144	5.270	0.555
185.000	144.148	80.003	20.008	100.734	20.146	5.080	0.594
185.500	144.477	80.002	20.008	100.728	20.145	5.221	0.594
186.000	144.724	80.003	20.009	100.730	20.145	5.221	0.587
186.500	145.070	80.002	20.008	100.732	20.144	5.336	0.584
187.000	145.315	80.003	20.008	100.735	20.144	5.330	0.592
187.500	145.629	80.003	20.008	100.736	20.142	5.527	0.575
188.000	145.889	80.002	20.008	100.729	20.142	5.480	0.566
188.500	146.183	80.004	20.008	100.720	20.142	5.506	0.564
189.000	146.478	80.003	20.009	100.707	20.142	5.532	0.572
189.500	146.760	80.003	20.008	100.699	20.143	5.439	0.583
190.000	147.066	80.002	20.009	100.697	20.142	5.488	0.582
190.500	147.351	80.002	20.008	100.703	20.140	5.704	0.589
191.000	147.580	80.003	20.008	100.717	20.140	5.722	0.553
191.500	147.906	80.003	20.008	100.731	20.141	5.643	0.535
192.000	148.148	80.002	20.008	100.744	20.141	5.597	0.561
192.500	148.472	80.003	20.009	100.747	20.141	5.621	0.567
193.000	148.743	80.003	20.008	100.745	20.140	5.687	0.581
193.500	149.056	80.002	20.009	100.734	20.142	5.519	0.590
194.000	149.372	80.003	20.008	100.724	20.142	5.488	0.606
194.501	149.602	80.004	20.009	100.719	20.143	5.431	0.588
195.000	149.871	80.004	20.009	100.723	20.141	5.610	0.522
195.500	150.197	80.002	20.008	100.729	20.142	5.480	0.547
196.000	150.463	80.002	20.008	100.735	20.142	5.529	0.594
196.500	150.739	80.003	20.008	100.735	20.140	5.691	0.567
197.000	151.024	80.002	20.008	100.727	20.142	5.468	0.552
197.500	151.281	80.002	20.009	100.715	20.141	5.569	0.552
198.000	151.592	80.004	20.009	100.703	20.142	5.534	0.555
198.501	151.853	80.002	20.009	100.702	20.141	5.567	0.570
199.000	152.167	80.003	20.008	100.707	20.143	5.346	0.573
199.500	152.476	80.003	20.009	100.715	20.146	5.113	0.599
200.000	152.704	80.003	20.008	100.723	20.143	5.384	0.580
200.500	153.002	80.002	20.008	100.730	20.146	5.027	0.531
201.000	153.333	80.002	20.009	100.725	20.144	5.250	0.578
201.500	153.562	80.002	20.009	100.718	20.145	5.152	0.595
202.000	153.848	80.004	20.008	100.710	20.144	5.273	0.538
202.500	154.088	80.003	20.009	100.701	20.146	5.127	0.521
203.000	154.378	80.002	20.008	100.696	20.145	5.170	0.528
203.500	154.689	80.003	20.008	100.700	20.144	5.294	0.565
204.000	154.969	80.003	20.008	100.708	20.143	5.354	0.596
204.500	155.218	80.003	20.009	100.715	20.146	5.052	0.560
205.000	155.454	80.004	20.008	100.721	20.144	5.250	0.507
205.500	155.777	80.002	20.008	100.719	20.144	5.269	0.522
206.000	156.019	80.003	20.009	100.711	20.144	5.240	0.562
206.500	156.324	80.004	20.009	100.703	20.146	5.074	0.556
207.000	156.550	80.002	20.008	100.700	20.145	5.132	0.539
207.500	156.854	80.003	20.008	100.702	20.144	5.260	0.530
208.000	157.103	80.003	20.008	100.709	20.141	5.573	0.541
208.500	157.376	80.003	20.008	100.717	20.145	5.216	0.538
209.000	157.664	80.002	20.009	100.718	20.141	5.549	0.542
209.500	157.933	80.002	20.008	100.713	20.142	5.518	0.559
210.000	158.208	80.003	20.009	100.705	20.141	5.635	0.550
210.500	158.505	80.003	20.009	100.697	20.139	5.780	0.558
211.000	158.756	80.003	20.008	100.690	20.139	5.838	0.560
211.500	159.042	80.003	20.008	100.689	20.138	5.933	0.543
212.000	159.337	80.002	20.008	100.697	20.137	5.999	0.559
212.500	159.567	80.003	20.008	100.704	20.137	6.043	0.553
213.000	159.880	80.003	20.008	100.705	20.138	5.891	0.534
213.500	160.124	80.001	20.008	100.703	20.140	5.717	0.550
214.000	160.408	80.003	20.008	100.699	20.140	5.684	0.542
214.500	160.683	80.003	20.008	100.687	20.142	5.505	0.544
215.000	160.943	80.003	20.009	100.680	20.140	5.704	0.547
215.500	161.264	80.001	20.008	100.683	20.142	5.514	0.558
216.000	161.533	80.003	20.008	100.691	20.140	5.653	0.586
216.500	161.816	80.001	20.008	100.702	20.140	5.653	0.571
217.000	162.080	80.003	20.008	100.708	20.142	5.459	0.549
217.500	162.314	80.003	20.009	100.709	20.141	5.647	0.522
218.000	162.630	80.003	20.009	100.701	20.139	5.832	0.524
218.500	162.878	80.002	20.009	100.690	20.140	5.656	0.557
219.000	163.145	80.003	20.008	100.682	20.140	5.742	0.539
219.500	163.430	80.003	20.008	100.683	20.142	5.495	0.533
220.000	163.692	80.003	20.009	100.685	20.142	5.483	0.549
220.500	163.954	80.003	20.008	100.690	20.138	5.880	0.535
221.000	164.242	80.003	20.008	100.693	20.142	5.467	0.537
221.500	164.480	80.003	20.009	100.694	20.140	5.727	0.538
222.000	164.749	80.002	20.009	100.693	20.140	5.714	0.517
222.500	164.975	80.003	20.009	100.689	20.136	6.110	0.501
223.000	165.300	80.003	20.009	100.687	20.137	6.033	0.523
223.500	165.547	80.002	20.009	100.688	20.139	5.824	0.561
224.000	165.792	80.002	20.008	100.689	20.136	6.069	0.532
224.500	166.086	80.003	20.008	100.690	20.136	6.151	0.516
225.000	166.283	80.002	20.009	100.692	20.134	6.365	0.515
225.500	166.576	80.002	20.008	100.693	20.133	6.468	0.490
226.000	166.869	80.003	20.008	100.693	20.134	6.293	0.538
226.500	167.139	80.003	20.009	100.691	20.134	6.341	0.575
227.000	167.370	80.002	20.008	100.690	20.136	6.153	0.532
227.500	167.643	80.001	20.008	100.691	20.136	6.148	0.503
228.000	167.901	80.002	20.009	100.696	20.137	6.055	0.517
228.500	168.177	80.003	20.008	100.699	20.135	6.197	0.532
229.000	168.490	80.002	20.008	100.701	20.134	6.296	0.561
229.500	168.692	80.002	20.008	100.697	20.132	6.583	0.553
230.000	168.995	80.003	20.008	100.688	20.131	6.680	0.510
230.500	169.277	80.003	20.009	100.675	20.132	6.494	0.545
231.000	169.507	80.003	20.008	100.666	20.133	6.441	0.548
231.500	169.838	80.003	20.008	100.663	20.133	6.452	0.537
232.000	170.096	80.003	20.009	100.668	20.133	6.461	0.575
232.500	170.303	80.002	20.009	100.676	20.132	6.489	0.527
233.000	170.622	80.003	20.009	100.688	20.130	6.750	0.496
233.500	170.870	80.003	20.008	100.694	20.131	6.653	0.546
234.000	171.119	80.003	20.009	100.690	20.127	7.012	0.531
234.500	171.364	80.003	20.008	100.683	20.133	6.425	0.496
235.000	171.707	80.002	20.009	100.674	20.133	6.469	0.541
235.501	171.950	80.003	20.009	100.663	20.129	6.799	0.587
236.000	172.210	80.002	20.008	100.663	20.129	6.875	0.544
236.500	172.458	80.003	20.008	100.670	20.128	6.946	0.506
237.000	172.783	80.003	20.008	100.678	20.131	6.693	0.541
237.500	173.017	80.003	20.008	100.685	20.129	6.836	0.566
238.000	173.267	80.002	20.008	100.690	20.128	6.922	0.521
238.500	173.538	80.003	20.008	100.683	20.128	6.972	0.502
239.001	173.804	80.002	20.008	100.670	20.126	7.176	0.529
239.501	174.065	80.003	20.009	100.654	20.125	7.217	0.532
240.000	174.324	80.003	20.008	100.644	20.125	7.287	0.524
240.500	174.590	80.002	20.008	100.638	20.122	7.578	0.523
241.000	174.823	80.003	20.008	100.638	20.123	7.519	0.512
241.500	175.068	80.002	20.008	100.642	20.122	7.580	0.488
242.000	175.371	80.002	20.008	100.649	20.122	7.541	0.512
242.500	175.598	80.004	20.008	100.651	20.122	7.596	0.539
243.000	175.919	80.002	20.009	100.644	20.122	7.569	0.539
243.500	176.230	80.003	20.009	100.636	20.121	7.713	0.590
244.000	176.438	80.002	20.008	100.633	20.123	7.424	0.576
244.500	176.732	80.002	20.008	100.635	20.123	7.424	0.510
245.000	176.954	80.003	20.008	100.644	20.123	7.525	0.509
245.500	177.228	80.002	20.008	100.660	20.122	7.559	0.507
246.000	177.484	80.004	20.008	100.673	20.121	7.703	0.513
246.500	177.715	80.002	20.008	100.676	20.122	7.584	0.508
247.000	178.000	80.002	20.009	100.674	20.121	7.671	0.501
247.500	178.332	80.003	20.009	100.667	20.119	7.841	0.567
248.000	178.562	80.004	20.008	100.658	20.120	7.825	0.590
248.500	178.802	80.002	20.009	100.653	20.122	7.622	0.516
249.001	179.061	80.003	20.008	100.659	20.117	8.072	0.484
249.500	179.346	80.004	20.009	100.666	20.119	7.923	0.521
250.000	179.592	80.001	20.008	100.674	20.118	8.025	0.537
250.500	179.856	80.002	20.008	100.680	20.119	7.884	0.521
251.000	180.152	80.004	20.008	100.679	20.118	8.040	0.535
251.500	180.370	80.003	20.008	100.664	20.116	8.182	0.537
252.000	180.618	80.002	20.009	100.649	20.119	7.933	0.490
252.500	180.896	80.002	20.009	100.632	20.118	8.015	0.496
253.000	181.153	80.003	20.008	100.625	20.116	8.161	0.531
253.500	181.427	80.003	20.009	100.629	20.115	8.332	0.533
254.000	181.722	80.001	20.008	100.643	20.117	8.149	0.550
254.500	181.933	80.002	20.008	100.657	20.117	8.117	0.538
255.000	182.182	80.003	20.008	100.664	20.119	7.924	0.483
255.500	182.479	80.002	20.009	100.665	20.118	8.018	0.503
256.000	182.709	80.003	20.008	100.656	20.117	8.069	0.536
256.500	182.922	80.002	20.008	100.643	20.120	7.841	0.485
257.000	183.201	80.003	20.009	100.635	20.118	7.984	0.468
257.500	183.437	80.002	20.008	100.635	20.119	7.937	0.504
258.000	183.695	80.003	20.008	100.635	20.117	8.096	0.504
258.500	183.975	80.002	20.008	100.640	20.117	8.051	0.516
259.000	184.198	80.003	20.008	100.647	20.118	7.960	0.520
259.500	184.513	80.000	20.009	100.646	20.119	7.940	0.520
260.000	184.767	80.003	20.008	100.642	20.115	8.300	0.553
260.500	185.051	80.003	20.009	100.636	20.116	8.201	0.553
261.000	185.255	80.004	20.008	100.631	20.114	8.374	0.513
261.500	185.531	80.003	20.009	100.631	20.114	8.436	0.484
262.000	185.738	80.002	20.008	100.638	20.114	8.414	0.482
262.500	186.031	80.003	20.008	100.643	20.116	8.213	0.492
263.000	186.276	80.003	20.008	100.650	20.116	8.241	0.519
263.500	186.480	80.002	20.008	100.650	20.116	8.181	0.493
264.000	186.745	80.002	20.008	100.642	20.114	8.364	0.459
264.500	186.951	80.004	20.009	100.631	20.115	8.322	0.470
265.000	187.240	80.003	20.009	100.628	20.118	8.045	0.483
265.500	187.483	80.004	20.008	100.634	20.113	8.506	0.514
266.000	187.765	80.003	20.008	100.646	20.116	8.218	0.529
266.500	187.969	80.003	20.008	100.658	20.116	8.255	0.505
267.000	188.272	80.003	20.008	100.665	20.115	8.274	0.496
267.500	188.475	80.003	20.008	100.667	20.115	8.297	0.506
268.000	188.719	80.002	20.008	100.661	20.114	8.413	0.477
268.500	188.948	80.002	20.009	100.653	20.115	8.335	0.460
269.000	189.186	80.002	20.008	100.654	20.115	8.358	0.470
269.500	189.430	80.004	20.008	100.662	20.117	8.087	0.474
270.000	189.650	80.002	20.008	100.670	20.119	7.861	0.473
270.500	189.987	80.001	20.008	100.678	20.117	8.095	0.510
271.000	190.203	80.003	20.008	100.682	20.117	8.121	0.555
271.500	190.433	80.002	20.008	100.676	20.116	8.191	0.499
272.000	190.672	80.001	20.008	100.667	20.118	7.981	0.458
272.500	190.918	80.004	20.009	100.659	20.115	8.289	0.477
273.000	191.187	80.001	20.008	100.651	20.117	8.096	0.501
273.500	191.405	80.004	20.008	100.652	20.117	8.130	0.501
274.000	191.733	80.002	20.008	100.660	20.114	8.382	0.516
274.500	191.913	80.001	20.008	100.667	20.118	8.042	0.527
275.000	192.200	80.002	20.008	100.666	20.119	7.901	0.487
275.500	192.400	80.003	20.009	100.665	20.121	7.693	0.477
276.000	192.642	80.003	20.008	100.657	20.119	7.893	0.465
276.500	192.894	80.003	20.008	100.647	20.119	7.844	0.468
277.000	193.153	80.001	20.008	100.641	20.122	7.583	0.502
277.500	193.377	80.003	20.008	100.644	20.117	8.059	0.497
278.000	193.654	80.002	20.008	100.651	20.115	8.261	0.492
278.500	193.885	80.002	20.008	100.660	20.119	7.873	0.505
279.000	194.136	80.002	20.008	100.663	20.115	8.340	0.495
279.500	194.376	80.001	20.008	100.660	20.117	8.096	0.487
280.000	194.632	80.002	20.008	100.651	20.116	8.239	0.493
280.501	194.930	80.003	20.008	100.637	20.118	7.950	0.525
281.000	195.177	80.002	20.008	100.625	20.114	8.361	0.550
281.500	195.385	80.002	20.008	100.621	20.113	8.528	0.500
282.000	195.638	80.002	20.008	100.625	20.118	8.046	0.458
282.500	195.891	80.002	20.008	100.633	20.117	8.144	0.483
283.000	196.195	80.003	20.008	100.641	20.116	8.197	0.532
283.500	196.385	80.003	20.008	100.642	20.114	8.422	0.526
284.000	196.638	80.003	20.008	100.636	20.114	8.365	0.469
284.500	196.894	80.003	20.009	100.627	20.113	8.532	0.476
285.000	197.134	80.002	20.008	100.625	20.114	8.448	0.502
285.500	197.427	80.002	20.008	100.624	20.113	8.479	0.514
286.000	197.665	80.002	20.008	100.633	20.115	8.340	0.531
286.500	197.916	80.003	20.008	100.642	20.115	8.330	0.510
287.000	198.164	80.002	20.009	100.651	20.113	8.481	0.494
287.500	198.389	80.002	20.008	100.649	20.114	8.397	0.486
288.000	198.673	80.003	20.008	100.641	20.114	8.367	0.491
288.500	198.929	80.003	20.009	100.632	20.113	8.477	0.525
289.000	199.190	80.002	20.009	100.625	20.114	8.392	0.528
289.500	199.418	80.001	20.008	100.625	20.112	8.588	0.503
290.000	199.710	80.003	20.009	100.632	20.113	8.542	0.504
290.500	199.950	80.002	20.009	100.641	20.113	8.513	0.526
291.000	200.124	80.003	20.008	100.649	20.113	8.566	0.473
291.500	200.455	80.003	20.008	100.652	20.116	8.249	0.460
292.000	200.665	80.003	20.009	100.646	20.113	8.535	0.523
292.500	201.001	80.003	20.008	100.637	20.114	8.431	0.543
293.000	201.225	80.001	20.008	100.629	20.114	8.430	0.553
293.500	201.416	80.002	20.008	100.631	20.112	8.602	0.487
294.000	201.663	80.002	20.008	100.640	20.115	8.283	0.427
294.500	201.921	80.001	20.008	100.656	20.114	8.405	0.472
295.000	202.180	80.004	20.008	100.672	20.115	8.344	0.511
295.500	202.413	80.003	20.008	100.684	20.114	8.403	0.504
296.000	202.608	80.002	20.008	100.683	20.116	8.231	0.460
296.500	202.905	80.003	20.008	100.675	20.114	8.394	0.460
297.000	203.141	80.002	20.009	100.664	20.114	8.464	0.512
297.500	203.405	80.002	20.009	100.652	20.113	8.474	0.517
298.000	203.632	80.003	20.008	100.646	20.111	8.689	0.495
298.500	203.934	80.004	20.008	100.651	20.110	8.872	0.510
299.000	204.153	80.002	20.008	100.654	20.110	8.824	0.526
299.500	204.405	80.002	20.008	100.657	20.111	8.704	0.496
300.000	204.683	80.002	20.008	100.654	20.109	8.909	0.500
300.501	204.892	80.002	20.008	100.646	20.110	8.849	0.508
301.000	205.165	80.003	20.008	100.632	20.113	8.479	0.484
301.500	205.437	80.003	20.008	100.622	20.114	8.421	0.514
302.000	205.687	80.002	20.009	100.614	20.112	8.669	0.534
302.500	205.920	80.001	20.008	100.611	20.109	8.928	0.503
303.000	206.145	80.003	20.008	100.611	20.109	8.968	0.471
303.500	206.433	80.002	20.008	100.611	20.112	8.621	0.486
304.000	206.650	80.003	20.008	100.612	20.109	8.946	0.509
304.500	206.915	80.002	20.008	100.610	20.107	9.124	0.493
305.000	207.114	80.002	20.009	100.607	20.109	8.919	0.473
305.501	207.371	80.001	20.008	100.600	20.110	8.819	0.460
306.000	207.639	80.002	20.008	100.594	20.108	9.028	0.491
306.500	207.836	80.003	20.009	100.594	20.106	9.195	0.495
307.000	208.084	80.003	20.008	100.597	20.109	8.916	0.455
307.500	208.320	80.001	20.008	100.607	20.106	9.227	0.464
308.000	208.582	80.003	20.007	100.623	20.107	9.129	0.491
308.500	208.861	80.002	20.008	100.636	20.106	9.221	0.520
309.000	209.105	80.001	20.009	100.640	20.104	9.435	0.532
309.500	209.307	80.002	20.008	100.639	20.104	9.405	0.484
310.000	209.595	80.002	20.008	100.627	20.106	9.204	0.468
310.500	209.859	80.002	20.009	100.613	20.106	9.289	0.521
311.000	210.086	80.001	20.008	100.603	20.109	8.888	0.521
311.500	210.350	80.002	20.008	100.602	20.111	8.758	0.491
312.000	210.583	80.002	20.008	100.610	20.107	9.185	0.495
312.500	210.811	80.002	20.008	100.622	20.110	8.802	0.479
313.000	211.019	80.002	20.008	100.627	20.110	8.872	0.448
313.500	211.288	80.002	20.008	100.627	20.109	8.956	0.457
314.000	211.500	80.003	20.008	100.622	20.108	9.089	0.479
314.500	211.740	80.003	20.008	100.612	20.108	9.005	0.466
315.000	211.980	80.001	20.008	100.606	20.110	8.862	0.466
315.500	212.253	80.003	20.009	100.612	20.108	9.004	0.496
316.000	212.479	80.002	20.008	100.621	20.109	8.949	0.506
316.500	212.750	80.001	20.008	100.632	20.110	8.881	0.498
317.000	212.987	80.003	20.009	100.641	20.110	8.789	0.502
317.500	213.208	80.002	20.008	100.645	20.108	9.019	0.483
318.000	213.489	80.003	20.009	100.641	20.109	8.889	0.480
318.500	213.722	80.002	20.008	100.633	20.109	8.928	0.508
319.000	213.913	80.003	20.008	100.626	20.110	8.829	0.469
319.500	214.147	80.001	20.008	100.625	20.107	9.159	0.425
320.000	214.430	80.003	20.008	100.629	20.110	8.836	0.471
320.500	214.647	80.002	20.008	100.634	20.111	8.713	0.508
321.000	214.872	80.003	20.008	100.642	20.110	8.865	0.471
321.500	215.184	80.002	20.008	100.645	20.109	8.970	0.490
322.000	215.416	80.003	20.008	100.638	20.110	8.868	0.540
322.500	215.599	80.001	20.009	100.629	20.111	8.757	0.479
323.001	215.917	80.003	20.008	100.620	20.110	8.816	0.458
323.501	216.078	80.002	20.009	100.612	20.110	8.830	0.490
324.000	216.346	80.001	20.008	100.612	20.111	8.771	0.454
324.500	216.578	80.002	20.008	100.619	20.110	8.882	0.465
325.000	216.817	80.003	20.008	100.628	20.109	8.946	0.485
325.500	217.076	80.002	20.008	100.634	20.110	8.855	0.484
326.000	217.301	80.003	20.009	100.635	20.111	8.712	0.491
326.500	217.543	80.002	20.009	100.631	20.113	8.553	0.476
327.000	217.817	80.002	20.008	100.624	20.111	8.751	0.491
327.500	218.046	80.003	20.008	100.619	20.110	8.873	0.510
328.000	218.301	80.002	20.009	100.620	20.108	9.065	0.494
328.500	218.567	80.003	20.008	100.628	20.111	8.774	0.502
329.000	218.828	80.003	20.008	100.635	20.107	9.140	0.524
329.500	219.034	80.002	20.008	100.640	20.107	9.128	0.497
330.000	219.272	80.003	20.008	100.637	20.107	9.165	0.456
330.500	219.563	80.002	20.008	100.628	20.109	8.944	0.486
331.000	219.805	80.003	20.008	100.621	20.108	9.017	0.531
331.500	220.035	80.002	20.008	100.616	20.108	9.070	0.503
332.000	220.280	80.003	20.009	100.620	20.108	9.066	0.474
332.500	220.550	80.003	20.008	100.632	20.107	9.184	0.495
333.000	220.849	80.002	20.008	100.645	20.106	9.281	0.542
333.500	221.095	80.002	20.008	100.653	20.105	9.307	0.557
334.000	221.270	80.003	20.008	100.654	20.104	9.440	0.483
334.500	221.534	80.002	20.008	100.647	20.107	9.173	0.430
335.000	221.768	80.002	20.008	100.634	20.102	9.615	0.469
335.500	222.029	80.001	20.009	100.628	20.102	9.668	0.497
336.000	222.321	80.002	20.008	100.628	20.103	9.601	0.524
336.500	222.521	80.002	20.009	100.632	20.102	9.631	0.522
337.000	222.770	80.002	20.008	100.641	20.103	9.523	0.470
337.500	223.045	80.003	20.008	100.649	20.103	9.531	0.487
338.000	223.263	80.001	20.008	100.649	20.101	9.738	0.509
338.500	223.520	80.003	20.008	100.643	20.103	9.537	0.484
339.000	223.731	80.003	20.009	100.640	20.104	9.422	0.472
339.500	224.055	80.002	20.009	100.637	20.105	9.376	0.501
340.000	224.250	80.002	20.009	100.637	20.106	9.208	0.526
340.500	224.519	80.003	20.008	100.640	20.104	9.482	0.491
341.000	224.785	80.002	20.008	100.646	20.105	9.386	0.500
341.500	225.023	80.002	20.008	100.648	20.105	9.313	0.520
342.000	225.293	80.002	20.008	100.646	20.105	9.312	0.506
342.500	225.512	80.002	20.008	100.640	20.105	9.361	0.498
343.000	225.788	80.003	20.008	100.632	20.104	9.462	0.492
343.500	226.014	80.003	20.009	100.624	20.103	9.559	0.499
344.000	226.238	80.003	20.008	100.622	20.102	9.697	0.476
344.500	226.518	80.001	20.009	100.626	20.102	9.620	0.477
345.000	226.715	80.002	20.007	100.637	20.101	9.793	0.490
345.500	226.966	80.001	20.007	100.644	20.102	9.643	0.462
346.000	227.279	80.003	20.008	100.646	20.102	9.706	0.507
346.500	227.546	80.003	20.008	100.640	20.099	9.942	0.572
347.000	227.767	80.001	20.009	100.628	20.099	9.945	0.534
347.500	227.977	80.003	20.008	100.616	20.101	9.764	0.459
348.001	228.240	80.002	20.008	100.610	20.102	9.676	0.452
348.501	228.489	80.003	20.009	100.615	20.100	9.869	0.493
349.000	228.779	80.001	20.008	100.624	20.101	9.773	0.525
349.500	229.042	80.002	20.008	100.635	20.102	9.641	0.546
350.000	229.225	80.001	20.009	100.637	20.100	9.893	0.500
350.500	229.503	80.002	20.009	100.636	20.101	9.767	0.454
351.000	229.732	80.002	20.008	100.629	20.101	9.750	0.484
351.500	230.008	80.003	20.008	100.620	20.101	9.803	0.506
352.000	230.254	80.001	20.009	100.619	20.102	9.708	0.514
352.500	230.490	80.002	20.008	100.626	20.103	9.536	0.503
353.000	230.773	80.002	20.008	100.640	20.103	9.609	0.500
353.500	231.009	80.003	20.008	100.652	20.100	9.856	0.519
354.000	231.244	80.002	20.008	100.659	20.104	9.488	0.495
354.500	231.495	80.002	20.008	100.653	20.103	9.598	0.478
355.000	231.786	80.001	20.008	100.645	20.104	9.405	0.513
355.500	232.052	80.003	20.008	100.631	20.105	9.371	0.550
356.000	232.279	80.002	20.008	100.621	20.104	9.471	0.525
356.500	232.562	80.001	20.009	100.623	20.105	9.317	0.502
357.000	232.795	80.003	20.007	100.636	20.103	9.550	0.513
357.500	233.092	80.001	20.008	100.643	20.102	9.688	0.523
358.000	233.327	80.002	20.008	100.650	20.102	9.666	0.531
358.500	233.576	80.002	20.007	100.648	20.100	9.922	0.508
359.000	233.803	80.001	20.008	100.636	20.101	9.729	0.480
359.500	234.030	80.002	20.008	100.616	20.102	9.673	0.465
360.000	234.300	80.003	20.008	100.605	20.101	9.814	0.475
360.500	234.568	80.002	20.008	100.598	20.101	9.740	0.518
361.000	234.807	80.000	20.008	100.601	20.103	9.549	0.523
361.500	235.055	80.003	20.008	100.613	20.103	9.559	0.497
362.000	235.328	80.002	20.008	100.629	20.102	9.671	0.504
362.500	235.526	80.003	20.008	100.634	20.103	9.584	0.496
363.000	235.773	80.002	20.008	100.634	20.104	9.420	0.458
363.500	236.092	80.002	20.008	100.631	20.102	9.712	0.505
364.000	236.379	80.003	20.008	100.622	20.104	9.492	0.586
364.500	236.639	80.000	20.008	100.614	20.101	9.718	0.577
365.000	236.863	80.003	20.008	100.613	20.105	9.386	0.515
365.500	237.145	80.001	20.008	100.615	20.103	9.573	0.495
366.000	237.387	80.002	20.008	100.620	20.104	9.441	0.515
366.500	237.639	80.002	20.008	100.623	20.101	9.809	0.509
367.000	237.874	80.003	20.008	100.621	20.105	9.395	0.490
367.500	238.135	80.001	20.008	100.614	20.105	9.313	0.492
368.000	238.381	80.003	20.008	100.604	20.105	9.322	0.502
368.500	238.674	80.001	20.008	100.599	20.107	9.093	0.523
369.000	238.909	80.003	20.008	100.599	20.105	9.366	0.533
369.500	239.151	80.002	20.008	100.608	20.106	9.212	0.503
370.000	239.448	80.002	20.008	100.623	20.106	9.214	0.508
370.500	239.702	80.002	20.008	100.637	20.106	9.213	0.545
371.000	239.921	80.003	20.008	100.639	20.108	9.070	0.512
371.500	240.174	80.002	20.008	100.636	20.105	9.363	0.472
372.000	240.477	80.001	20.008	100.627	20.104	9.420	0.514
372.500	240.674	80.002	20.009	100.621	20.104	9.436	0.528
373.000	240.972	80.002	20.008	100.622	20.105	9.346	0.497
373.500	241.184	80.003	20.007	100.632	20.105	9.401	0.503
374.000	241.428	80.003	20.008	100.640	20.105	9.325	0.483
374.500	241.672	80.003	20.008	100.643	20.107	9.157	0.472
375.000	241.955	80.002	20.008	100.640	20.108	9.036	0.508
375.500	242.258	80.003	20.008	100.632	20.103	9.594	0.556
376.000	242.472	80.002	20.008	100.621	20.104	9.487	0.551
376.500	242.727	80.003	20.008	100.613	20.100	9.848	0.493
377.000	243.029	80.002	20.008	100.617	20.102	9.705	0.513
377.500	243.307	80.002	20.008	100.625	20.100	9.897	0.568
378.000	243.573	80.003	20.008	100.632	20.100	9.885	0.562
378.500	243.810	80.002	20.008	100.638	20.101	9.730	0.524
379.000	244.068	80.002	20.007	100.637	20.102	9.696	0.499
379.500	244.328	80.003	20.008	100.630	20.099	9.934	0.507
380.000	244.585	80.003	20.008	100.619	20.097	10.166	0.518
380.500	244.846	80.001	20.008	100.613	20.097	10.193	0.517
381.000	245.108	80.003	20.008	100.612	20.100	9.911	0.520
381.500	245.339	80.002	20.008	100.612	20.098	10.029	0.508
382.000	245.591	80.002	20.008	100.613	20.100	9.877	0.489
382.500	245.850	80.002	20.008	100.616	20.099	9.978	0.497
383.000	246.105	80.002	20.008	100.613	20.101	9.799	0.512
383.500	246.380	80.003	20.008	100.604	20.100	9.868	0.522
384.000	246.633	80.001	20.008	100.603	20.102	9.662	0.528
384.500	246.916	80.004	20.008	100.602	20.102	9.682	0.532
385.000	247.180	80.002	20.008	100.602	20.104	9.430	0.542
385.500	247.451	80.001	20.008	100.604	20.102	9.652	0.541
386.000	247.660	80.003	20.008	100.608	20.100	9.856	0.508
386.500	247.959	80.002	20.008	100.606	20.104	9.485	0.494
387.000	248.223	80.002	20.008	100.600	20.100	9.842	0.535
387.500	248.418	80.002	20.009	100.596	20.101	9.716	0.511
388.000	248.685	80.002	20.008	100.596	20.102	9.712	0.461
388.500	248.938	80.002	20.008	100.600	20.099	9.949	0.491
389.000	249.208	80.003	20.008	100.610	20.099	9.980	0.522
389.500	249.464	80.002	20.008	100.626	20.100	9.860	0.525
390.000	249.718	80.003	20.008	100.631	20.100	9.859	0.518
390.500	250.023	80.002	20.008	100.629	20.100	9.905	0.534
391.000	250.279	80.002	20.009	100.622	20.101	9.744	0.560
391.500	250.500	80.002	20.008	100.612	20.102	9.609	0.519
392.000	250.773	80.001	20.009	100.603	20.100	9.855	0.485
392.500	250.980	80.003	20.008	100.603	20.101	9.780	0.487
393.000	251.253	80.002	20.008	100.608	20.101	9.790	0.480
393.500	251.459	80.002	20.008	100.613	20.100	9.825	0.480
394.000	251.737	80.003	20.008	100.615	20.099	10.016	0.481
394.500	252.028	80.001	20.008	100.612	20.099	9.982	0.526
395.000	252.282	80.002	20.008	100.610	20.097	10.132	0.557
395.500	252.485	80.003	20.008	100.607	20.098	10.054	0.501
396.000	252.748	80.003	20.008	100.605	20.099	9.965	0.461
396.500	252.941	80.001	20.008	100.607	20.100	9.887	0.461
397.000	253.212	80.002	20.008	100.615	20.101	9.753	0.460
397.500	253.514	80.003	20.008	100.617	20.099	9.999	0.518
398.000	253.767	80.002	20.008	100.615	20.098	10.102	0.564
398.500	254.025	80.003	20.009	100.607	20.098	10.034	0.533
399.000	254.298	80.002	20.008	100.598	20.098	10.027	0.521
399.500	254.559	80.003	20.009	100.590	20.097	10.183	0.532
400.000	254.823	80.002	20.008	100.592	20.097	10.155	0.530
400.500	255.095	80.003	20.008	100.602	20.098	10.080	0.531
401.000	255.301	80.001	20.008	100.615	20.098	10.043	0.507
401.500	255.596	80.004	20.008	100.622	20.099	10.011	0.490
402.000	255.849	80.002	20.008	100.623	20.101	9.812	0.524
402.500	256.112	80.004	20.008	100.615	20.101	9.801	0.532
403.000	256.369	80.002	20.008	100.604	20.098	10.057	0.518
403.500	256.541	80.003	20.009	100.597	20.099	9.936	0.475
404.000	256.849	80.000	20.008	100.597	20.098	10.056	0.454
404.500	257.014	80.003	20.008	100.600	20.099	9.929	0.476
405.000	257.324	80.001	20.008	100.606	20.097	10.205	0.474
405.500	257.532	80.003	20.008	100.606	20.096	10.310	0.497
406.000	257.829	80.001	20.008	100.601	20.095	10.437	0.511
406.500	258.091	80.003	20.008	100.593	20.095	10.416	0.532
407.000	258.330	80.002	20.009	100.586	20.094	10.490	0.530
407.500	258.618	80.002	20.008	100.580	20.094	10.459	0.514
408.000	258.850	80.003	20.008	100.583	20.094	10.449	0.523
408.500	259.105	80.001	20.009	100.595	20.097	10.190	0.503
409.000	259.374	80.003	20.008	100.611	20.093	10.637	0.506
409.500	259.616	80.001	20.008	100.620	20.094	10.474	0.518
410.000	259.875	80.003	20.008	100.625	20.089	11.062	0.506
410.500	260.095	80.003	20.008	100.620	20.092	10.683	0.490
411.000	260.326	80.002	20.008	100.608	20.093	10.572	0.465
411.500	260.627	80.002	20.008	100.592	20.091	10.779	0.492
412.000	260.857	80.001	20.008	100.586	20.091	10.811	0.532
412.500	261.123	80.003	20.008	100.587	20.088	11.126	0.513
413.000	261.391	80.001	20.008	100.590	20.089	10.989	0.515
413.500	261.593	80.003	20.008	100.591	20.089	10.997	0.502
414.000	261.840	80.002	20.008	100.591	20.089	11.062	0.460
414.500	262.081	80.003	20.009	100.584	20.090	10.915	0.468
415.000	262.390	80.001	20.008	100.576	20.092	10.686	0.519
415.500	262.607	80.003	20.008	100.571	20.089	11.029	0.538
416.000	262.845	80.002	20.008	100.575	20.089	11.013	0.491
416.500	263.131	80.003	20.008	100.583	20.088	11.069	0.490
417.000	263.386	80.001	20.008	100.594	20.090	10.957	0.532
417.500	263.572	80.003	20.008	100.602	20.087	11.186	0.491
418.000	263.905	80.002	20.008	100.604	20.090	10.927	0.480
418.500	264.092	80.002	20.008	100.599	20.088	11.072	0.520
419.000	264.356	80.003	20.008	100.587	20.087	11.195	0.486
419.500	264.609	80.002	20.009	100.574	20.088	11.083	0.484
420.000	264.866	80.003	20.008	100.567	20.088	11.078	0.513
420.500	265.122	80.003	20.009	100.568	20.088	11.112	0.512
421.000	265.340	80.002	20.008	100.576	20.088	11.144	0.494
421.500	265.603	80.002	20.008	100.589	20.084	11.516	0.477
422.000	265.839	80.002	20.008	100.603	20.085	11.417	0.490
422.500	266.099	80.004	20.009	100.609	20.084	11.511	0.498
423.000	266.326	80.002	20.008	100.605	20.085	11.468	0.491
423.500	266.597	80.004	20.008	100.599	20.083	11.654	0.493
424.000	266.865	80.002	20.008	100.596	20.084	11.510	0.519
424.500	267.102	80.004	20.008	100.590	20.081	11.875	0.522
425.000	267.343	80.001	20.008	100.587	20.080	11.986	0.491
425.500	267.573	80.002	20.007	100.588	20.079	12.103	0.474
426.000	267.821	80.003	20.009	100.585	20.079	12.043	0.474
426.500	268.097	80.003	20.008	100.571	20.076	12.414	0.501
427.000	268.344	80.003	20.008	100.560	20.075	12.526	0.524
427.500	268.560	80.003	20.008	100.550	20.077	12.233	0.493
428.000	268.825	80.003	20.008	100.546	20.073	12.664	0.471
428.500	269.064	80.002	20.008	100.547	20.075	12.493	0.492
429.000	269.323	80.002	20.008	100.555	20.073	12.705	0.502
429.500	269.613	80.003	20.008	100.562	20.072	12.801	0.524
430.000	269.858	80.001	20.008	100.568	20.070	12.980	0.542
430.500	270.104	80.003	20.007	100.565	20.071	12.921	0.513
431.000	270.397	80.003	20.008	100.558	20.070	12.968	0.515
431.500	270.660	80.003	20.008	100.552	20.068	13.239	0.547
432.000	270.886	80.004	20.008	100.551	20.068	13.224	0.523
432.500	271.153	80.002	20.009	100.553	20.069	13.071	0.492
433.000	271.406	80.003	20.008	100.567	20.065	13.505	0.506
433.500	271.642	80.002	20.008	100.576	20.067	13.304	0.504
434.000	271.920	80.003	20.008	100.584	20.068	13.219	0.502
434.500	272.139	80.002	20.008	100.585	20.065	13.518	0.506
435.000	272.403	80.003	20.008	100.583	20.065	13.523	0.490
435.500	272.704	80.002	20.008	100.579	20.063	13.741	0.524
436.000	272.905	80.002	20.008	100.585	20.062	13.815	0.533
436.500	273.178	80.004	20.008	100.593	20.061	13.919	0.488
437.000	273.417	80.002	20.008	100.606	20.061	13.930	0.493
437.500	273.674	80.002	20.008	100.620	20.064	13.638	0.504
438.000	273.908	80.003	20.008	100.626	20.061	13.930	0.493
438.500	274.156	80.002	20.008	100.626	20.063	13.758	0.487
439.000	274.424	80.002	20.008	100.623	20.059	14.113	0.499
439.500	274.673	80.002	20.008	100.616	20.059	14.148	0.517
440.000	274.890	80.003	20.008	100.610	20.060	14.072	0.491
440.500	275.142	80.003	20.008	100.612	20.060	14.053	0.467
441.000	275.393	80.001	20.008	100.620	20.057	14.338	0.486
441.500	275.703	80.002	20.008	100.627	20.057	14.355	0.532
442.000	275.924	80.003	20.008	100.629	20.058	14.277	0.546
442.500	276.133	80.002	20.008	100.624	20.056	14.448	0.481
443.000	276.404	80.004	20.008	100.612	20.056	14.441	0.455
443.500	276.637	80.004	20.008	100.598	20.057	14.391	0.492
444.000	276.930	80.003	20.008	100.587	20.055	14.570	0.515
444.500	277.220	80.004	20.008	100.585	20.053	14.814	0.554
445.000	277.490	80.001	20.008	100.592	20.052	14.891	0.572
445.500	277.762	80.002	20.008	100.596	20.053	14.776	0.551
446.000	277.971	80.003	20.008	100.595	20.051	14.931	0.512
446.500	278.222	80.002	20.008	100.591	20.053	14.756	0.471
447.000	278.515	80.002	20.008	100.585	20.052	14.871	0.502
447.500	278.698	80.003	20.008	100.580	20.051	14.980	0.509
448.000	278.971	80.002	20.008	100.585	20.048	15.274	0.466
448.500	279.234	80.003	20.008	100.597	20.049	15.228	0.497
449.000	279.495	80.003	20.008	100.607	20.046	15.521	0.530
449.500	279.775	80.002	20.008	100.615	20.047	15.436	0.532
450.000	279.997	80.004	20.008	100.614	20.045	15.571	0.521
450.500	280.232	80.001	20.008	100.606	20.045	15.613	0.480
451.000	280.495	80.005	20.008	100.593	20.047	15.435	0.477
451.500	280.721	80.002	20.008	100.582	20.046	15.452	0.493
452.000	280.905	80.003	20.007	100.578	20.045	15.588	0.450
452.500	281.206	80.002	20.008	100.580	20.043	15.819	0.447
453.000	281.429	80.004	20.008	100.588	20.043	15.786	0.504
453.500	281.714	80.003	20.008	100.595	20.045	15.608	0.516
454.000	281.930	80.002	20.008	100.598	20.041	16.052	0.504
454.500	282.167	80.003	20.008	100.595	20.039	16.269	0.477
455.000	282.438	80.001	20.008	100.588	20.040	16.134	0.481
455.500	282.713	80.003	20.008	100.581	20.040	16.104	0.527
456.001	282.971	80.003	20.008	100.576	20.038	16.297	0.539
456.500	283.225	80.000	20.008	100.582	20.040	16.097	0.523
457.000	283.451	80.003	20.008	100.590	20.039	16.234	0.496
457.500	283.709	80.003	20.007	100.597	20.036	16.507	0.482
458.000	283.985	80.003	20.008	100.596	20.038	16.307	0.509
458.500	284.208	80.001	20.008	100.594	20.037	16.466	0.517
459.000	284.456	80.002	20.008	100.587	20.036	16.579	0.485
459.500	284.716	80.003	20.008	100.581	20.034	16.769	0.489
460.000	284.960	80.004	20.008	100.581	20.033	16.806	0.506
460.500	285.207	80.002	20.008	100.589	20.034	16.781	0.498
461.000	285.441	80.002	20.008	100.597	20.034	16.700	0.485
461.500	285.744	80.003	20.008	100.599	20.034	16.754	0.509
462.000	286.000	80.002	20.008	100.597	20.035	16.676	0.548
462.500	286.239	80.004	20.008	100.586	20.033	16.799	0.527
463.000	286.471	80.002	20.009	100.578	20.031	17.068	0.482
463.500	286.715	80.002	20.008	100.576	20.030	17.166	0.473
464.000	286.961	80.003	20.008	100.581	20.029	17.236	0.483
464.500	287.196	80.003	20.008	100.592	20.027	17.459	0.486
465.000	287.463	80.001	20.007	100.604	20.028	17.324	0.491
465.500	287.697	80.004	20.007	100.612	20.023	17.846	0.502
466.000	287.970	80.001	20.008	100.612	20.025	17.703	0.504
466.500	288.207	80.002	20.008	100.605	20.022	17.985	0.508
467.000	288.491	80.003	20.008	100.596	20.020	18.176	0.516
467.500	288.718	80.002	20.009	100.589	20.022	17.983	0.516
468.000	289.008	80.000	20.008	100.587	20.019	18.283	0.514
468.500	289.219	80.004	20.008	100.588	20.017	18.508	0.509
469.000	289.447	80.001	20.008	100.588	20.018	18.365	0.470
469.500	289.742	80.002	20.008	100.587	20.016	18.661	0.481
470.000	289.987	80.002	20.008	100.580	20.015	18.680	0.531
470.500	290.269	80.002	20.008	100.565	20.016	18.635	0.533
471.000	290.513	80.002	20.008	100.552	20.018	18.438	0.526
471.500	290.765	80.003	20.008	100.544	20.013	18.929	0.511
472.000	291.032	80.002	20.008	100.544	20.012	19.073	0.508
472.500	291.280	80.002	20.008	100.551	20.011	19.197	0.517
473.000	291.525	80.002	20.008	100.558	20.011	19.181	0.504
473.500	291.794	80.004	20.008	100.565	20.010	19.233	0.503
474.000	292.020	80.002	20.008	100.570	20.009	19.399	0.505
474.500	292.292	80.001	20.008	100.562	20.010	19.232	0.497
475.000	292.534	80.003	20.008	100.557	20.011	19.120	0.506
475.501	292.760	80.003	20.007	100.558	20.009	19.316	0.491
476.000	293.005	80.001	20.008	100.560	20.010	19.204	0.469
476.500	293.280	80.002	20.008	100.564	20.009	19.371	0.496
477.001	293.556	80.003	20.008	100.573	20.012	19.046	0.536
477.500	293.809	80.003	20.008	100.577	20.009	19.363	0.540
478.000	294.078	80.002	20.008	100.576	20.010	19.271	0.525
478.500	294.300	80.003	20.008	100.576	20.008	19.462	0.506
479.000	294.555	80.002	20.008	100.574	20.006	19.678	0.484
479.500	294.781	80.003	20.008	100.575	20.008	19.515	0.479
480.000	295.028	80.002	20.008	100.583	20.006	19.705	0.477
480.500	295.291	80.002	20.007	100.591	20.006	19.650	0.492
481.000	295.541	80.001	20.008	100.592	20.004	19.838	0.511
481.500	295.723	80.003	20.008	100.590	20.005	19.794	0.472
482.000	296.031	80.003	20.008	100.583	20.005	19.802	0.461
482.500	296.260	80.001	20.008	100.574	20.003	20.022	0.514
483.000	296.501	80.003	20.008	100.568	20.004	19.839	0.504
483.500	296.792	80.003	20.008	100.574	20.004	19.871	0.501
484.000	297.055	80.002	20.008	100.583	20.004	19.834	0.543
484.500	297.321	80.000	20.008	100.595	20.002	20.058	0.541
485.000	297.543	80.003	20.008	100.598	20.003	19.977	0.509
485.500	297.832	80.003	20.008	100.597	20.002	20.127	0.500
486.000	298.065	80.001	20.008	100.587	20.000	20.248	0.517
486.500	298.344	80.003	20.009	100.578	19.998	20.523	0.517
487.000	298.533	80.002	20.008	100.573	20.000	20.314	0.490
487.500	298.809	80.003	20.008	100.577	19.998	20.506	0.466
488.000	299.084	80.001	20.007	100.587	19.997	20.576	0.508
488.500	299.339	80.001	20.008	100.598	19.998	20.539	0.540
489.000	299.586	80.004	20.008	100.599	19.999	20.364	0.516
489.500	299.820	80.002	20.008	100.598	19.998	20.459	0.491
490.000	300.090	80.002	20.008	100.595	19.998	20.517	0.492
490.500	300.362	80.004	20.009	100.592	19.996	20.731	0.523
491.000	300.605	80.004	20.008	100.597	19.996	20.768	0.529
491.500	300.842	80.001	20.008	100.605	19.998	20.519	0.498
492.000	301.060	80.003	20.007	100.612	19.996	20.666	0.468
492.500	301.371	80.002	20.008	100.613	19.995	20.774	0.492
493.000	301.567	80.002	20.008	100.607	19.997	20.611	0.518
493.500	301.917	80.003	20.008	100.596	19.997	20.603	0.526
494.000	302.150	80.002	20.008	100.590	19.997	20.610	0.564
494.501	302.367	80.002	20.008	100.590	19.994	20.887	0.517
495.001	302.590	80.004	20.007	100.595	19.990	21.341	0.445
495.500	302.888	80.002	20.008	100.603	19.992	21.134	0.480
496.000	303.083	80.004	20.009	100.606	19.992	21.130	0.507
496.500	303.389	80.001	20.008	100.601	19.992	21.092	0.497
497.000	303.608	80.003	20.008	100.591	19.992	21.168	0.513
497.500	303.866	80.003	20.008	100.576	19.990	21.395	0.501
498.000	304.110	80.003	20.008	100.568	19.989	21.410	0.489
498.500	304.371	80.003	20.008	100.568	19.990	21.388	0.504
499.000	304.614	80.001	20.008	100.577	19.987	21.651	0.505
499.500	304.847	80.003	20.008	100.586	19.988	21.557	0.489
500.000	305.086	80.002	20.008	100.597	19.986	21.744	0.474
500.500	305.346	80.002	20.008	100.601	19.988	21.565	0.485
501.000	305.561	80.001	20.008	100.596	19.982	22.155	0.487
501.500	305.848	80.002	20.009	100.589	19.982	22.202	0.489
502.000	305.977	80.003	20.008	100.587	19.980	22.370	0.459
502.500	306.345	80.002	20.008	100.588	19.978	22.548	0.457
503.000	306.585	80.001	20.007	100.592	19.980	22.371	0.552
503.500	306.733	80.003	20.008	100.600	19.977	22.684	0.498
504.000	307.102	80.001	20.008	100.608	19.975	22.885	0.452
504.500	307.307	80.002	20.008	100.609	19.975	22.872	0.546
505.000	307.379	80.001	20.008	100.609	19.973	23.161	0.426
505.500	307.732	80.001	20.008	100.608	19.969	23.482	0.351
506.000	308.039	80.004	20.008	100.609	19.970	23.468	0.542
506.500	308.247	80.002	20.008	100.609	19.965	23.977	0.587
507.000	308.495	80.001	20.007	100.611	19.965	23.918	0.485
507.500	308.762	80.003	20.008	100.611	19.964	24.050	0.486
508.000	309.000	80.002	20.008	100.611	19.963	24.138	0.510
508.500	309.276	80.002	20.008	100.611	19.961	24.371	0.510
509.000	309.534	80.001	20.008	100.610	19.961	24.411	0.525
509.500	309.803	80.002	20.007	100.613	19.957	24.779	0.531
510.000	310.037	80.003	20.008	100.614	19.956	24.933	0.515
510.500	310.278	80.002	20.008	100.614	19.954	25.113	0.488
511.000	310.474	80.003	20.008	100.615	19.951	25.404	0.456
511.500	310.818	80.001	20.008	100.615	19.952	25.291	0.489
512.000	311.003	80.003	20.008	100.608	19.950	25.531	0.534
512.500	311.283	80.003	20.008	100.600	19.949	25.575	0.497
513.000	311.533	80.002	20.008	100.600	19.946	25.931	0.498
513.500	311.778	80.003	20.008	100.607	19.943	26.202	0.512
514.000	312.053	80.004	20.008	100.615	19.940	26.525	0.508
514.500	312.303	80.004	20.008	100.625	19.938	26.736	0.523
515.000	312.549	80.004	20.008	100.630	19.934	27.138	0.510
515.500	312.761	80.001	20.008	100.628	19.931	27.444	0.477
516.001	313.062	80.004	20.009	100.615	19.927	27.902	0.486
516.501	313.315	80.005	20.009	100.604	19.923	28.348	0.534
517.000	313.575	80.004	20.009	100.597	19.921	28.538	0.533
517.500	313.801	80.003	20.009	100.598	19.919	28.725	0.499
518.000	314.004	80.006	20.009	100.601	19.917	28.909	0.457
518.500	314.299	80.004	20.010	100.605	19.914	29.210	0.464
519.000	314.526	80.002	20.009	100.600	19.910	29.655	0.510
519.500	314.814	80.005	20.009	100.593	19.907	30.004	0.518
520.000	315.040	80.003	20.008	100.585	19.903	30.391	0.514
520.500	315.302	80.003	20.008	100.578	19.900	30.739	0.501
521.000	315.541	80.004	20.009	100.576	19.892	31.524	0.495
521.500	315.772	80.003	20.008	100.584	19.891	31.619	0.485
522.000	316.071	80.004	20.008	100.592	19.887	32.085	0.500
522.500	316.238	80.004	20.009	100.593	19.885	32.319	0.499
523.000	316.554	80.004	20.009	100.593	19.882	32.558	0.475
523.500	316.799	80.004	20.008	100.589	19.879	32.881	0.522
524.000	317.060	80.005	20.009	100.582	19.873	33.498	0.533
524.500	317.266	80.004	20.009	100.580	19.871	33.789	0.486
525.000	317.552	80.003	20.009	100.587	19.868	34.088	0.480
525.500	317.813	80.003	20.008	100.595	19.862	34.663	0.520
526.000	318.041	80.003	20.008	100.598	19.861	34.786	0.518
526.500	318.349	80.003	20.009	100.599	19.857	35.236	0.513
527.000	318.593	80.003	20.009	100.589	19.850	35.942	0.544
527.500	318.847	80.004	20.008	100.579	19.846	36.379	0.525
528.000	319.159	80.003	20.009	100.572	19.843	36.647	0.532
528.500	319.374	80.004	20.008	100.571	19.842	36.817	0.546
529.000	319.645	80.004	20.009	100.579	19.837	37.246	0.506
529.500	319.865	80.004	20.008	100.590	19.830	38.054	0.489
530.000	320.131	80.003	20.009	100.594	19.828	38.232	0.489
530.500	320.380	80.005	20.008	100.593	19.823	38.774	0.501
531.000	320.625	80.003	20.009	100.587	19.817	39.359	0.504
531.500	320.873	80.002	20.008	100.577	19.813	39.767	0.493
532.000	321.103	80.003	20.009	100.569	19.806	40.484	0.485
532.500	321.356	80.004	20.008	100.575	19.803	40.875	0.481
533.000	321.608	80.002	20.008	100.577	19.797	41.491	0.494
533.500	321.871	80.004	20.008	100.579	19.792	41.979	0.510
534.000	322.185	80.002	20.009	100.575	19.786	42.638	0.546
534.500	322.407	80.003	20.009	100.568	19.783	42.890	0.556
535.000	322.646	80.003	20.009	100.556	19.776	43.662	0.498
535.500	322.877	80.004	20.009	100.553	19.771	44.170	0.466
536.000	323.095	80.002	20.009	100.554	19.765	44.759	0.460
536.500	323.394	80.002	20.007	100.560	19.761	45.240	0.483
537.000	323.645	80.004	20.009	100.568	19.756	45.681	0.533
537.500	323.859	80.003	20.008	100.573	19.749	46.462	0.507
538.000	324.131	80.003	20.008	100.573	19.742	47.185	0.475
538.500	324.395	80.004	20.009	100.573	19.738	47.629	0.511
539.000	324.629	80.003	20.009	100.578	19.732	48.251	0.517
539.500	324.867	80.003	20.008	100.585	19.725	48.945	0.485
540.000	325.111	80.003	20.008	100.594	19.718	49.713	0.477
540.500	325.396	80.004	20.008	100.596	19.713	50.180	0.505
541.000	325.656	80.004	20.009	100.596	19.710	50.544	0.537
541.500	325.898	80.003	20.008	100.589	19.702	51.390	0.524
542.000	326.145	80.003	20.008	100.582	19.695	52.115	0.496
542.500	326.359	80.003	20.009	100.574	19.688	52.808	0.475
543.000	326.631	80.003	20.008	100.578	19.682	53.430	0.473
543.500	326.827	80.002	20.009	100.585	19.676	54.098	0.477
544.000	327.113	80.003	20.008	100.587	19.669	54.820	0.475
544.500	327.383	80.003	20.009	100.585	19.658	55.892	0.519
545.001	327.609	80.002	20.008	100.576	19.653	56.458	0.527
545.501	327.829	80.003	20.009	100.561	19.646	57.130	0.471
546.000	328.084	80.002	20.009	100.548	19.638	58.004	0.460
546.500	328.358	80.003	20.009	100.546	19.629	59.001	0.502
547.000	328.591	80.001	20.008	100.549	19.623	59.620	0.518
547.500	328.845	80.003	20.009	100.556	19.612	60.739	0.497
548.000	329.007	80.004	20.008	100.563	19.606	61.369	0.451
548.500	329.348	80.002	20.008	100.565	19.597	62.309	0.459
549.000	329.497	80.002	20.009	100.558	19.588	63.272	0.497
549.501	329.762	80.004	20.009	100.551	19.578	64.324	0.452
550.000	330.027	80.002	20.009	100.551	19.569	65.226	0.472
550.500	330.278	80.002	20.008	100.555	19.561	66.085	0.523
551.000	330.487	80.003	20.008	100.564	19.549	67.330	0.488
551.500	330.780	80.003	20.008	100.572	19.541	68.174	0.481
552.000	330.995	80.002	20.008	100.579	19.532	69.035	0.505
552.500	331.233	80.005	20.009	100.574	19.522	70.165	0.481
553.000	331.477	80.004	20.009	100.568	19.513	71.110	0.468
553.500	331.743	80.004	20.009	100.564	19.501	72.272	0.496
554.000	331.960	80.002	20.008	100.568	19.494	73.001	0.496
554.500	332.185	80.003	20.008	100.569	19.483	74.148	0.463
555.000	332.444	80.003	20.008	100.574	19.476	74.899	0.463
555.501	332.662	80.003	20.008	100.571	19.467	75.803	0.480
556.001	332.916	80.003	20.008	100.562	19.460	76.606	0.474
556.500	333.199	80.004	20.009	100.546	19.448	77.819	0.505
557.000	333.417	80.002	20.009	100.536	19.439	78.762	0.519
557.500	333.669	80.003	20.008	100.528	19.430	79.733	0.485
558.001	333.963	80.004	20.008	100.532	19.420	80.747	0.508
558.501	334.168	80.003	20.008	100.541	19.412	81.614	0.522
559.001	334.408	80.003	20.008	100.552	19.401	82.765	0.471
559.500	334.685	80.003	20.009	100.561	19.389	84.030	0.481
560.000	334.908	80.003	20.008	100.566	19.378	85.127	0.509
560.500	335.136	80.002	20.008	100.562	19.367	86.269	0.476
561.000	335.379	80.003	20.008	100.558	19.356	87.497	0.461
561.500	335.651	80.001	20.009	100.558	19.342	88.943	0.493
562.000	335.894	80.004	20.008	100.559	19.334	89.751	0.515
562.500	336.110	80.002	20.008	100.561	19.322	90.951	0.487
563.000	336.355	80.004	20.009	100.565	19.311	92.073	0.459
563.501	336.596	80.003	20.009	100.569	19.299	93.352	0.474
564.001	336.883	80.003	20.008	100.570	19.289	94.410	0.508
564.500	337.081	80.001	20.008	100.569	19.280	95.391	0.507
565.000	337.347	80.003	20.008	100.576	19.270	96.376	0.475
565.500	337.562	80.003	20.008	100.582	19.261	97.275	0.472
566.000	337.800	80.003	20.008	100.581	19.248	98.587	0.467
566.500	338.035	80.003	20.008	100.581	19.240	99.461	0.463
567.000	338.283	80.003	20.008	100.577	19.224	101.064	0.478
567.501	338.531	80.002	20.009	100.563	19.214	102.164	0.490
568.001	338.813	80.002	20.009	100.557	19.201	103.509	0.513
568.500	339.038	80.002	20.008	100.561	19.185	105.157	0.518
569.000	339.345	80.004	20.008	100.569	19.171	106.679	0.520
569.500	339.551	80.001	20.008	100.579	19.157	108.053	0.523
570.000	339.831	80.002	20.008	100.591	19.142	109.679	0.499
570.500	340.069	80.004	20.008	100.593	19.125	111.420	0.502
571.000	340.304	80.002	20.009	100.588	19.111	112.903	0.496
571.500	340.589	80.002	20.009	100.581	19.094	114.771	0.497
572.000	340.810	80.003	20.009	100.577	19.077	116.485	0.513
572.500	341.002	80.003	20.008	100.578	19.064	117.900	0.459
573.000	341.301	80.002	20.008	100.585	19.050	119.314	0.452
573.500	341.511	80.002	20.008	100.593	19.037	120.671	0.500
574.000	341.730	80.002	20.008	100.595	19.022	122.222	0.469
574.500	342.025	80.003	20.009	100.593	19.014	123.088	0.472
575.000	342.250	80.004	20.009	100.587	19.001	124.507	0.517
575.500	342.513	80.005	20.009	100.579	18.991	125.543	0.504
576.000	342.747	80.002	20.008	100.572	18.978	126.851	0.493
576.501	343.002	80.002	20.008	100.571	18.969	127.856	0.493
577.001	343.264	80.003	20.008	100.569	18.959	128.866	0.503
577.500	343.508	80.001	20.008	100.561	18.945	130.233	0.511
578.000	343.746	80.003	20.008	100.550	18.935	131.342	0.494
578.500	343.993	80.002	20.009	100.535	18.924	132.486	0.483
579.000	344.215	80.003	20.009	100.519	18.911	133.885	0.477
579.500	344.460	80.003	20.009	100.506	18.898	135.152	0.469
580.000	344.714	80.003	20.008	100.499	18.887	136.386	0.483
580.500	345.030	80.002	20.008	100.494	18.873	137.799	0.534
581.000	345.279	80.004	20.008	100.494	18.860	139.119	0.567
581.500	345.509	80.002	20.008	100.494	18.845	140.653	0.522
582.000	345.709	80.002	20.009	100.494	18.833	141.927	0.455
582.500	345.960	80.003	20.009	100.501	18.824	142.963	0.441
583.000	346.185	80.004	20.008	100.510	18.808	144.603	0.463
583.500	346.451	80.003	20.009	100.526	18.797	145.791	0.483
584.000	346.703	80.002	20.009	100.542	18.787	146.819	0.504
584.500	346.917	80.002	20.009	100.558	18.772	148.385	0.492
585.000	347.180	80.002	20.009	100.566	18.764	149.252	0.471
585.501	347.395	80.003	20.009	100.571	18.750	150.627	0.478
586.000	347.645	80.003	20.008	100.571	18.739	151.776	0.472
586.500	347.889	80.002	20.009	100.574	18.729	152.824	0.480
587.000	348.090	80.004	20.008	100.582	18.721	153.717	0.469
587.500	348.353	80.003	20.008	100.594	18.710	154.892	0.454
588.000	348.612	80.002	20.008	100.607	18.702	155.717	0.493
588.500	348.863	80.002	20.008	100.614	18.691	156.880	0.516
589.000	349.098	80.005	20.009	100.611	18.682	157.827	0.499
589.500	349.394	80.002	20.009	100.603	18.672	158.856	0.509
590.000	349.577	80.002	20.009	100.591	18.665	159.650	0.505
590.500	349.878	80.003	20.008	100.582	18.658	160.310	0.481
591.000	350.103	80.003	20.008	100.582	18.649	161.310	0.505
591.500	350.406	80.003	20.008	100.588	18.641	162.107	0.527
592.000	350.628	80.003	20.008	100.593	18.634	162.832	0.526
592.500	350.833	80.003	20.009	100.593	18.626	163.706	0.476
593.000	351.086	80.003	20.009	100.592	18.619	164.359	0.442
593.500	351.364	80.002	20.008	100.584	18.612	165.192	0.495
594.000	351.601	80.001	20.008	100.576	18.602	166.162	0.523
594.500	351.832	80.003	20.008	100.576	18.594	167.040	0.491
595.000	352.087	80.002	20.009	100.585	18.586	167.858	0.477
595.501	352.316	80.003	20.008	100.592	18.580	168.497	0.485
596.000	352.572	80.002	20.009	100.600	18.569	169.678	0.484
596.500	352.821	80.003	20.008	100.609	18.563	170.254	0.495
597.000	353.094	80.001	20.009	100.612	18.556	170.949	0.514
597.500	353.325	80.004	20.008	100.612	18.551	171.495	0.513
598.000	353.571	80.001	20.008	100.614	18.543	172.338	0.490
598.500	353.829	80.002	20.008	100.616	18.536	173.118	0.490
599.000	354.081	80.002	20.008	100.616	18.529	173.828	0.507
599.500	354.300	80.002	20.008	100.619	18.526	174.156	0.491
600.000	354.550	80.003	20.008	100.622	18.516	175.129	0.470
600.500	354.787	80.004	20.009	100.625	18.510	175.763	0.478
601.000	355.025	80.001	20.008	100.629	18.501	176.666	0.481
601.500	355.312	80.002	20.009	100.636	18.494	177.461	0.500
602.000	355.540	80.003	20.008	100.644	18.487	178.131	0.520
602.500	355.751	80.002	20.008	100.656	18.476	179.301	0.477
603.000	356.045	80.003	20.008	100.667	18.470	179.954	0.472
603.500	356.256	80.003	20.008	100.673	18.463	180.591	0.505
604.000	356.533	80.002	20.008	100.674	18.453	181.594	0.496
604.500	356.804	80.002	20.008	100.670	18.442	182.788	0.517
605.000	357.069	80.002	20.008	100.662	18.430	184.016	0.542
605.500	357.326	80.003	20.008	100.657	18.421	184.981	0.530
606.000	357.569	80.003	20.008	100.661	18.410	186.150	0.511
606.500	357.810	80.001	20.008	100.669	18.401	187.125	0.492
607.000	358.086	80.003	20.008	100.677	18.393	187.930	0.501
607.500	358.312	80.003	20.008	100.684	18.384	188.823	0.509
608.000	358.553	80.002	20.008	100.688	18.372	190.074	0.485
608.501	358.837	80.002	20.008	100.683	18.365	190.866	0.496
609.001	359.094	80.002	20.009	100.675	18.354	191.942	0.533
609.500	359.349	80.002	20.008	100.672	18.345	192.973	0.526
610.000	359.599	80.001	20.008	100.673	18.336	193.885	0.508
610.500	359.842	80.003	20.008	100.672	18.327	194.874	0.499
611.000	360.099	80.003	20.008	100.675	18.316	195.948	0.497
611.500	360.341	80.001	20.008	100.682	18.308	196.784	0.499
612.000	360.583	80.004	20.008	100.679	18.295	198.078	0.491
612.500	360.863	80.002	20.008	100.672	18.286	198.986	0.503
613.000	361.135	80.003	20.008	100.662	18.278	199.851	0.537
613.500	361.369	80.002	20.009	100.655	18.269	200.761	0.529
614.000	361.635	80.004	20.008	100.652	18.260	201.687	0.503
614.500	361.894	80.001	20.008	100.657	18.254	202.319	0.513
615.000	362.155	80.003	20.008	100.658	18.245	203.306	0.523
615.500	362.411	80.003	20.008	100.657	18.239	203.939	0.518
616.000	362.647	80.001	20.009	100.649	18.233	204.656	0.504
616.500	362.930	80.003	20.008	100.630	18.226	205.387	0.505
617.000	363.204	80.002	20.009	100.611	18.218	206.209	0.538
617.500	363.424	80.003	20.008	100.601	18.210	207.092	0.526
618.000	363.693	80.003	20.009	100.599	18.210	207.156	0.492
618.500	363.945	80.002	20.008	100.607	18.203	207.862	0.505
619.000	364.243	80.003	20.008	100.622	18.198	208.394	0.535
619.500	364.476	80.000	20.008	100.633	18.199	208.239	0.541
620.000	364.708	80.003	20.008	100.638	18.194	208.748	0.498
620.500	364.935	80.004	20.008	100.636	18.190	209.154	0.462
621.000	365.225	80.001	20.008	100.628	18.191	209.058	0.487
621.500	365.466	80.002	20.008	100.626	18.190	209.240	0.524
622.000	365.713	80.003	20.008	100.628	18.193	209.063	0.509
622.500	365.992	80.001	20.008	100.632	18.199	208.462	0.507
623.000	366.185	80.002	20.008	100.638	18.208	207.516	0.500
623.500	366.491	80.003	20.009	100.637	18.213	206.977	0.486
624.000	366.683	80.001	20.007	100.630	18.221	206.132	0.498
624.500	366.984	80.004	20.010	100.615	18.224	205.837	0.495
625.000	367.245	80.001	20.008	100.612	18.227	205.510	0.527
625.500	367.505	80.002	20.007	100.601	18.230	205.236	0.541
626.000	367.750	80.003	20.008	100.588	18.235	204.742	0.513
626.500	368.045	80.004	20.008	100.574	18.237	204.505	0.522
627.000	368.286	80.002	20.010	100.573	18.240	204.129	0.538
627.500	368.554	80.002	20.008	100.582	18.243	203.797	0.523
628.000	368.794	80.003	20.009	100.597	18.247	203.441	0.508
628.500	369.080	80.001	20.008	100.618	18.253	202.781	0.516
629.000	369.292	80.003	20.008	100.636	18.263	201.831	0.512
629.500	369.603	80.003	20.008	100.644	18.274	200.654	0.511
630.000	369.793	80.002	20.010	100.650	18.282	199.799	0.512
630.500	370.103	80.002	20.007	100.671	18.294	198.498	0.501
631.000	370.305	80.002	20.008	100.681	18.301	197.715	0.506
631.500	370.568	80.003	20.009	100.687	18.309	196.883	0.489
632.000	370.794	80.003	20.007	100.692	18.316	196.096	0.477
632.500	371.037	80.002	20.008	100.672	18.321	195.497	0.479
633.000	371.255	80.003	20.009	100.648	18.328	194.788	0.465
633.500	371.503	80.003	20.008	100.650	18.331	194.507	0.463
634.000	371.803	80.003	20.009	100.673	18.332	194.409	0.507
634.500	372.058	80.003	20.009	100.714	18.337	193.851	0.552
635.000	372.284	80.001	20.007	100.757	18.340	193.578	0.518
635.500	372.548	80.001	20.007	100.777	18.346	192.937	0.485
636.000	372.798	80.004	20.009	100.777	18.349	192.679	0.502
636.500	373.030	80.001	20.010	100.779	18.353	192.257	0.498
637.000	373.283	80.002	20.008	100.772	18.361	191.496	0.484
637.500	373.587	80.003	20.008	100.756	18.364	191.111	0.521
638.000	373.823	80.001	20.010	100.768	18.368	190.754	0.549
638.500	374.045	80.002	20.007	100.790	18.377	189.762	0.499
639.000	374.325	80.003	20.009	100.783	18.383	189.080	0.480
639.500	374.600	80.003	20.008	100.768	18.391	188.370	0.528
640.000	374.865	80.001	20.008	100.768	18.399	187.553	0.547
640.500	375.088	80.001	20.010	100.766	18.410	186.379	0.514
641.000	375.316	80.002	20.008	100.768	18.418	185.502	0.470
641.500	375.606	80.002	20.007	100.779	18.433	184.030	0.485
642.000	375.850	80.002	20.010	100.787	18.443	182.922	0.526
642.500	376.078	80.002	20.008	100.799	18.455	181.640	0.503
643.000	376.337	80.003	20.008	100.791	18.466	180.497	0.479
643.500	376.606	80.001	20.009	100.763	18.477	179.295	0.507
644.000	376.838	80.002	20.008	100.740	18.485	178.459	0.515
644.500	377.088	80.003	20.008	100.716	18.495	177.530	0.491
645.000	377.309	80.002	20.009	100.684	18.507	176.299	0.476
645.500	377.574	80.002	20.008	100.673	18.518	175.086	0.479
646.000	377.851	80.002	20.009	100.677	18.527	174.168	0.514
646.500	378.124	80.001	20.008	100.686	18.540	172.787	0.546
647.000	378.344	80.003	20.007	100.695	18.551	171.591	0.522
647.500	378.623	80.002	20.010	100.701	18.562	170.521	0.496
648.000	378.829	80.003	20.007	100.707	18.574	169.181	0.492
648.500	379.079	80.002	20.009	100.712	18.582	168.361	0.470
649.000	379.385	80.002	20.009	100.724	18.597	166.849	0.506
649.500	379.607	80.000	20.007	100.735	18.610	165.475	0.543
650.000	379.845	80.004	20.009	100.732	18.624	164.029	0.494
650.500	380.071	80.002	20.010	100.732	18.636	162.850	0.462
651.000	380.392	80.001	20.007	100.737	18.653	161.051	0.506
651.500	380.658	80.003	20.008	100.719	18.663	159.979	0.567
652.000	380.898	80.003	20.008	100.712	18.676	158.597	0.546
652.500	381.169	80.004	20.009	100.732	18.690	157.220	0.509
653.000	381.447	80.001	20.009	100.741	18.702	155.912	0.530
653.500	381.678	80.001	20.008	100.744	18.715	154.624	0.529
654.000	381.898	80.002	20.009	100.756	18.725	153.464	0.480
654.500	382.169	80.002	20.008	100.766	18.741	151.864	0.471
655.000	382.448	80.003	20.008	100.760	18.752	150.617	0.520
655.500	382.745	80.002	20.008	100.745	18.764	149.384	0.563
656.000	382.900	80.001	20.009	100.729	18.779	147.867	0.514
656.500	383.188	80.002	20.008	100.726	18.784	147.314	0.447
657.000	383.420	80.003	20.009	100.727	18.800	145.653	0.482
657.500	383.729	80.001	20.008	100.740	18.811	144.478	0.531
658.000	383.935	80.002	20.008	100.761	18.822	143.327	0.528
658.500	384.203	80.003	20.008	100.773	18.837	141.776	0.495
659.000	384.462	80.002	20.008	100.770	18.848	140.584	0.501
659.500	384.758	80.002	20.009	100.760	18.860	139.399	0.541
660.000	384.994	80.003	20.009	100.744	18.870	138.322	0.543
660.500	385.235	80.002	20.008	100.733	18.882	137.072	0.505
661.000	385.467	80.001	20.009	100.737	18.899	135.319	0.475
661.500	385.776	80.003	20.008	100.747	18.908	134.394	0.507
662.000	386.010	80.003	20.008	100.759	18.918	133.285	0.542
662.500	386.249	80.002	20.008	100.768	18.932	131.761	0.508
663.001	386.492	80.002	20.009	100.773	18.943	130.645	0.478
663.500	386.758	80.003	20.008	100.770	18.954	129.498	0.495
664.000	386.985	80.002	20.008	100.766	18.967	128.209	0.501
664.500	387.261	80.003	20.008	100.768	18.976	127.198	0.498
665.000	387.520	80.003	20.008	100.772	18.988	126.022	0.519
665.500	387.800	80.003	20.008	100.778	18.999	124.773	0.537
666.000	388.100	80.002	20.008	100.784	19.013	123.362	0.559
666.500	388.342	80.002	20.008	100.785	19.022	122.364	0.561
667.000	388.599	80.002	20.008	100.774	19.032	121.339	0.521
667.500	388.848	80.004	20.009	100.762	19.046	119.865	0.503
668.000	389.083	80.003	20.009	100.754	19.057	118.728	0.495
668.500	389.394	80.002	20.008	100.749	19.067	117.703	0.515
669.000	389.629	80.003	20.008	100.752	19.079	116.461	0.546
669.500	389.849	80.002	20.008	100.760	19.091	115.185	0.500
670.000	390.153	80.002	20.008	100.767	19.102	113.996	0.490
670.500	390.389	80.003	20.008	100.766	19.111	113.076	0.532
671.000	390.693	80.004	20.008	100.758	19.122	111.969	0.540
671.500	390.961	80.002	20.009	100.748	19.134	110.724	0.556
672.000	391.230	80.003	20.008	100.742	19.146	109.471	0.555
672.500	391.444	80.003	20.008	100.740	19.157	108.265	0.510
673.000	391.734	80.002	20.008	100.743	19.168	107.180	0.494
673.500	391.958	80.002	20.008	100.744	19.178	106.068	0.508
674.000	392.279	80.003	20.008	100.742	19.188	104.988	0.529
674.500	392.525	80.001	20.008	100.731	19.200	103.830	0.556
675.000	392.760	80.002	20.008	100.719	19.210	102.718	0.524
675.500	392.968	80.003	20.008	100.706	19.222	101.566	0.462
676.000	393.273	80.003	20.008	100.704	19.233	100.399	0.478
676.500	393.523	80.002	20.008	100.706	19.247	98.899	0.533
677.000	393.763	80.002	20.008	100.714	19.256	97.925	0.522
677.500	394.004	80.002	20.008	100.720	19.268	96.659	0.486
678.001	394.305	80.002	20.009	100.720	19.279	95.544	0.511
678.501	394.513	80.001	20.009	100.713	19.292	94.161	0.526
679.000	394.764	80.002	20.008	100.706	19.303	93.051	0.484
679.500	394.970	80.002	20.008	100.706	19.315	91.771	0.458
680.000	395.275	80.004	20.008	100.706	19.330	90.254	0.484
680.500	395.462	80.002	20.009	100.711	19.343	88.911	0.502
681.000	395.762	80.002	20.008	100.718	19.353	87.836	0.490
681.500	396.000	80.002	20.008	100.719	19.366	86.424	0.513
682.000	396.271	80.001	20.009	100.709	19.377	85.300	0.524
682.500	396.493	80.001	20.008	100.698	19.389	84.058	0.501
683.000	396.761	80.001	20.009	100.693	19.402	82.785	0.491
683.500	396.959	80.003	20.008	100.690	19.416	81.253	0.478
684.000	397.220	80.001	20.008	100.697	19.427	80.111	0.463
684.500	397.447	80.002	20.008	100.701	19.439	78.858	0.474
685.000	397.727	80.003	20.008	100.702	19.453	77.424	0.498
685.500	397.951	80.001	20.008	100.692	19.466	76.010	0.506
686.000	398.227	80.002	20.008	100.679	19.480	74.561	0.502
686.500	398.427	80.001	20.008	100.669	19.491	73.451	0.488
687.000	398.664	80.002	20.008	100.667	19.503	72.163	0.456
687.500	398.904	80.001	20.008	100.673	19.514	71.085	0.457
688.000	399.131	80.002	20.008	100.686	19.526	69.768	0.472
688.500	399.403	80.002	20.008	100.693	19.540	68.314	0.483
689.000	399.630	80.000	20.008	100.695	19.550	67.280	0.499
689.500	399.897	80.003	20.008	100.693	19.560	66.214	0.496
690.000	400.094	80.000	20.008	100.687	19.574	64.780	0.478
690.500	400.386	80.003	20.008	100.683	19.580	64.142	0.476
691.000	400.655	80.001	20.008	100.683	19.592	62.884	0.526
691.500	400.893	80.002	20.008	100.688	19.606	61.424	0.534
692.000	401.084	80.002	20.008	100.689	19.617	60.277	0.468
692.500	401.371	80.003	20.008	100.691	19.632	58.746	0.454
693.000	401.602	80.002	20.008	100.684	19.639	58.009	0.498
693.500	401.873	80.002	20.008	100.679	19.651	56.712	0.510
694.000	402.111	80.002	20.008	100.675	19.661	55.679	0.505
694.500	402.372	80.001	20.008	100.677	19.674	54.348	0.504
695.000	402.590	80.003	20.008	100.683	19.681	53.567	0.489
695.500	402.819	80.002	20.008	100.698	19.690	52.626	0.463
696.000	403.145	80.002	20.008	100.709	19.700	51.623	0.501
696.500	403.345	80.002	20.008	100.710	19.709	50.703	0.541
697.000	403.564	80.002	20.008	100.705	19.718	49.778	0.473
697.500	403.851	80.002	20.008	100.694	19.728	48.722	0.462
698.000	404.052	80.004	20.008	100.682	19.734	48.027	0.497
698.500	404.239	80.002	20.008	100.676	19.748	46.573	0.438
699.000	404.431	80.003	20.008	100.676	19.755	45.922	0.384
699.500	404.707	80.002	20.008	100.680	19.764	44.962	0.423
700.000	404.916	80.002	20.008	100.686	19.775	43.784	0.476
700.500	405.149	80.003	20.008	100.689	19.781	43.124	0.463
701.000	405.405	80.002	20.008	100.690	19.790	42.252	0.466
701.500	405.646	80.002	20.009	100.691	19.800	41.196	0.493
702.000	405.902	80.002	20.008	100.698	19.805	40.647	0.497
702.500	406.162	80.002	20.008	100.705	19.812	39.894	0.506
703.000	406.381	80.001	20.008	100.711	19.817	39.390	0.497
703.500	406.593	80.002	20.007	100.714	19.826	38.424	0.455
704.000	406.885	80.003	20.008	100.713	19.830	38.079	0.467
704.500	407.132	80.002	20.008	100.703	19.838	37.178	0.522
705.000	407.377	80.002	20.008	100.691	19.845	36.464	0.516
705.500	407.594	80.002	20.008	100.684	19.853	35.630	0.476
706.000	407.831	80.002	20.008	100.678	19.857	35.267	0.458
706.500	408.024	80.002	20.008	100.679	19.865	34.404	0.443
707.000	408.305	80.002	20.008	100.681	19.874	33.480	0.452
707.500	408.546	80.003	20.008	100.683	19.881	32.757	0.497
708.000	408.779	80.001	20.008	100.677	19.887	32.115	0.498
708.500	409.094	80.002	20.008	100.671	19.896	31.171	0.511
709.000	409.296	80.002	20.008	100.662	19.900	30.721	0.533
709.500	409.545	80.001	20.008	100.656	19.905	30.199	0.484
710.000	409.811	80.001	20.008	100.660	19.911	29.630	0.483
710.500	410.029	80.002	20.008	100.669	19.916	29.077	0.499
711.000	410.315	80.003	20.008	100.677	19.922	28.423	0.494
711.500	410.532	80.001	20.008	100.685	19.927	27.868	0.504
712.000	410.802	80.002	20.008	100.684	19.933	27.328	0.495
712.500	411.010	80.001	20.008	100.677	19.937	26.837	0.483
713.000	411.228	80.002	20.008	100.666	19.940	26.603	0.452
713.500	411.476	80.002	20.008	100.659	19.946	25.885	0.446
714.000	411.757	80.003	20.008	100.652	19.950	25.509	0.497
714.500	412.015	80.002	20.008	100.650	19.956	24.931	0.534
715.000	412.266	80.002	20.008	100.646	19.960	24.509	0.524
715.500	412.499	80.004	20.008	100.638	19.962	24.203	0.496
716.000	412.730	80.001	20.008	100.629	19.967	23.726	0.474
716.500	412.979	80.003	20.008	100.620	19.972	23.177	0.472
717.000	413.208	80.002	20.008	100.613	19.974	22.992	0.479
717.500	413.466	80.002	20.008	100.612	19.981	22.289	0.483
718.000	413.725	80.001	20.008	100.620	19.982	22.157	0.502
718.500	413.954	80.002	20.008	100.630	19.989	21.457	0.502
719.000	414.184	80.002	20.007	100.638	19.993	21.046	0.473
719.500	414.382	80.001	20.008	100.641	19.995	20.857	0.444
720.000	414.638	80.001	20.008	100.638	20.004	19.882	0.441
720.500	414.918	80.002	20.008	100.632	20.004	19.839	0.495
721.000	415.128	80.003	20.008	100.631	20.010	19.303	0.512
721.500	415.349	80.002	20.008	100.635	20.012	19.071	0.460
722.000	415.618	80.002	20.007	100.649	20.013	18.968	0.461
722.500	415.897	80.003	20.008	100.659	20.014	18.822	0.519
723.000	416.163	80.001	20.008	100.666	20.019	18.346	0.546
723.500	416.394	80.001	20.008	100.660	20.021	18.106	0.521
724.000	416.643	80.003	20.008	100.648	20.025	17.732	0.489
724.500	416.931	80.002	20.008	100.631	20.025	17.663	0.509
725.000	417.183	80.001	20.007	100.624	20.030	17.204	0.538
725.500	417.415	80.001	20.008	100.619	20.030	17.151	0.512
726.000	417.647	80.001	20.008	100.618	20.033	16.803	0.474
726.500	417.920	80.003	20.008	100.612	20.036	16.496	0.485
727.000	418.146	80.002	20.008	100.604	20.038	16.294	0.502
727.500	418.444	80.002	20.008	100.593	20.040	16.104	0.512
728.000	418.695	80.002	20.008	100.581	20.043	15.764	0.537
728.500	418.891	80.003	20.009	100.572	20.043	15.793	0.498
729.000	419.168	80.002	20.008	100.577	20.045	15.609	0.460
729.500	419.455	80.004	20.008	100.591	20.049	15.134	0.519
730.000	419.691	80.002	20.008	100.602	20.053	14.765	0.544
730.500	419.918	80.003	20.008	100.611	20.050	15.030	0.493
731.000	420.167	80.003	20.008	100.613	20.054	14.657	0.470
731.500	420.423	80.001	20.008	100.606	20.055	14.560	0.490
732.000	420.636	80.003	20.008	100.591	20.062	13.862	0.487
732.500	420.895	80.003	20.008	100.580	20.062	13.834	0.471
733.000	421.113	80.002	20.008	100.577	20.063	13.716	0.474
733.500	421.383	80.002	20.008	100.582	20.065	13.519	0.482
734.000	421.626	80.002	20.008	100.591	20.068	13.174	0.501
734.500	421.909	80.002	20.007	100.600	20.066	13.370	0.520
735.000	422.152	80.003	20.008	100.602	20.072	12.827	0.526
735.500	422.416	80.001	20.008	100.595	20.069	13.049	0.516
736.000	422.668	80.001	20.008	100.584	20.071	12.849	0.511
736.500	422.902	80.002	20.008	100.575	20.075	12.484	0.501
737.000	423.140	80.002	20.008	100.567	20.076	12.416	0.480
737.500	423.398	80.003	20.008	100.572	20.077	12.220	0.484
738.000	423.641	80.004	20.008	100.579	20.078	12.178	0.499
738.500	423.852	80.000	20.008	100.583	20.078	12.167	0.478
739.000	424.144	80.001	20.007	100.584	20.080	11.976	0.478
739.500	424.365	80.002	20.008	100.578	20.084	11.568	0.508
740.000	424.651	80.002	20.008	100.566	20.081	11.888	0.510
740.500	424.833	80.002	20.008	100.561	20.082	11.708	0.487
741.000	425.127	80.002	20.008	100.560	20.081	11.795	0.472
741.500	425.406	80.001	20.008	100.560	20.083	11.648	0.525
742.000	425.606	80.002	20.008	100.566	20.088	11.074	0.526
742.501	425.874	80.001	20.008	100.571	20.087	11.232	0.473
743.000	426.120	80.002	20.008	100.564	20.087	11.220	0.491
743.500	426.371	80.002	20.008	100.556	20.088	11.113	0.505
744.000	426.653	80.002	20.008	100.551	20.087	11.178	0.515
744.500	426.846	80.002	20.008	100.550	20.089	10.965	0.504
745.000	427.112	80.003	20.008	100.550	20.092	10.669	0.467
745.500	427.369	80.001	20.008	100.557	20.091	10.771	0.491
746.000	427.675	80.003	20.008	100.564	20.096	10.310	0.543
746.500	427.869	80.002	20.008	100.569	20.098	10.092	0.532
747.000	428.131	80.003	20.009	100.563	20.098	10.048	0.478
747.500	428.355	80.002	20.008	100.559	20.098	10.070	0.471
748.000	428.689	80.002	20.008	100.554	20.097	10.229	0.522
748.501	428.882	80.002	20.009	100.549	20.100	9.862	0.542
749.000	429.163	80.003	20.008	100.547	20.097	10.166	0.500
749.500	429.450	80.001	20.008	100.554	20.101	9.712	0.521
750.000	429.670	80.002	20.008	100.557	20.099	9.937	0.538
750.500	429.887	80.003	20.008	100.558	20.101	9.731	0.472
751.000	430.155	80.003	20.008	100.557	20.102	9.663	0.461
751.500	430.404	80.001	20.008	100.553	20.102	9.687	0.501
752.000	430.609	80.002	20.008	100.545	20.103	9.540	0.486
752.500	430.884	80.003	20.008	100.540	20.106	9.287	0.467
753.000	431.152	80.002	20.008	100.541	20.103	9.586	0.512
753.500	431.299	80.003	20.008	100.546	20.105	9.374	0.479
754.000	431.627	80.001	20.008	100.544	20.105	9.352	0.444
754.500	431.864	80.001	20.008	100.542	20.104	9.459	0.520
755.000	432.096	80.002	20.008	100.536	20.106	9.260	0.517
755.500	432.354	80.002	20.008	100.526	20.107	9.176	0.480
756.000	432.589	80.002	20.008	100.520	20.108	9.033	0.492
756.500	432.756	80.002	20.007	100.525	20.110	8.865	0.448
757.000	433.021	80.002	20.008	100.533	20.105	9.323	0.417
757.500	433.280	80.002	20.008	100.547	20.107	9.145	0.478
758.000	433.602	80.002	20.008	100.559	20.111	8.670	0.552
758.500	433.843	80.003	20.008	100.562	20.112	8.578	0.571
759.000	434.033	80.003	20.008	100.558	20.113	8.543	0.497
759.500	434.255	80.003	20.008	100.553	20.111	8.699	0.421
760.000	434.549	80.002	20.008	100.552	20.115	8.343	0.464
760.500	434.775	80.003	20.008	100.551	20.115	8.284	0.519
761.001	435.036	80.003	20.008	100.556	20.114	8.361	0.503
761.500	435.302	80.002	20.008	100.564	20.113	8.512	0.507
762.000	435.514	80.002	20.009	100.571	20.116	8.227	0.503
762.500	435.786	80.002	20.008	100.569	20.117	8.097	0.481
763.000	436.064	80.003	20.008	100.565	20.116	8.188	0.517
763.500	436.286	80.002	20.008	100.561	20.115	8.305	0.525
764.000	436.505	80.002	20.008	100.562	20.118	8.012	0.471
764.500	436.768	80.002	20.008	100.563	20.117	8.096	0.462
765.000	437.011	80.002	20.008	100.565	20.115	8.303	0.494
765.500	437.268	80.002	20.008	100.567	20.115	8.313	0.503
766.000	437.515	80.002	20.009	100.563	20.118	8.038	0.502
766.500	437.776	80.002	20.008	100.552	20.117	8.113	0.507
767.000	438.009	80.003	20.008	100.536	20.117	8.063	0.501
767.500	438.222	80.004	20.009	100.520	20.118	7.941	0.470
768.000	438.502	80.002	20.008	100.509	20.117	8.141	0.469
768.500	438.823	80.002	20.008	100.505	20.119	7.903	0.547
769.000	439.035	80.003	20.008	100.505	20.116	8.164	0.567
769.500	439.251	80.001	20.008	100.508	20.119	7.924	0.481
770.000	439.469	80.003	20.008	100.508	20.122	7.600	0.431
770.500	439.784	80.001	20.008	100.507	20.122	7.570	0.483
771.000	439.979	80.001	20.008	100.511	20.120	7.753	0.521
771.500	440.332	80.003	20.008	100.515	20.123	7.443	0.529
772.000	440.523	80.002	20.009	100.528	20.124	7.320	0.546
772.500	440.759	80.004	20.008	100.544	20.126	7.106	0.486
773.000	440.991	80.001	20.008	100.556	20.124	7.370	0.448
773.500	441.254	80.003	20.008	100.559	20.126	7.126	0.481
774.000	441.548	80.001	20.008	100.555	20.127	7.082	0.526
774.500	441.727	80.002	20.008	100.545	20.128	6.996	0.515
775.000	442.026	80.002	20.008	100.537	20.125	7.273	0.475
775.500	442.202	80.004	20.008	100.535	20.126	7.198	0.476
776.000	442.542	80.001	20.007	100.538	20.126	7.171	0.496
776.500	442.787	80.002	20.008	100.547	20.128	6.966	0.551
777.000	442.973	80.002	20.008	100.550	20.128	6.994	0.508
777.500	443.224	80.002	20.008	100.549	20.129	6.822	0.434
778.000	443.447	80.002	20.008	100.543	20.128	6.961	0.456
778.500	443.730	79.999	20.008	100.539	20.128	6.954	0.490
779.000	443.953	80.002	20.008	100.538	20.128	6.992	0.506
779.500	444.201	80.001	20.008	100.546	20.131	6.633	0.488
780.000	444.465	80.001	20.007	100.555	20.129	6.804	0.492
780.500	444.739	80.002	20.008	100.562	20.132	6.560	0.525
781.000	444.922	80.001	20.008	100.563	20.130	6.736	0.497
781.500	445.232	80.002	20.008	100.557	20.131	6.633	0.475
782.000	445.463	80.001	20.008	100.548	20.131	6.645	0.517
782.500	445.731	80.003	20.008	100.543	20.132	6.513	0.520
783.000	445.987	80.001	20.008	100.544	20.134	6.356	0.511
783.500	446.181	80.002	20.008	100.550	20.133	6.475	0.487
784.000	446.393	80.003	20.008	100.559	20.133	6.384	0.428
784.500	446.666	80.002	20.008	100.567	20.135	6.192	0.446
785.000	446.900	80.001	20.008	100.571	20.136	6.071	0.497
785.500	447.197	80.003	20.008	100.565	20.134	6.325	0.519
786.000	447.479	80.002	20.008	100.561	20.134	6.292	0.555
786.500	447.676	80.001	20.008	100.561	20.136	6.087	0.529
787.000	447.943	80.002	20.008	100.560	20.134	6.277	0.471
787.500	448.189	80.002	20.008	100.562	20.139	5.841	0.489
788.000	448.443	80.002	20.008	100.564	20.136	6.102	0.507
788.500	448.733	80.001	20.008	100.560	20.134	6.329	0.522
789.000	448.945	80.000	20.008	100.553	20.134	6.343	0.522
789.500	449.205	80.003	20.008	100.545	20.132	6.528	0.487
790.000	449.457	80.002	20.008	100.537	20.135	6.260	0.493
790.500	449.681	80.001	20.008	100.534	20.133	6.379	0.494
791.000	449.903	80.002	20.007	100.534	20.133	6.432	0.461
791.500	450.188	80.003	20.008	100.533	20.133	6.414	0.476
792.000	450.412	80.000	20.008	100.534	20.135	6.235	0.508
792.500	450.661	80.001	20.007	100.535	20.134	6.323	0.491
793.000	450.891	80.002	20.008	100.534	20.137	6.028	0.476
793.500	451.158	80.002	20.008	100.534	20.137	6.041	0.488
794.000	451.429	80.001	20.008	100.536	20.139	5.847	0.517
794.500	451.651	80.001	20.008	100.543	20.138	5.898	0.516
795.000	451.899	80.003	20.008	100.550	20.141	5.574	0.481
795.500	452.137	80.002	20.008	100.554	20.137	6.020	0.478
796.000	452.379	80.001	20.008	100.555	20.138	5.938	0.483
796.500	452.624	80.002	20.008	100.553	20.134	6.370	0.484
797.000	452.894	80.002	20.008	100.545	20.135	6.231	0.501
797.500	453.136	80.002	20.008	100.537	20.136	6.126	0.513
798.000	453.374	80.003	20.008	100.536	20.135	6.173	0.495
798.500	453.613	80.001	20.008	100.541	20.137	6.030	0.479
799.000	453.896	80.003	20.008	100.547	20.137	5.982	0.500
799.500	454.074	80.002	20.007	100.549	20.137	6.055	0.492
800.000	454.335	80.004	20.008	100.549	20.138	5.881	0.450
800.500	454.584	80.001	20.008	100.546	20.137	5.992	0.474
801.000	454.892	80.002	20.008	100.540	20.137	6.041	0.533
801.500	455.090	80.003	20.008	100.537	20.138	5.910	0.532
802.000	455.382	80.002	20.008	100.543	20.139	5.772	0.498
802.500	455.613	80.003	20.008	100.552	20.138	5.877	0.506
803.000	455.838	80.003	20.008	100.560	20.135	6.194	0.490
803.500	456.074	80.002	20.008	100.565	20.139	5.795	0.459
804.000	456.335	80.002	20.008	100.563	20.139	5.779	0.479
804.500	456.584	80.001	20.008	100.556	20.139	5.770	0.503
805.000	456.795	80.001	20.008	100.547	20.139	5.841	0.485
805.500	457.039	80.002	20.008	100.540	20.137	6.009	0.458
806.000	457.297	80.003	20.008	100.541	20.133	6.399	0.479
806.500	457.579	80.004	20.008	100.547	20.133	6.382	0.521
807.000	457.818	80.002	20.008	100.548	20.136	6.141	0.531
807.500	458.056	80.002	20.008	100.548	20.137	6.054	0.499
808.000	458.304	80.002	20.008	100.545	20.136	6.085	0.481
808.500	458.523	80.003	20.008	100.531	20.137	5.970	0.476
809.000	458.809	80.003	20.008	100.520	20.135	6.184	0.486
809.500	459.104	80.002	20.008	100.520	20.135	6.258	0.543
810.000	459.330	80.003	20.008	100.528	20.133	6.403	0.551
810.500	459.539	80.003	20.008	100.538	20.134	6.284	0.478
811.000	459.812	80.004	20.008	100.549	20.135	6.266	0.458
811.500	460.085	80.003	20.008	100.552	20.132	6.569	0.514
812.000	460.310	80.002	20.008	100.545	20.132	6.542	0.522
812.500	460.489	80.002	20.008	100.529	20.134	6.364	0.451
813.000	460.764	80.003	20.008	100.513	20.135	6.218	0.429
813.500	460.987	80.001	20.008	100.507	20.133	6.419	0.476
814.000	461.254	80.003	20.008	100.512	20.132	6.478	0.494
814.500	461.569	80.004	20.008	100.525	20.133	6.392	0.536
815.000	461.787	80.003	20.008	100.532	20.134	6.321	0.558
815.500	462.035	80.003	20.008	100.534	20.133	6.424	0.500
816.000	462.270	80.002	20.009	100.528	20.134	6.323	0.475
816.500	462.475	80.002	20.008	100.516	20.133	6.448	0.461
817.000	462.784	80.002	20.009	100.504	20.135	6.208	0.477
817.500	462.990	80.002	20.009	100.506	20.134	6.297	0.514
818.000	463.282	80.003	20.008	100.520	20.134	6.348	0.507
818.500	463.479	80.003	20.008	100.530	20.135	6.214	0.493
819.000	463.766	80.002	20.008	100.537	20.134	6.354	0.486
819.500	464.027	80.004	20.008	100.536	20.135	6.202	0.516
820.000	464.215	80.002	20.008	100.527	20.134	6.314	0.499
820.500	464.456	80.003	20.008	100.511	20.135	6.193	0.439
821.000	464.734	80.004	20.009	100.505	20.134	6.351	0.474
821.500	464.977	80.003	20.008	100.506	20.134	6.300	0.520
822.000	465.166	80.002	20.008	100.513	20.131	6.604	0.477
822.500	465.379	80.004	20.008	100.522	20.135	6.202	0.417
823.000	465.661	80.002	20.008	100.527	20.133	6.447	0.448
823.500	465.922	80.003	20.008	100.523	20.132	6.511	0.519
824.000	466.104	80.004	20.008	100.514	20.132	6.546	0.493
824.500	466.403	80.004	20.008	100.505	20.130	6.711	0.462
825.000	466.582	80.002	20.008	100.496	20.129	6.823	0.479
825.500	466.804	80.003	20.008	100.493	20.125	7.211	0.439
826.000	467.092	80.003	20.008	100.493	20.127	7.024	0.456
826.500	467.312	80.004	20.008	100.494	20.126	7.137	0.509
827.000	467.628	80.002	20.008	100.495	20.126	7.117	0.522
827.500	467.811	80.003	20.008	100.494	20.126	7.165	0.518
828.000	468.056	80.003	20.008	100.485	20.128	6.929	0.464
828.500	468.312	80.003	20.008	100.478	20.127	7.082	0.464
829.000	468.531	80.003	20.009	100.473	20.125	7.251	0.488
829.500	468.779	80.004	20.008	100.472	20.124	7.313	0.471
830.000	468.995	80.003	20.008	100.473	20.126	7.168	0.466
830.500	469.264	80.003	20.008	100.481	20.123	7.473	0.474
831.000	469.467	80.002	20.008	100.488	20.123	7.430	0.478
831.500	469.748	80.003	20.008	100.489	20.123	7.517	0.478
832.000	469.997	80.001	20.008	100.482	20.122	7.559	0.507
832.500	470.217	80.003	20.008	100.473	20.124	7.364	0.499
833.000	470.486	80.003	20.008	100.467	20.126	7.167	0.479
833.500	470.698	80.003	20.008	100.468	20.126	7.158	0.485
834.000	470.969	80.002	20.008	100.475	20.127	7.098	0.482
834.501	471.218	80.004	20.008	100.489	20.127	7.054	0.501
835.000	471.449	80.002	20.008	100.506	20.128	6.936	0.500
835.500	471.685	80.002	20.007	100.520	20.128	6.952	0.474
836.000	471.951	80.002	20.008	100.525	20.127	7.005	0.485
836.500	472.195	80.002	20.008	100.527	20.130	6.742	0.506
837.000	472.409	80.003	20.008	100.521	20.130	6.774	0.484
837.500	472.633	80.002	20.008	100.520	20.130	6.782	0.448
838.000	472.899	80.002	20.008	100.520	20.134	6.278	0.464
838.500	473.145	80.002	20.008	100.523	20.130	6.749	0.501
839.001	473.399	80.002	20.008	100.526	20.133	6.446	0.506
839.501	473.607	80.002	20.007	100.532	20.133	6.453	0.481
840.000	473.830	80.001	20.008	100.530	20.131	6.663	0.446
840.500	474.075	80.003	20.008	100.522	20.135	6.210	0.450
841.000	474.342	80.002	20.008	100.514	20.133	6.374	0.490
841.500	474.543	80.003	20.008	100.505	20.134	6.270	0.490
842.000	474.779	80.000	20.008	100.499	20.136	6.155	0.453
842.500	475.016	80.003	20.008	100.504	20.134	6.353	0.455
843.000	475.266	80.001	20.008	100.513	20.134	6.354	0.480
843.500	475.459	80.002	20.008	100.527	20.133	6.388	0.465
844.000	475.732	80.002	20.008	100.542	20.134	6.352	0.455
844.500	475.988	80.002	20.008	100.551	20.134	6.354	0.498
845.000	476.203	80.002	20.008	100.549	20.136	6.118	0.500
845.500	476.448	80.002	20.007	100.539	20.138	5.886	0.465
846.000	476.702	80.002	20.008	100.528	20.140	5.736	0.480
846.500	476.880	80.003	20.008	100.517	20.138	5.913	0.465
847.000	477.156	80.001	20.008	100.516	20.136	6.109	0.443
847.500	477.418	80.002	20.008	100.520	20.134	6.347	0.495
848.000	477.636	80.001	20.008	100.532	20.133	6.409	0.509
848.500	477.850	80.003	20.007	100.536	20.131	6.625	0.457
849.000	478.171	80.002	20.008	100.535	20.134	6.306	0.484
849.500	478.348	80.001	20.008	100.527	20.134	6.347	0.516
850.000	478.631	80.003	20.008	100.515	20.132	6.569	0.479
850.500	478.925	80.002	20.008	100.501	20.133	6.404	0.518
851.000	479.075	80.003	20.008	100.496	20.134	6.333	0.511
851.500	479.357	80.000	20.008	100.502	20.132	6.552	0.438
852.001	479.586	80.003	20.008	100.511	20.133	6.442	0.471
852.501	479.843	80.002	20.008	100.520	20.132	6.489	0.498
853.000	480.053	80.002	20.007	100.530	20.134	6.293	0.476
853.500	480.308	80.002	20.008	100.531	20.134	6.321	0.466
854.000	480.539	80.002	20.008	100.522	20.133	6.437	0.476
854.500	480.747	80.003	20.008	100.514	20.134	6.369	0.463
855.000	481.055	80.003	20.008	100.508	20.134	6.347	0.477
855.500	481.304	80.002	20.008	100.507	20.131	6.642	0.536
856.000	481.469	80.002	20.008	100.519	20.132	6.554	0.486
856.500	481.805	80.001	20.008	100.534	20.133	6.438	0.458
857.000	482.013	80.002	20.007	100.550	20.132	6.522	0.522
857.500	482.287	80.002	20.008	100.557	20.133	6.373	0.513
858.000	482.504	80.002	20.008	100.552	20.131	6.628	0.487
858.500	482.721	80.002	20.008	100.536	20.132	6.570	0.462
859.000	482.967	80.002	20.008	100.520	20.132	6.524	0.449
859.500	483.235	80.003	20.008	100.505	20.135	6.253	0.489
860.000	483.517	80.004	20.008	100.501	20.130	6.725	0.532
860.500	483.720	80.003	20.008	100.505	20.131	6.587	0.517
861.000	483.978	80.001	20.007	100.513	20.134	6.299	0.473
861.500	484.284	80.002	20.008	100.520	20.136	6.123	0.513
862.000	484.539	80.003	20.008	100.521	20.135	6.250	0.562
862.500	484.788	80.001	20.008	100.517	20.137	6.014	0.532
863.000	484.976	80.004	20.009	100.509	20.138	5.928	0.471
863.500	485.213	80.002	20.008	100.502	20.138	5.931	0.431
864.000	485.439	80.004	20.008	100.501	20.136	6.119	0.444
864.500	485.710	80.004	20.008	100.507	20.137	5.984	0.479
865.000	485.929	80.001	20.008	100.514	20.137	5.958	0.494
865.500	486.197	80.003	20.007	100.522	20.136	6.061	0.489
866.000	486.422	80.003	20.008	100.528	20.136	6.113	0.490
866.500	486.689	80.002	20.008	100.522	20.135	6.247	0.493
867.000	486.932	80.001	20.008	100.512	20.136	6.139	0.501
867.500	487.161	80.003	20.008	100.505	20.135	6.228	0.491
868.000	487.400	80.004	20.008	100.504	20.135	6.209	0.470
868.500	487.660	80.003	20.008	100.505	20.134	6.337	0.483
869.000	487.928	80.002	20.008	100.514	20.132	6.546	0.513
869.500	488.179	80.003	20.008	100.524	20.134	6.328	0.524
870.000	488.387	80.003	20.008	100.531	20.135	6.215	0.489
870.500	488.599	80.002	20.008	100.530	20.134	6.317	0.440
871.000	488.850	80.003	20.008	100.523	20.135	6.253	0.441
871.500	489.100	80.003	20.008	100.517	20.137	5.960	0.482
872.001	489.336	80.003	20.008	100.518	20.134	6.282	0.493
872.501	489.563	80.002	20.008	100.519	20.135	6.221	0.475
873.000	489.876	80.002	20.008	100.529	20.137	6.003	0.502
873.500	490.086	80.003	20.008	100.543	20.139	5.758	0.531
874.000	490.341	80.002	20.008	100.549	20.138	5.890	0.494
874.500	490.541	80.004	20.008	100.549	20.136	6.074	0.460
875.000	490.760	80.003	20.008	100.547	20.139	5.772	0.437
875.500	491.081	80.004	20.008	100.541	20.136	6.162	0.480
876.000	491.296	80.003	20.008	100.542	20.139	5.826	0.538
876.500	491.502	80.002	20.008	100.549	20.140	5.745	0.478
877.000	491.811	80.004	20.008	100.555	20.141	5.580	0.468
877.500	492.037	80.003	20.008	100.558	20.140	5.679	0.525
878.000	492.279	80.003	20.008	100.557	20.140	5.716	0.501
878.500	492.554	80.001	20.008	100.549	20.139	5.830	0.492
879.000	492.817	80.003	20.009	100.541	20.139	5.784	0.528
879.500	493.076	80.002	20.008	100.535	20.140	5.678	0.530
880.000	493.257	80.003	20.008	100.536	20.141	5.593	0.481
880.500	493.510	80.003	20.008	100.542	20.140	5.721	0.437
881.000	493.770	80.003	20.008	100.550	20.139	5.794	0.474
881.500	493.986	80.003	20.008	100.557	20.139	5.778	0.495
882.000	494.235	80.004	20.008	100.559	20.137	6.040	0.470
882.500	494.477	80.004	20.008	100.553	20.138	5.888	0.478
883.000	494.710	80.001	20.008	100.540	20.140	5.707	0.483
883.500	494.984	80.006	20.008	100.529	20.134	6.333	0.492
884.000	495.220	80.002	20.008	100.523	20.136	6.069	0.508
884.500	495.438	80.002	20.008	100.521	20.136	6.133	0.481
885.000	495.676	80.003	20.008	100.527	20.136	6.137	0.455
885.500	495.923	80.001	20.008	100.534	20.136	6.158	0.471
886.000	496.162	80.004	20.008	100.535	20.137	5.985	0.485
886.500	496.463	80.002	20.008	100.526	20.134	6.319	0.513
887.000	496.651	80.003	20.008	100.518	20.134	6.279	0.515
887.500	496.910	80.002	20.008	100.511	20.137	5.988	0.469
888.000	497.176	80.002	20.008	100.511	20.133	6.369	0.486
888.500	497.410	80.003	20.008	100.514	20.133	6.451	0.512
889.000	497.667	80.004	20.008	100.524	20.133	6.370	0.495
889.500	497.926	80.002	20.008	100.531	20.133	6.420	0.504
890.000	498.148	80.003	20.008	100.535	20.135	6.255	0.499
890.500	498.375	80.002	20.008	100.529	20.135	6.197	0.465
891.000	498.662	80.002	20.008	100.521	20.138	5.931	0.481
891.500	498.865	80.001	20.008	100.520	20.138	5.919	0.502
892.000	499.159	80.003	20.008	100.520	20.135	6.236	0.494
892.500	499.385	80.003	20.008	100.521	20.136	6.157	0.508
893.000	499.615	80.003	20.008	100.529	20.136	6.085	0.488
893.500	499.884	80.002	20.008	100.540	20.135	6.263	0.478
894.000	500.110	80.004	20.008	100.541	20.134	6.280	0.497
894.500	500.403	80.002	20.008	100.533	20.134	6.356	0.507
895.000	500.628	80.004	20.008	100.529	20.132	6.508	0.519
895.500	500.860	80.002	20.008	100.526	20.131	6.642	0.488
896.000	501.127	80.002	20.008	100.523	20.131	6.618	0.478
896.500	501.360	80.002	20.008	100.526	20.131	6.643	0.499
897.000	501.647	80.003	20.008	100.535	20.129	6.830	0.510
897.500	501.853	80.002	20.008	100.538	20.128	6.959	0.506
898.000	502.136	80.004	20.008	100.531	20.128	6.928	0.491
898.500	502.296	80.000	20.008	100.518	20.127	7.088	0.466
899.000	502.579	80.003	20.008	100.499	20.128	6.938	0.443
899.500	502.799	80.002	20.009	100.482	20.127	7.003	0.473
900.000	503.082	80.003	20.008	100.473	20.124	7.320	0.503
900.500	503.286	80.003	20.008	100.473	20.127	7.035	0.495
901.000	503.524	80.002	20.008	100.478	20.125	7.231	0.465
901.500	503.803	80.002	20.008	100.485	20.124	7.348	0.480
902.000	504.053	80.003	20.008	100.488	20.126	7.169	0.523
902.500	504.274	80.002	20.008	100.483	20.127	7.089	0.500
903.000	504.477	80.003	20.008	100.476	20.128	6.959	0.448
903.500	504.777	80.002	20.008	100.474	20.127	7.082	0.464
904.000	504.971	80.003	20.008	100.475	20.127	7.070	0.499
904.500	505.228	80.002	20.008	100.487	20.127	7.016	0.472
905.000	505.497	80.003	20.008	100.499	20.126	7.155	0.488
905.500	505.722	80.002	20.008	100.506	20.125	7.245	0.510
906.000	505.965	80.003	20.008	100.507	20.126	7.124	0.481
906.500	506.260	80.001	20.008	100.501	20.127	7.093	0.504
907.000	506.517	80.003	20.008	100.488	20.127	7.011	0.546
907.500	506.721	80.003	20.008	100.477	20.128	6.908	0.506
908.000	506.996	80.003	20.008	100.477	20.127	7.010	0.469
908.500	507.227	80.003	20.008	100.476	20.125	7.235	0.492
909.000	507.501	80.002	20.008	100.482	20.125	7.253	0.506
909.500	507.734	80.003	20.008	100.486	20.126	7.134	0.507
910.000	507.944	80.002	20.008	100.483	20.124	7.381	0.475
910.500	508.204	80.002	20.008	100.476	20.124	7.392	0.456
911.000	508.506	80.002	20.008	100.468	20.125	7.231	0.516
911.500	508.706	80.004	20.008	100.460	20.126	7.156	0.533
912.000	508.980	80.001	20.008	100.460	20.126	7.146	0.488
912.500	509.250	80.002	20.008	100.470	20.125	7.228	0.508
913.000	509.475	80.004	20.008	100.481	20.127	7.047	0.519
913.500	509.725	80.002	20.008	100.492	20.126	7.120	0.485
914.000	509.996	80.003	20.008	100.500	20.125	7.211	0.498
914.500	510.253	80.002	20.008	100.495	20.125	7.268	0.525
915.000	510.513	80.003	20.008	100.485	20.127	7.011	0.523
915.500	510.793	80.002	20.008	100.476	20.124	7.328	0.528
916.000	510.997	80.003	20.008	100.471	20.125	7.295	0.512
916.500	511.292	80.002	20.008	100.474	20.127	7.042	0.492
917.000	511.542	80.002	20.008	100.488	20.127	7.027	0.522
917.500	511.750	80.003	20.008	100.504	20.130	6.697	0.502
918.000	512.046	80.003	20.008	100.512	20.128	6.949	0.481
918.500	512.301	80.002	20.008	100.513	20.130	6.751	0.527
919.000	512.503	80.001	20.008	100.510	20.131	6.650	0.504
919.500	512.718	80.003	20.008	100.502	20.130	6.694	0.437
920.000	513.027	80.004	20.008	100.500	20.132	6.569	0.471
920.500	513.295	80.002	20.008	100.506	20.131	6.652	0.550
921.000	513.532	80.001	20.008	100.513	20.130	6.696	0.541
921.500	513.788	80.003	20.008	100.520	20.130	6.761	0.499
922.000	514.049	80.002	20.008	100.522	20.130	6.728	0.505
922.500	514.301	80.002	20.008	100.517	20.129	6.829	0.515
923.000	514.566	80.002	20.009	100.506	20.131	6.665	0.514
923.500	514.789	80.001	20.008	100.496	20.128	6.914	0.502
924.000	515.055	80.002	20.008	100.489	20.130	6.756	0.489
924.500	515.315	80.002	20.008	100.495	20.129	6.856	0.508
925.000	515.581	80.003	20.008	100.502	20.126	7.175	0.526
925.500	515.833	80.002	20.008	100.508	20.126	7.139	0.522
926.000	516.053	80.002	20.008	100.510	20.129	6.802	0.495
926.500	516.361	80.002	20.008	100.507	20.128	6.964	0.500
927.000	516.590	80.002	20.008	100.498	20.128	6.945	0.532
927.500	516.869	80.001	20.008	100.490	20.126	7.146	0.523
928.000	517.141	80.002	20.008	100.490	20.128	6.977	0.530
928.500	517.328	80.003	20.008	100.497	20.125	7.265	0.505
929.000	517.645	80.002	20.008	100.502	20.125	7.296	0.482
929.500	517.894	80.002	20.008	100.506	20.127	7.093	0.535
930.000	518.134	80.003	20.008	100.505	20.126	7.125	0.527
930.500	518.346	80.003	20.008	100.501	20.127	7.042	0.471
931.000	518.596	80.003	20.008	100.496	20.126	7.148	0.457
931.500	518.835	80.002	20.008	100.494	20.126	7.142	0.475
932.000	519.076	80.002	20.008	100.497	20.126	7.132	0.485
932.501	519.369	80.002	20.008	100.501	20.125	7.209	0.508
933.000	519.611	80.002	20.008	100.501	20.126	7.140	0.534
933.500	519.889	80.002	20.008	100.500	20.125	7.227	0.527
934.000	520.114	80.002	20.008	100.496	20.126	7.200	0.512
934.500	520.351	80.002	20.008	100.485	20.127	7.078	0.483
935.000	520.664	80.001	20.008	100.479	20.125	7.217	0.506
935.500	520.898	80.002	20.008	100.478	20.125	7.227	0.549
936.000	521.188	80.003	20.008	100.485	20.126	7.188	0.536
936.500	521.411	80.002	20.008	100.496	20.127	7.006	0.519
937.000	521.678	80.003	20.008	100.508	20.126	7.159	0.501
937.500	521.992	80.002	20.008	100.511	20.127	7.020	0.535
938.000	522.200	80.003	20.008	100.511	20.125	7.276	0.552
938.500	522.414	80.003	20.008	100.504	20.127	7.048	0.472
939.000	522.697	80.003	20.008	100.496	20.126	7.139	0.459
939.500	522.952	80.000	20.008	100.491	20.126	7.159	0.517
940.000	523.209	80.002	20.008	100.497	20.125	7.263	0.525
940.500	523.474	80.002	20.008	100.505	20.126	7.136	0.518
941.000	523.694	80.002	20.008	100.510	20.126	7.162	0.504
941.500	523.930	80.002	20.008	100.511	20.126	7.203	0.470
942.000	524.216	80.002	20.008	100.510	20.127	7.066	0.489
942.500	524.471	80.003	20.009	100.502	20.127	7.077	0.531
943.000	524.686	80.002	20.009	100.495	20.130	6.721	0.505
943.500	525.003	80.001	20.008	100.495	20.131	6.671	0.501
944.000	525.236	80.003	20.008	100.503	20.128	6.985	0.542
944.500	525.477	80.003	20.008	100.513	20.129	6.862	0.512
945.000	525.751	80.001	20.008	100.523	20.130	6.740	0.494
945.500	525.999	80.002	20.008	100.525	20.131	6.598	0.519
946.000	526.259	80.002	20.009	100.514	20.129	6.871	0.515
946.500	526.473	80.002	20.009	100.500	20.128	6.891	0.491
947.000	526.775	80.002	20.009	100.488	20.130	6.735	0.494
947.500	526.964	80.002	20.009	100.484	20.130	6.749	0.503
948.000	527.270	80.002	20.009	100.490	20.133	6.458	0.493
948.500	527.553	80.002	20.008	100.505	20.132	6.544	0.542
949.000	527.768	80.002	20.008	100.511	20.133	6.458	0.544
949.500	527.982	80.001	20.008	100.513	20.132	6.497	0.463
950.000	528.233	80.003	20.009	100.506	20.132	6.572	0.447
950.500	528.575	80.002	20.009	100.492	20.131	6.594	0.529
951.000	528.801	80.002	20.008	100.485	20.132	6.571	0.580
951.500	529.027	80.001	20.008	100.490	20.130	6.690	0.510
952.000	529.324	80.001	20.008	100.498	20.128	6.932	0.488
952.500	529.583	80.004	20.008	100.508	20.127	7.053	0.539
953.000	529.819	80.002	20.009	100.513	20.129	6.796	0.525
953.500	530.117	80.002	20.008	100.514	20.129	6.879	0.515
954.000	530.335	80.002	20.008	100.509	20.127	7.045	0.525
954.500	530.586	80.003	20.008	100.501	20.130	6.777	0.492
955.000	530.868	80.002	20.009	100.496	20.125	7.248	0.501
955.500	531.099	80.002	20.008	100.502	20.127	7.077	0.523
956.000	531.367	80.002	20.009	100.507	20.129	6.856	0.506
956.500	531.611	80.003	20.008	100.510	20.128	6.986	0.506
957.000	531.842	80.001	20.008	100.510	20.128	6.913	0.494
957.500	532.108	80.001	20.008	100.508	20.124	7.324	0.486
958.000	532.347	80.002	20.009	100.496	20.128	6.995	0.501
958.500	532.623	80.001	20.008	100.482	20.131	6.676	0.510
959.000	532.924	80.001	20.009	100.478	20.129	6.877	0.546
959.500	533.175	80.004	20.009	100.480	20.130	6.707	0.565
960.000	533.415	80.002	20.008	100.485	20.131	6.616	0.521
960.500	533.685	80.003	20.008	100.492	20.127	7.005	0.500
961.000	533.930	80.003	20.009	100.496	20.130	6.778	0.513
961.500	534.161	80.001	20.009	100.490	20.126	7.188	0.496
962.000	534.433	80.002	20.009	100.485	20.128	6.924	0.490
962.500	534.687	80.003	20.009	100.480	20.126	7.123	0.514
963.000	534.925	80.002	20.008	100.481	20.130	6.746	0.509
963.500	535.238	80.002	20.008	100.488	20.132	6.504	0.522
964.000	535.491	80.002	20.008	100.502	20.130	6.763	0.559
964.500	535.700	80.002	20.009	100.506	20.128	6.917	0.514
965.000	535.969	80.002	20.008	100.507	20.132	6.501	0.470
965.500	536.222	80.001	20.009	100.505	20.127	7.045	0.500
966.000	536.475	80.003	20.009	100.500	20.129	6.856	0.514
966.500	536.741	80.002	20.008	100.498	20.130	6.785	0.512
967.000	536.955	80.002	20.008	100.506	20.128	6.980	0.499
967.500	537.203	80.001	20.008	100.514	20.131	6.627	0.471
968.000	537.424	80.003	20.008	100.522	20.131	6.646	0.465
968.500	537.670	80.002	20.008	100.523	20.133	6.404	0.468
969.000	537.898	80.001	20.009	100.518	20.132	6.507	0.471
969.500	538.220	80.002	20.008	100.510	20.133	6.409	0.512
970.000	538.395	80.001	20.009	100.506	20.132	6.491	0.523
970.500	538.706	80.003	20.008	100.506	20.133	6.437	0.492
971.000	538.914	80.001	20.008	100.514	20.135	6.214	0.503
971.500	539.170	80.003	20.008	100.522	20.135	6.217	0.491
972.000	539.412	80.002	20.008	100.527	20.132	6.534	0.481
972.500	539.710	80.003	20.009	100.524	20.132	6.532	0.519
973.000	539.972	80.001	20.009	100.517	20.135	6.195	0.550
973.500	540.169	80.002	20.008	100.507	20.134	6.304	0.509
974.000	540.433	80.002	20.009	100.505	20.135	6.240	0.460
974.500	540.707	80.001	20.008	100.507	20.137	5.974	0.500
975.000	540.963	80.002	20.009	100.515	20.134	6.277	0.534
975.500	541.157	80.003	20.008	100.522	20.133	6.404	0.490
976.000	541.422	80.002	20.008	100.524	20.135	6.186	0.455
976.500	541.629	80.002	20.009	100.517	20.134	6.369	0.466
977.000	541.910	80.002	20.009	100.510	20.135	6.192	0.480
977.500	542.108	80.003	20.009	100.503	20.134	6.289	0.484
978.000	542.427	80.000	20.008	100.501	20.135	6.206	0.498
978.500	542.605	80.003	20.008	100.506	20.132	6.534	0.507
979.000	542.859	80.002	20.008	100.509	20.131	6.611	0.465
979.500	543.139	80.000	20.008	100.507	20.130	6.698	0.483
980.000	543.338	80.003	20.008	100.498	20.132	6.544	0.507
980.500	543.527	80.001	20.009	100.483	20.131	6.682	0.434
981.000	543.868	80.003	20.008	100.472	20.130	6.747	0.459
981.500	544.016	80.002	20.008	100.469	20.130	6.770	0.509
982.000	544.269	80.002	20.008	100.471	20.130	6.741	0.445
982.500	544.546	80.002	20.008	100.484	20.133	6.430	0.466
983.000	544.770	80.002	20.008	100.495	20.130	6.731	0.516
983.500	545.030	80.003	20.009	100.500	20.131	6.610	0.492
984.000	545.338	80.001	20.009	100.501	20.133	6.407	0.526
984.500	545.542	80.004	20.009	100.502	20.130	6.698	0.540
985.000	545.845	80.000	20.009	100.503	20.130	6.764	0.509
985.500	546.050	80.002	20.008	100.508	20.131	6.599	0.507
986.000	546.269	80.004	20.008	100.515	20.128	6.966	0.466
986.500	546.529	80.002	20.008	100.524	20.131	6.680	0.451
987.000	546.792	80.003	20.008	100.529	20.132	6.505	0.501
987.500	546.963	80.002	20.009	100.523	20.131	6.604	0.478
988.000	547.209	80.002	20.008	100.516	20.133	6.437	0.425
988.500	547.493	80.002	20.009	100.509	20.132	6.547	0.473
989.000	547.749	80.002	20.008	100.507	20.135	6.266	0.535
989.500	547.986	80.003	20.008	100.512	20.134	6.310	0.517
990.000	548.274	80.002	20.009	100.527	20.135	6.213	0.509
990.500	548.509	80.003	20.008	100.540	20.138	5.920	0.524
991.000	548.726	80.002	20.008	100.548	20.135	6.237	0.487
991.500	549.000	80.002	20.009	100.544	20.135	6.204	0.471
992.000	549.206	80.003	20.008	100.533	20.137	6.023	0.486
992.500	549.488	80.003	20.009	100.524	20.138	5.878	0.484
993.000	549.716	80.001	20.008	100.519	20.138	5.927	0.499
993.500	549.964	80.003	20.008	100.521	20.138	5.863	0.493
994.000	550.210	80.002	20.008	100.532	20.134	6.334	0.485
994.500	550.423	80.003	20.008	100.541	20.132	6.495	0.477
995.000	550.632	80.001	20.008	100.540	20.133	6.461	0.441
995.500	550.917	80.003	20.008	100.535	20.134	6.282	0.458
996.000	551.222	80.003	20.008	100.526	20.132	6.542	0.542
996.500	551.456	80.003	20.008	100.519	20.133	6.430	0.564
997.000	551.655	80.002	20.008	100.517	20.132	6.502	0.486
997.500	551.947	80.003	20.008	100.521	20.133	6.412	0.462
998.000	552.214	80.003	20.008	100.523	20.133	6.452	0.525
998.500	552.426	80.004	20.008	100.525	20.131	6.651	0.519
999.000	552.688	80.002	20.008	100.520	20.134	6.354	0.477
999.500	552.887	80.003	20.008	100.513	20.134	6.365	0.468
1000.000	553.173	80.002	20.008	100.504	20.131	6.596	0.473
1000.500	553.414	80.003	20.008	100.499	20.133	6.423	0.506
1001.000	553.662	80.002	20.008	100.498	20.129	6.807	0.508
1001.500	553.962	80.003	20.008	100.501	20.133	6.385	0.518
1002.000	554.071	80.003	20.008	100.509	20.130	6.715	0.478
1002.500	554.389	80.003	20.009	100.517	20.132	6.521	0.418
1003.000	554.596	80.003	20.009	100.518	20.132	6.506	0.476
1003.500	554.900	80.001	20.008	100.516	20.130	6.708	0.518
1004.000	555.141	80.004	20.009	100.511	20.131	6.657	0.527
1004.500	555.384	80.001	20.008	100.505	20.134	6.354	0.515
1005.000	555.652	80.003	20.008	100.503	20.131	6.592	0.498
1005.500	555.862	80.003	20.008	100.510	20.129	6.870	0.494
1006.000	556.155	80.002	20.008	100.516	20.132	6.492	0.490
1006.500	556.385	80.003	20.008	100.519	20.129	6.887	0.513
1007.000	556.623	80.003	20.008	100.518	20.131	6.640	0.496
1007.500	556.883	80.001	20.009	100.511	20.128	6.899	0.483
1008.000	557.139	80.004	20.008	100.503	20.130	6.694	0.506
1008.500	557.400	80.001	20.008	100.495	20.130	6.775	0.516
1009.000	557.646	80.001	20.008	100.492	20.129	6.872	0.512
1009.500	557.898	80.002	20.008	100.493	20.128	6.994	0.503
1010.000	558.050	80.001	20.009	100.494	20.127	7.008	0.451
1010.500	558.296	80.003	20.008	100.494	20.127	7.010	0.401
1011.000	558.560	80.001	20.008	100.491	20.130	6.788	0.454
1011.500	558.822	80.002	20.008	100.485	20.127	7.100	0.518
1012.000	559.030	80.003	20.009	100.479	20.127	7.100	0.498
1012.500	559.269	80.002	20.009	100.478	20.128	6.915	0.459
1013.000	559.546	80.002	20.009	100.481	20.129	6.867	0.482
1013.500	559.789	80.001	20.008	100.491	20.129	6.804	0.518
1014.000	560.064	80.003	20.009	100.506	20.129	6.819	0.519
1014.500	560.297	80.003	20.009	100.518	20.128	6.914	0.513
1015.000	560.575	80.002	20.009	100.520	20.129	6.841	0.510
1015.501	560.856	80.001	20.008	100.517	20.132	6.532	0.536
1016.000	561.071	80.002	20.009	100.511	20.130	6.716	0.528
1016.500	561.292	80.002	20.009	100.503	20.126	7.191	0.466
1017.000	561.550	80.001	20.009	100.503	20.131	6.650	0.458
1017.500	561.850	80.002	20.008	100.510	20.130	6.761	0.518
1018.000	562.059	80.002	20.009	100.519	20.132	6.519	0.533
1018.500	562.324	80.003	20.008	100.526	20.134	6.337	0.491
1019.000	562.667	80.003	20.009	100.531	20.128	6.895	0.541
1019.500	562.886	80.002	20.008	100.522	20.131	6.595	0.585
1020.000	563.139	80.002	20.008	100.509	20.131	6.594	0.517
1020.500	563.341	80.003	20.009	100.498	20.130	6.743	0.464
1021.000	563.645	80.001	20.008	100.490	20.132	6.525	0.481
1021.500	563.850	80.003	20.008	100.486	20.129	6.796	0.507
1022.000	564.135	80.002	20.008	100.495	20.130	6.777	0.499
1022.500	564.341	80.002	20.008	100.504	20.129	6.840	0.491
1023.000	564.631	80.003	20.009	100.513	20.128	6.902	0.494
1023.500	564.834	80.003	20.009	100.516	20.127	7.021	0.495
1024.001	565.115	80.001	20.009	100.514	20.126	7.194	0.488
1024.500	565.335	80.003	20.009	100.508	20.128	6.942	0.492
1025.000	565.627	80.002	20.009	100.508	20.129	6.819	0.506
1025.500	565.880	80.003	20.009	100.509	20.126	7.120	0.529
1026.000	566.095	80.001	20.008	100.513	20.129	6.872	0.507
1026.500	566.325	80.002	20.009	100.521	20.129	6.854	0.456
1027.000	566.689	80.002	20.008	100.528	20.127	7.092	0.519
1027.501	566.846	80.002	20.008	100.525	20.128	6.929	0.558
1028.001	567.112	80.003	20.008	100.517	20.131	6.596	0.472
1028.501	567.359	80.001	20.008	100.508	20.127	7.029	0.468
1029.001	567.602	80.000	20.009	100.497	20.131	6.661	0.501
1029.500	567.872	80.004	20.008	100.489	20.130	6.705	0.502
1030.000	568.123	80.002	20.009	100.496	20.133	6.439	0.517
1030.500	568.357	80.002	20.008	100.504	20.130	6.761	0.503
1031.000	568.619	80.002	20.008	100.517	20.132	6.546	0.490
1031.500	568.954	80.002	20.008	100.528	20.133	6.467	0.546
1032.000	569.112	80.003	20.009	100.534	20.131	6.587	0.545
1032.500	569.343	80.002	20.009	100.528	20.134	6.331	0.441
1033.000	569.636	80.003	20.009	100.520	20.135	6.192	0.456
1033.500	569.885	80.002	20.009	100.510	20.132	6.503	0.533
1034.000	570.149	80.002	20.008	100.509	20.138	5.892	0.528
1034.500	570.431	80.003	20.008	100.511	20.136	6.079	0.529
1035.000	570.607	80.003	20.009	100.522	20.137	6.054	0.502
1035.500	570.910	80.001	20.009	100.532	20.136	6.145	0.468
1036.000	571.161	80.003	20.009	100.539	20.137	5.969	0.516
1036.500	571.357	80.001	20.009	100.539	20.136	6.136	0.501
1037.000	571.644	80.003	20.009	100.534	20.136	6.085	0.465
1037.500	571.885	80.003	20.009	100.522	20.136	6.126	0.505
1038.000	572.129	80.002	20.009	100.520	20.136	6.077	0.506
1038.500	572.330	80.002	20.009	100.520	20.134	6.304	0.465
1039.000	572.578	80.002	20.009	100.520	20.135	6.223	0.447
1039.500	572.777	80.003	20.010	100.522	20.135	6.257	0.449
1040.000	573.040	80.001	20.009	100.526	20.138	5.905	0.455
1040.500	573.244	80.005	20.009	100.520	20.138	5.920	0.464
1041.000	573.533	80.001	20.009	100.512	20.139	5.801	0.480
1041.500	573.755	80.002	20.009	100.505	20.135	6.245	0.502
1042.000	574.048	80.003	20.010	100.499	20.135	6.230	0.513
1042.500	574.308	80.002	20.009	100.500	20.135	6.216	0.534
1043.000	574.518	80.002	20.009	100.506	20.134	6.344	0.512
1043.500	574.767	80.002	20.009	100.514	20.136	6.158	0.464
1044.000	574.988	80.003	20.009	100.521	20.135	6.257	0.464
1044.500	575.240	80.002	20.009	100.522	20.136	6.105	0.472
1045.000	575.529	80.003	20.009	100.515	20.136	6.083	0.507
1045.500	575.790	80.002	20.010	100.501	20.135	6.188	0.545
1046.000	576.046	80.003	20.009	100.487	20.138	5.899	0.534
1046.501	576.232	80.003	20.010	100.476	20.136	6.125	0.480
1047.001	576.487	80.002	20.009	100.477	20.137	6.037	0.441
1047.501	576.696	80.002	20.009	100.487	20.135	6.251	0.452
1048.001	576.974	80.003	20.009	100.501	20.134	6.358	0.475
1048.501	577.188	80.002	20.010	100.510	20.133	6.402	0.489
1049.000	577.512	80.002	20.010	100.515	20.134	6.335	0.515
1049.500	577.702	80.004	20.009	100.513	20.136	6.108	0.526
1050.000	577.975	80.002	20.009	100.501	20.134	6.298	0.489
1050.500	578.237	80.002	20.010	100.493	20.135	6.247	0.499
1051.000	578.459	80.002	20.009	100.490	20.134	6.349	0.509
1051.500	578.723	80.002	20.009	100.493	20.138	5.946	0.485
1052.000	578.955	80.002	20.009	100.501	20.134	6.273	0.491
1052.500	579.180	80.003	20.009	100.512	20.137	6.051	0.477
1053.000	579.456	80.002	20.009	100.516	20.133	6.434	0.479
1053.500	579.675	80.002	20.009	100.517	20.132	6.533	0.498
1054.000	579.963	80.002	20.009	100.512	20.133	6.422	0.501
1054.500	580.142	80.002	20.010	100.504	20.133	6.417	0.487
1055.000	580.446	80.002	20.009	100.497	20.133	6.476	0.475
1055.500	580.648	80.002	20.009	100.496	20.134	6.307	0.495
1056.000	580.960	80.001	20.009	100.503	20.136	6.093	0.510
1056.500	581.187	80.002	20.009	100.511	20.138	5.928	0.527
1057.000	581.434	80.004	20.009	100.516	20.135	6.227	0.507
1057.500	581.648	80.002	20.009	100.516	20.136	6.161	0.467
1058.000	581.930	80.003	20.009	100.509	20.135	6.213	0.479
1058.500	582.150	80.002	20.009	100.496	20.134	6.296	0.499
1059.000	582.404	80.001	20.009	100.483	20.134	6.295	0.488
1059.500	582.695	80.003	20.009	100.476	20.137	6.051	0.509
1060.000	582.886	80.002	20.009	100.478	20.132	6.531	0.514
1060.500	583.152	80.002	20.009	100.489	20.135	6.199	0.470
1061.000	583.438	80.002	20.009	100.501	20.133	6.414	0.505
1061.500	583.655	80.002	20.009	100.514	20.136	6.163	0.528
1062.000	583.911	80.001	20.009	100.524	20.136	6.143	0.488
1062.500	584.170	80.002	20.009	100.529	20.137	6.048	0.494
1063.000	584.429	80.003	20.009	100.531	20.137	6.052	0.516
1063.500	584.633	80.002	20.009	100.532	20.137	5.964	0.491
1064.000	584.908	80.002	20.009	100.539	20.138	5.922	0.471
1064.500	585.138	80.002	20.009	100.547	20.138	5.907	0.492
1065.000	585.399	80.001	20.009	100.554	20.139	5.839	0.498
1065.500	585.599	80.002	20.009	100.561	20.139	5.848	0.476
1066.000	585.843	80.003	20.009	100.564	20.142	5.529	0.452
1066.500	586.081	80.001	20.009	100.559	20.140	5.726	0.463
1067.000	586.355	80.003	20.009	100.551	20.140	5.651	0.497
1067.501	586.627	80.001	20.009	100.544	20.138	5.855	0.529
1068.001	586.890	80.001	20.009	100.537	20.140	5.705	0.540
1068.500	587.139	80.003	20.009	100.535	20.137	6.011	0.524
1069.000	587.389	80.002	20.009	100.537	20.137	6.044	0.505
1069.500	587.554	80.003	20.009	100.536	20.138	5.921	0.457
1070.000	587.779	80.001	20.009	100.532	20.138	5.950	0.403
1070.500	588.039	80.002	20.009	100.526	20.138	5.904	0.437
1071.000	588.307	80.002	20.009	100.516	20.137	6.042	0.506
1071.500	588.540	80.002	20.009	100.500	20.139	5.831	0.515
1072.000	588.836	80.002	20.009	100.493	20.137	5.987	0.516
1072.501	589.128	80.000	20.009	100.490	20.137	5.993	0.558
1073.001	589.314	80.002	20.009	100.494	20.136	6.136	0.533
1073.500	589.529	80.002	20.009	100.503	20.137	6.051	0.440
1074.000	589.840	80.002	20.009	100.517	20.138	5.952	0.463
1074.500	590.060	80.002	20.009	100.524	20.136	6.066	0.528
1075.000	590.269	80.003	20.009	100.526	20.135	6.168	0.480
1075.500	590.588	80.000	20.009	100.521	20.135	6.207	0.478
1076.000	590.768	80.003	20.009	100.513	20.137	6.019	0.513
1076.500	591.009	80.002	20.009	100.505	20.136	6.138	0.460
1077.000	591.241	80.002	20.009	100.501	20.138	5.915	0.448
1077.500	591.497	80.002	20.009	100.507	20.136	6.106	0.480
1078.000	591.768	80.001	20.009	100.514	20.136	6.085	0.507
1078.500	592.010	80.002	20.009	100.526	20.136	6.072	0.520
1079.000	592.246	80.003	20.009	100.535	20.135	6.244	0.496
1079.500	592.498	80.002	20.009	100.538	20.136	6.146	0.483
1080.000	592.717	80.003	20.009	100.536	20.133	6.406	0.479
1080.500	592.990	80.001	20.009	100.528	20.139	5.806	0.481
1081.000	593.231	80.001	20.009	100.521	20.135	6.211	0.503
1081.500	593.429	80.002	20.009	100.520	20.135	6.198	0.476
1082.000	593.711	80.003	20.009	100.518	20.136	6.090	0.460
1082.500	593.952	80.001	20.009	100.523	20.138	5.912	0.502
1083.000	594.208	80.002	20.009	100.531	20.138	5.910	0.510
1083.500	594.398	80.002	20.009	100.533	20.138	5.943	0.471
1084.000	594.740	80.002	20.009	100.533	20.136	6.093	0.489
1084.500	594.914	80.001	20.009	100.530	20.134	6.291	0.524
1085.000	595.132	80.002	20.009	100.528	20.134	6.341	0.454
1085.500	595.445	80.002	20.009	100.523	20.136	6.101	0.462
1086.001	595.691	80.002	20.009	100.523	20.138	5.938	0.545
1086.501	595.917	80.002	20.009	100.524	20.137	5.967	0.515
1087.000	596.186	80.002	20.009	100.528	20.138	5.910	0.483
1087.500	596.470	80.001	20.009	100.528	20.136	6.065	0.524
1088.000	596.676	80.003	20.009	100.527	20.137	5.979	0.521
1088.500	596.918	80.002	20.009	100.519	20.138	5.928	0.469
1089.000	597.180	80.002	20.009	100.510	20.139	5.813	0.477
1089.500	597.413	80.001	20.009	100.503	20.139	5.830	0.499
1090.000	597.713	80.002	20.009	100.495	20.137	6.019	0.514
1090.500	597.962	80.001	20.009	100.499	20.137	5.973	0.541
1091.000	598.199	80.003	20.009	100.506	20.135	6.203	0.517
1091.500	598.461	80.002	20.009	100.514	20.137	5.957	0.493
1092.000	598.688	80.002	20.009	100.519	20.137	6.048	0.494
1092.500	598.951	80.001	20.009	100.528	20.134	6.317	0.490
1093.001	599.162	80.003	20.009	100.529	20.136	6.103	0.482
1093.501	599.469	80.001	20.009	100.527	20.137	6.009	0.496
1094.000	599.630	80.002	20.009	100.522	20.137	6.053	0.493
1094.500	599.902	80.002	20.009	100.521	20.136	6.160	0.450
1095.000	600.128	80.003	20.009	100.521	20.139	5.775	0.466
1095.501	600.407	80.002	20.009	100.522	20.135	6.224	0.501
1096.001	600.589	80.001	20.009	100.525	20.137	5.976	0.483
1096.500	600.864	80.003	20.009	100.529	20.136	6.094	0.459
1097.000	601.123	80.001	20.009	100.526	20.137	6.041	0.496
1097.500	601.371	80.003	20.009	100.525	20.138	5.933	0.520
1098.000	601.598	80.002	20.009	100.526	20.138	5.870	0.491
1098.500	601.870	80.002	20.009	100.524	20.137	6.011	0.487
1099.000	602.168	80.002	20.009	100.525	20.137	6.015	0.535
1099.500	602.395	80.002	20.010	100.529	20.136	6.070	0.547
1100.000	602.631	80.001	20.009	100.535	20.137	5.956	0.494
1100.500	602.863	80.003	20.009	100.541	20.140	5.655	0.465
1101.000	603.083	80.001	20.009	100.544	20.141	5.538	0.460
1101.500	603.362	80.001	20.009	100.541	20.144	5.294	0.475
1102.000	603.625	80.002	20.010	100.534	20.141	5.601	0.521
1102.501	603.800	80.003	20.009	100.522	20.144	5.249	0.490
1103.001	604.072	80.001	20.009	100.514	20.142	5.456	0.442
1103.500	604.333	80.004	20.009	100.517	20.144	5.249	0.490
1104.000	604.534	80.002	20.009	100.528	20.144	5.235	0.497
1104.500	604.806	80.002	20.009	100.543	20.144	5.235	0.468
1105.000	605.044	80.002	20.009	100.552	20.143	5.396	0.491
1105.500	605.319	80.001	20.009	100.553	20.144	5.264	0.511
1106.000	605.583	80.003	20.009	100.546	20.141	5.598	0.526
1106.500	605.740	80.000	20.009	100.534	20.142	5.488	0.480
1107.000	606.011	80.003	20.009	100.519	20.140	5.713	0.425
1107.500	606.210	80.001	20.009	100.513	20.141	5.620	0.449
1108.000	606.503	80.003	20.009	100.513	20.140	5.672	0.481
1108.500	606.731	80.002	20.009	100.516	20.137	5.974	0.507
1109.000	606.969	80.001	20.009	100.520	20.135	6.172	0.494
1109.501	607.221	80.001	20.009	100.520	20.136	6.104	0.478
1110.001	607.435	80.003	20.009	100.515	20.137	6.020	0.478
1110.500	607.678	80.003	20.009	100.506	20.136	6.103	0.462
1111.000	607.935	80.000	20.009	100.491	20.137	5.962	0.478
1111.500	608.138	80.002	20.009	100.482	20.134	6.332	0.480
1112.000	608.429	80.002	20.009	100.482	20.135	6.242	0.477
1112.501	608.624	80.002	20.009	100.484	20.132	6.549	0.490
1113.001	608.929	80.002	20.009	100.488	20.132	6.533	0.493
1113.500	609.167	80.002	20.009	100.496	20.132	6.477	0.521
1114.000	609.333	80.003	20.009	100.498	20.132	6.514	0.473
1114.500	609.602	80.002	20.009	100.491	20.134	6.360	0.419
1115.000	609.806	80.001	20.010	100.483	20.134	6.329	0.454
1115.500	610.124	80.003	20.009	100.481	20.134	6.358	0.498
1116.000	610.314	80.003	20.009	100.480	20.135	6.259	0.515
1116.500	610.595	80.001	20.009	100.485	20.131	6.673	0.489
1117.000	610.856	80.003	20.009	100.498	20.134	6.305	0.506
1117.500	611.119	80.002	20.009	100.509	20.133	6.398	0.533
1118.000	611.352	80.001	20.009	100.510	20.134	6.350	0.510
1118.500	611.593	80.003	20.009	100.511	20.133	6.403	0.485
1119.000	611.884	80.001	20.009	100.505	20.134	6.350	0.503
1119.500	612.104	80.003	20.009	100.498	20.132	6.485	0.521
1120.000	612.395	80.002	20.009	100.501	20.138	5.929	0.512
1120.500	612.603	80.002	20.009	100.508	20.136	6.070	0.505
1121.001	612.806	80.002	20.009	100.517	20.135	6.167	0.454
1121.501	613.096	80.004	20.009	100.526	20.139	5.828	0.452
1122.000	613.339	80.004	20.009	100.531	20.135	6.171	0.513
1122.500	613.620	80.002	20.009	100.526	20.139	5.803	0.528
1123.000	613.844	80.003	20.009	100.518	20.139	5.750	0.514
1123.500	614.125	80.003	20.010	100.513	20.137	6.017	0.505
1124.000	614.329	80.003	20.009	100.513	20.138	5.898	0.495
1124.500	614.595	80.003	20.009	100.516	20.137	5.982	0.477
1125.000	614.811	80.002	20.009	100.522	20.138	5.936	0.476
1125.500	615.070	80.002	20.009	100.529	20.138	5.916	0.478
1126.000	615.380	80.002	20.009	100.526	20.136	6.129	0.522
1126.501	615.650	80.002	20.009	100.518	20.137	6.016	0.575
1127.001	615.857	80.002	20.009	100.509	20.139	5.770	0.529
1127.501	616.128	80.002	20.009	100.500	20.136	6.121	0.478
1128.001	616.375	80.002	20.009	100.495	20.137	6.053	0.498
1128.501	616.638	80.001	20.009	100.501	20.136	6.108	0.514
1129.000	616.916	80.003	20.009	100.507	20.134	6.284	0.525
1129.500	617.155	80.002	20.009	100.510	20.137	6.033	0.529
1130.001	617.390	80.001	20.009	100.511	20.136	6.061	0.495
1130.501	617.736	80.004	20.009	100.507	20.138	5.889	0.527
1131.001	617.961	80.001	20.009	100.494	20.137	5.961	0.576
1131.501	618.217	80.002	20.009	100.488	20.136	6.092	0.526
1132.001	618.425	80.002	20.009	100.490	20.139	5.845	0.473
1132.501	618.678	80.003	20.009	100.498	20.141	5.612	0.463
1133.000	618.957	80.001	20.009	100.509	20.141	5.614	0.496
1133.500	619.210	80.004	20.009	100.523	20.140	5.691	0.532
1134.000	619.472	80.002	20.009	100.525	20.139	5.816	0.523
1134.500	619.734	80.004	20.009	100.520	20.139	5.797	0.519
1135.000	619.958	80.000	20.009	100.511	20.139	5.749	0.505
1135.500	620.243	80.002	20.009	100.503	20.139	5.822	0.498
1136.000	620.530	80.001	20.009	100.502	20.139	5.780	0.541
1136.500	620.784	80.003	20.009	100.509	20.140	5.745	0.556
1137.000	621.015	80.002	20.009	100.516	20.139	5.767	0.512
1137.500	621.262	80.002	20.009	100.518	20.141	5.588	0.481
1138.001	621.533	80.002	20.009	100.518	20.140	5.665	0.498
1138.501	621.813	80.003	20.010	100.513	20.140	5.711	0.535
1139.001	622.068	80.002	20.009	100.506	20.142	5.492	0.543
1139.501	622.317	80.001	20.009	100.502	20.141	5.589	0.519
1140.000	622.595	80.002	20.009	100.509	20.144	5.283	0.515
1140.500	622.821	80.003	20.009	100.516	20.143	5.404	0.516
1141.000	623.099	80.001	20.009	100.524	20.142	5.470	0.504
1141.500	623.298	80.002	20.009	100.530	20.145	5.205	0.490
1142.000	623.592	80.002	20.009	100.526	20.145	5.189	0.485
1142.500	623.837	80.003	20.009	100.517	20.142	5.480	0.516
1143.000	624.103	80.003	20.009	100.508	20.142	5.438	0.525
1143.500	624.307	80.002	20.009	100.501	20.142	5.533	0.491
1144.000	624.559	80.002	20.009	100.502	20.145	5.211	0.462
1144.500	624.838	80.002	20.009	100.508	20.144	5.319	0.493
1145.000	625.060	80.002	20.009	100.510	20.144	5.318	0.517
1145.500	625.320	80.003	20.009	100.511	20.145	5.190	0.492
1146.000	625.550	80.002	20.009	100.508	20.141	5.542	0.485
1146.500	625.773	80.001	20.009	100.501	20.145	5.221	0.471
1147.000	626.026	80.002	20.009	100.502	20.141	5.539	0.465
1147.500	626.269	80.002	20.009	100.508	20.142	5.447	0.486
1148.000	626.572	80.002	20.009	100.515	20.143	5.377	0.521
1148.500	626.780	80.003	20.009	100.525	20.144	5.242	0.529
1149.000	627.072	80.002	20.009	100.533	20.144	5.328	0.505
1149.500	627.342	80.001	20.010	100.530	20.145	5.189	0.531
1150.000	627.526	80.003	20.009	100.524	20.142	5.521	0.508
1150.500	627.797	80.002	20.009	100.523	20.144	5.235	0.455
1151.000	628.065	80.002	20.010	100.522	20.144	5.264	0.497
1151.500	628.241	80.003	20.010	100.521	20.140	5.725	0.491
1152.000	628.580	80.003	20.009	100.528	20.139	5.807	0.480
1152.500	628.763	80.002	20.009	100.538	20.142	5.529	0.519
1153.000	628.990	80.003	20.009	100.539	20.140	5.652	0.466
1153.500	629.313	80.002	20.009	100.539	20.140	5.683	0.480
1154.000	629.491	80.003	20.009	100.534	20.139	5.827	0.526
1154.500	629.771	80.002	20.010	100.523	20.141	5.590	0.479
1155.000	630.033	80.001	20.009	100.515	20.137	5.979	0.499
1155.500	630.275	80.003	20.009	100.515	20.140	5.671	0.523
1156.000	630.555	80.002	20.009	100.515	20.140	5.703	0.513
1156.500	630.787	80.003	20.009	100.517	20.137	6.051	0.517
1157.000	630.978	80.002	20.009	100.518	20.139	5.749	0.468
1157.500	631.300	80.004	20.010	100.509	20.136	6.088	0.468
1158.000	631.536	80.002	20.009	100.497	20.140	5.740	0.536
1158.500	631.740	80.003	20.010	100.489	20.140	5.666	0.499
1159.000	631.994	80.003	20.009	100.489	20.141	5.593	0.449
1159.500	632.252	80.001	20.009	100.496	20.138	5.891	0.485
1160.000	632.517	80.004	20.009	100.510	20.137	6.006	0.518
1160.501	632.756	80.003	20.008	100.522	20.140	5.644	0.514
1161.001	632.973	80.002	20.009	100.526	20.140	5.728	0.480
1161.500	633.178	80.003	20.009	100.521	20.139	5.818	0.439
1162.000	633.463	80.001	20.010	100.514	20.140	5.681	0.456
1162.501	633.679	80.002	20.010	100.505	20.141	5.606	0.496
1163.001	633.938	80.004	20.009	100.499	20.141	5.563	0.488
1163.500	634.183	80.002	20.010	100.503	20.144	5.314	0.489
1164.000	634.482	80.002	20.009	100.516	20.141	5.570	0.524
1164.501	634.678	80.001	20.009	100.524	20.140	5.681	0.520
1165.001	634.932	80.004	20.010	100.532	20.140	5.667	0.472
1165.500	635.179	80.003	20.009	100.535	20.142	5.513	0.476
1166.000	635.421	80.003	20.009	100.530	20.141	5.598	0.495
1166.500	635.672	80.003	20.011	100.517	20.141	5.549	0.491
1167.000	635.927	80.001	20.010	100.508	20.140	5.721	0.499
1167.500	636.155	80.002	20.009	100.507	20.142	5.470	0.494
1168.000	636.343	80.002	20.009	100.510	20.143	5.332	0.450
1168.500	636.637	80.003	20.009	100.515	20.144	5.324	0.449
1169.000	636.899	80.002	20.010	100.522	20.145	5.196	0.519
1169.500	637.130	80.002	20.010	100.531	20.145	5.136	0.525
1170.000	637.337	80.002	20.009	100.532	20.145	5.129	0.466
1170.500	637.633	80.002	20.009	100.529	20.147	4.990	0.471
1171.001	637.874	80.002	20.009	100.528	20.146	5.113	0.520
1171.501	638.107	80.001	20.009	100.528	20.149	4.768	0.505
1172.000	638.330	80.002	20.009	100.529	20.149	4.808	0.465
1172.500	638.612	80.002	20.009	100.535	20.148	4.879	0.481
1173.000	638.847	80.002	20.009	100.543	20.147	4.965	0.511
1173.500	639.064	80.002	20.009	100.544	20.147	5.011	0.484
1174.000	639.330	80.002	20.010	100.542	20.146	5.083	0.468
1174.500	639.555	80.002	20.009	100.541	20.146	5.069	0.487
1175.000	639.835	80.003	20.009	100.536	20.146	5.020	0.498
1175.500	640.066	80.001	20.009	100.531	20.146	5.035	0.508
1176.000	640.324	80.002	20.009	100.536	20.146	5.083	0.500
1176.500	640.586	80.002	20.009	100.546	20.148	4.822	0.504
1177.000	640.803	80.001	20.010	100.553	20.147	4.932	0.499
1177.501	641.058	80.002	20.010	100.559	20.148	4.905	0.475
1178.001	641.292	80.002	20.009	100.559	20.145	5.145	0.481
1178.501	641.581	80.001	20.009	100.550	20.144	5.246	0.506
1179.001	641.830	80.003	20.009	100.541	20.146	5.065	0.531
1179.500	642.103	80.003	20.009	100.533	20.148	4.837	0.530
1180.000	642.312	80.002	20.009	100.532	20.149	4.753	0.502
1180.500	642.533	80.002	20.010	100.540	20.147	4.972	0.456
1181.001	642.809	80.002	20.009	100.553	20.149	4.708	0.464
1181.501	643.069	80.003	20.010	100.558	20.148	4.824	0.516
1182.000	643.331	80.002	20.009	100.558	20.150	4.692	0.529
1182.500	643.585	80.002	20.010	100.552	20.149	4.746	0.519
1183.000	643.790	80.004	20.010	100.543	20.147	4.949	0.487
1183.500	644.008	80.001	20.008	100.535	20.147	4.980	0.441
1184.000	644.297	80.003	20.010	100.534	20.146	5.088	0.465
1184.500	644.566	80.003	20.010	100.541	20.146	5.036	0.533
1185.000	644.803	80.003	20.010	100.550	20.149	4.779	0.532
1185.500	644.967	80.001	20.010	100.557	20.145	5.173	0.453
1186.000	645.321	80.003	20.009	100.556	20.143	5.364	0.460
1186.500	645.569	80.002	20.009	100.551	20.143	5.368	0.560
1187.000	645.755	80.002	20.009	100.537	20.141	5.603	0.518
1187.500	646.101	80.002	20.010	100.523	20.143	5.383	0.483
1188.001	646.286	80.003	20.009	100.514	20.142	5.493	0.532
1188.501	646.600	80.001	20.009	100.514	20.141	5.631	0.515
1189.000	646.781	80.002	20.009	100.512	20.144	5.322	0.497
1189.500	646.931	80.003	20.009	100.517	20.142	5.437	0.413
1190.000	647.291	80.003	20.009	100.516	20.139	5.824	0.420
1190.501	647.493	80.001	20.009	100.512	20.140	5.742	0.536
1191.001	647.772	80.003	20.010	100.504	20.141	5.546	0.522
1191.500	648.035	80.001	20.010	100.500	20.140	5.647	0.511
1192.000	648.203	80.003	20.009	100.500	20.140	5.667	0.486
1192.500	648.687	80.001	20.009	100.507	20.142	5.496	0.541
1193.000	648.900	80.003	20.009	100.514	20.142	5.536	0.675
1193.501	649.165	80.001	20.009	100.521	20.138	5.876	0.587
1194.001	649.449	80.003	20.010	100.526	20.137	6.003	0.513
1194.500	649.553	80.001	20.009	100.522	20.138	5.912	0.469
1195.000	649.733	80.002	20.010	100.515	20.139	5.771	0.336
1195.500	650.046	80.002	20.010	100.508	20.139	5.823	0.389
1196.000	650.314	80.003	20.009	100.509	20.139	5.830	0.537
1196.500	650.608	80.001	20.009	100.512	20.138	5.870	0.571
1197.000	650.840	80.003	20.009	100.521	20.140	5.736	0.544
1197.500	651.098	80.002	20.010	100.529	20.140	5.742	0.508
1198.000	651.345	80.003	20.009	100.535	20.140	5.707	0.497
1198.500	651.560	80.003	20.009	100.531	20.138	5.865	0.483
1199.000	651.858	80.002	20.010	100.523	20.139	5.797	0.487
1199.500	652.113	80.002	20.009	100.518	20.139	5.776	0.533
1200.000	652.331	80.003	20.009	100.516	20.141	5.549	0.513
1200.500	652.565	80.001	20.009	100.517	20.140	5.730	0.463
1201.000	652.872	80.002	20.009	100.521	20.141	5.594	0.497
1201.500	653.101	80.002	20.009	100.531	20.143	5.403	0.539
1202.000	653.344	80.002	20.009	100.536	20.141	5.575	0.504
1202.501	653.604	80.003	20.009	100.535	20.144	5.271	0.487
1203.001	653.846	80.001	20.010	100.526	20.144	5.270	0.503
1203.500	654.132	80.002	20.008	100.519	20.144	5.302	0.515
1204.000	654.412	80.001	20.009	100.510	20.145	5.172	0.547
1204.501	654.621	80.004	20.009	100.509	20.147	4.961	0.528
1205.001	654.906	80.001	20.009	100.514	20.146	5.021	0.492
1205.500	655.167	80.002	20.009	100.529	20.143	5.367	0.520
1206.000	655.429	80.003	20.009	100.541	20.145	5.198	0.534
1206.500	655.635	80.001	20.008	100.547	20.144	5.240	0.495
1207.000	655.906	80.002	20.010	100.543	20.142	5.526	0.473
1207.500	656.150	80.002	20.009	100.532	20.140	5.703	0.496
1208.000	656.415	80.003	20.009	100.517	20.143	5.405	0.512
1208.500	656.646	80.001	20.009	100.506	20.142	5.492	0.503
1209.000	656.956	80.003	20.009	100.507	20.144	5.299	0.518
1209.500	657.189	80.002	20.008	100.519	20.141	5.565	0.542
1210.000	657.403	80.003	20.009	100.535	20.145	5.214	0.495
1210.500	657.656	80.001	20.009	100.551	20.145	5.223	0.457
1211.000	657.931	80.001	20.008	100.558	20.145	5.170	0.497
1211.500	658.184	80.003	20.009	100.557	20.144	5.277	0.528
1212.000	658.446	80.001	20.009	100.548	20.144	5.268	0.521
1212.501	658.696	80.004	20.009	100.539	20.145	5.167	0.514
1213.001	658.952	80.001	20.009	100.534	20.144	5.277	0.509
1213.500	659.198	80.002	20.009	100.540	20.144	5.242	0.504
1214.000	659.459	80.003	20.009	100.548	20.144	5.255	0.505
1214.500	659.694	80.002	20.008	100.558	20.143	5.331	0.502
1215.001	659.976	80.002	20.010	100.561	20.140	5.705	0.507
1215.501	660.212	80.002	20.009	100.557	20.145	5.198	0.517
1216.000	660.439	80.002	20.008	100.541	20.143	5.394	0.490
1216.501	660.716	80.002	20.009	100.530	20.143	5.420	0.483
1217.001	661.004	80.003	20.009	100.523	20.144	5.254	0.535
1217.500	661.245	80.002	20.009	100.526	20.144	5.270	0.548
1218.000	661.521	80.002	20.009	100.537	20.142	5.457	0.523
1218.500	661.731	80.002	20.009	100.553	20.142	5.517	0.501
1219.000	662.031	80.003	20.009	100.560	20.142	5.532	0.498
1219.500	662.291	80.002	20.008	100.560	20.143	5.362	0.535
1220.000	662.556	80.002	20.009	100.545	20.139	5.745	0.542
1220.500	662.790	80.003	20.009	100.529	20.144	5.311	0.512
1221.000	663.097	80.002	20.010	100.513	20.143	5.390	0.520
1221.500	663.303	80.001	20.010	100.502	20.142	5.446	0.527
1222.001	663.610	80.003	20.009	100.502	20.140	5.713	0.513
1222.501	663.841	80.002	20.009	100.509	20.137	5.962	0.526
1223.000	664.064	80.003	20.009	100.516	20.143	5.404	0.496
1223.500	664.309	80.003	20.009	100.522	20.142	5.483	0.461
1224.000	664.562	80.001	20.009	100.521	20.141	5.545	0.483
1224.500	664.811	80.004	20.009	100.514	20.142	5.496	0.500
1225.001	665.074	80.002	20.009	100.506	20.143	5.424	0.507
1225.501	665.358	80.003	20.010	100.500	20.142	5.490	0.530
1226.001	665.617	80.003	20.009	100.501	20.142	5.505	0.545
1226.500	665.901	80.003	20.009	100.508	20.144	5.325	0.543
1227.001	666.096	80.001	20.009	100.516	20.142	5.534	0.511
1227.501	666.362	80.003	20.010	100.524	20.144	5.235	0.470
1228.000	666.669	80.002	20.009	100.523	20.140	5.664	0.517
1228.500	666.877	80.002	20.009	100.517	20.142	5.448	0.544
1229.000	667.121	80.002	20.010	100.508	20.145	5.161	0.484
1229.501	667.376	80.002	20.009	100.500	20.146	5.064	0.475
1230.001	667.585	80.002	20.009	100.493	20.145	5.188	0.481
1230.501	667.866	80.003	20.009	100.492	20.145	5.129	0.477
1231.001	668.067	80.002	20.009	100.497	20.140	5.674	0.486
1231.500	668.354	80.002	20.009	100.502	20.141	5.626	0.485
1232.000	668.648	80.002	20.009	100.502	20.141	5.556	0.535
1232.500	668.913	80.003	20.009	100.500	20.140	5.703	0.570
1233.000	669.179	80.002	20.010	100.494	20.141	5.616	0.545
1233.500	669.399	80.003	20.009	100.486	20.139	5.824	0.508
1234.001	669.636	80.000	20.009	100.485	20.141	5.594	0.471
1234.501	669.921	80.004	20.009	100.492	20.144	5.237	0.489
1235.001	670.184	80.002	20.009	100.501	20.143	5.334	0.535
1235.501	670.413	80.002	20.009	100.517	20.143	5.368	0.520
1236.000	670.697	80.002	20.009	100.529	20.142	5.474	0.502
1236.500	670.974	80.002	20.009	100.535	20.143	5.339	0.537
1237.000	671.233	80.003	20.009	100.536	20.144	5.277	0.549
1237.500	671.516	80.002	20.010	100.536	20.144	5.299	0.540
1238.000	671.740	80.002	20.010	100.534	20.144	5.275	0.525
1238.500	671.982	80.002	20.009	100.533	20.148	4.908	0.486
1239.000	672.250	80.002	20.009	100.538	20.146	5.071	0.488
1239.500	672.534	80.004	20.008	100.540	20.147	4.927	0.531
1240.000	672.814	80.002	20.010	100.541	20.147	4.998	0.558
1240.500	673.028	80.002	20.009	100.541	20.149	4.780	0.529
1241.000	673.278	80.001	20.009	100.539	20.149	4.784	0.479
1241.500	673.590	80.003	20.009	100.528	20.150	4.700	0.513
1242.000	673.763	80.002	20.010	100.523	20.150	4.637	0.523
1242.501	674.096	80.003	20.010	100.525	20.151	4.536	0.495
1243.001	674.364	80.002	20.009	100.534	20.153	4.373	0.553
1243.500	674.603	80.002	20.009	100.546	20.152	4.472	0.554
1244.000	674.862	80.002	20.009	100.562	20.151	4.508	0.503
1244.500	675.101	80.002	20.009	100.571	20.152	4.497	0.498
1245.000	675.427	80.003	20.009	100.572	20.152	4.427	0.532
1245.500	675.651	80.003	20.010	100.559	20.149	4.753	0.557
1246.000	675.943	80.003	20.009	100.542	20.151	4.506	0.533
1246.500	676.165	80.002	20.009	100.524	20.150	4.703	0.515
1247.001	676.381	80.001	20.009	100.509	20.148	4.866	0.476
1247.501	676.628	80.003	20.009	100.506	20.148	4.833	0.451
1248.000	676.917	80.002	20.009	100.510	20.148	4.835	0.500
1248.500	677.089	80.003	20.009	100.518	20.146	5.102	0.498
1249.000	677.372	80.002	20.009	100.522	20.147	5.004	0.458
1249.500	677.612	80.001	20.009	100.523	20.148	4.865	0.489
1250.000	677.881	80.003	20.010	100.517	20.150	4.640	0.516
1250.500	678.150	80.001	20.009	100.511	20.150	4.699	0.523
1251.000	678.385	80.002	20.010	100.511	20.150	4.624	0.521
1251.500	678.661	80.002	20.009	100.517	20.148	4.911	0.507
1252.000	678.909	80.001	20.009	100.531	20.146	5.090	0.518
1252.500	679.119	80.003	20.009	100.547	20.147	4.949	0.491
1253.000	679.375	80.002	20.010	100.560	20.144	5.322	0.461
1253.500	679.569	80.002	20.009	100.563	20.146	5.090	0.458
1254.000	679.851	80.001	20.009	100.558	20.145	5.145	0.463
1254.500	680.111	80.003	20.010	100.544	20.147	4.948	0.509
1255.000	680.351	80.002	20.009	100.529	20.149	4.778	0.521
1255.500	680.600	80.002	20.009	100.520	20.148	4.858	0.495
1256.000	680.796	80.001	20.010	100.517	20.145	5.204	0.467
1256.501	681.115	80.002	20.009	100.524	20.148	4.902	0.479
1257.001	681.315	80.001	20.009	100.539	20.147	4.956	0.517
1257.500	681.571	80.003	20.010	100.548	20.146	5.077	0.488
1258.000	681.764	80.002	20.010	100.550	20.145	5.130	0.453
1258.501	682.053	80.002	20.009	100.548	20.148	4.883	0.466
1259.001	682.330	80.004	20.010	100.536	20.147	4.955	0.524
1259.501	682.574	80.002	20.009	100.522	20.146	5.043	0.544
1260.000	682.787	80.001	20.010	100.519	20.148	4.860	0.489
1260.500	683.043	80.002	20.009	100.519	20.149	4.801	0.463
1261.000	683.250	80.001	20.009	100.524	20.151	4.554	0.466
1261.500	683.515	80.003	20.010	100.537	20.151	4.546	0.468
1262.000	683.732	80.002	20.009	100.546	20.153	4.349	0.477
1262.500	683.973	80.002	20.009	100.546	20.149	4.728	0.469
1263.000	684.264	80.003	20.009	100.545	20.150	4.630	0.495
1263.500	684.458	80.002	20.009	100.539	20.150	4.670	0.509
1264.000	684.692	80.002	20.010	100.536	20.151	4.498	0.456
1264.501	684.917	80.003	20.010	100.540	20.151	4.597	0.443
1265.001	685.178	80.003	20.008	100.548	20.152	4.441	0.473
1265.500	685.413	80.003	20.009	100.556	20.150	4.633	0.492
1266.000	685.634	80.002	20.009	100.559	20.152	4.450	0.476
1266.500	685.884	80.003	20.010	100.556	20.149	4.758	0.463
1267.000	686.101	80.001	20.009	100.549	20.151	4.573	0.469
1267.500	686.312	80.003	20.010	100.538	20.151	4.531	0.448
1268.000	686.549	80.002	20.009	100.530	20.152	4.421	0.438
1268.500	686.822	80.003	20.009	100.531	20.155	4.168	0.479
1269.000	687.029	80.002	20.010	100.536	20.151	4.508	0.495
1269.500	687.276	80.002	20.010	100.543	20.151	4.513	0.467
1270.000	687.507	80.003	20.009	100.552	20.150	4.641	0.466
1270.500	687.756	80.002	20.009	100.556	20.154	4.218	0.479
1271.000	688.033	80.002	20.009	100.554	20.152	4.462	0.503
1271.501	688.277	80.002	20.010	100.548	20.151	4.514	0.523
1272.001	688.467	80.002	20.009	100.542	20.151	4.568	0.478
1272.501	688.764	80.002	20.009	100.535	20.150	4.638	0.461
1273.001	688.998	80.002	20.009	100.537	20.149	4.808	0.509
1273.501	689.203	80.002	20.009	100.540	20.149	4.749	0.485
1274.001	689.434	80.002	20.009	100.545	20.151	4.588	0.438
1274.501	689.717	80.003	20.009	100.547	20.149	4.804	0.475
1275.000	689.970	80.002	20.010	100.543	20.146	5.019	0.524
1275.500	690.182	80.001	20.009	100.530	20.146	5.111	0.501
1276.001	690.446	80.003	20.010	100.520	20.145	5.131	0.471
1276.501	690.688	80.003	20.009	100.514	20.146	5.102	0.491
1277.000	690.914	80.003	20.009	100.513	20.147	4.985	0.486
1277.500	691.167	80.003	20.010	100.516	20.145	5.201	0.474
1278.000	691.405	80.002	20.010	100.524	20.144	5.255	0.486
1278.500	691.629	80.003	20.010	100.532	20.144	5.279	0.477
1279.000	691.850	80.002	20.010	100.530	20.147	4.991	0.453
1279.500	692.109	80.003	20.010	100.526	20.147	4.938	0.462
1280.000	692.397	80.002	20.009	100.520	20.145	5.156	0.514
1280.500	692.678	80.002	20.010	100.515	20.146	5.099	0.558
1281.000	692.888	80.003	20.009	100.515	20.146	5.076	0.530
1281.500	693.138	80.003	20.010	100.524	20.146	5.112	0.475
1282.000	693.395	80.002	20.009	100.536	20.145	5.203	0.483
1282.500	693.647	80.002	20.009	100.552	20.146	5.085	0.508
1283.000	693.890	80.002	20.009	100.561	20.143	5.370	0.502
1283.500	694.142	80.003	20.010	100.559	20.147	5.002	0.496
1284.000	694.410	80.002	20.010	100.544	20.140	5.665	0.508
1284.500	694.680	80.004	20.010	100.528	20.141	5.589	0.529
1285.000	694.902	80.001	20.010	100.512	20.139	5.762	0.515
1285.500	695.196	80.002	20.010	100.506	20.142	5.454	0.504
1286.000	695.413	80.003	20.009	100.506	20.141	5.641	0.514
1286.500	695.658	80.002	20.010	100.513	20.141	5.601	0.486
1287.001	695.929	80.002	20.009	100.518	20.138	5.873	0.489
1287.501	696.190	80.002	20.009	100.517	20.139	5.849	0.523
1288.000	696.413	80.002	20.009	100.509	20.137	6.044	0.508
1288.500	696.678	80.003	20.009	100.498	20.141	5.621	0.487
1289.000	696.938	80.002	20.009	100.491	20.138	5.893	0.507
1289.500	697.186	80.000	20.009	100.486	20.140	5.656	0.516
1290.000	697.427	80.004	20.009	100.487	20.139	5.830	0.498
1290.500	697.710	80.002	20.008	100.495	20.138	5.868	0.507
1291.001	697.940	80.002	20.008	100.504	20.139	5.760	0.519
1291.501	698.199	80.002	20.008	100.513	20.140	5.710	0.501
1292.000	698.461	80.002	20.009	100.519	20.140	5.725	0.505
1292.500	698.725	80.003	20.008	100.518	20.141	5.581	0.523
1293.000	698.986	80.004	20.009	100.512	20.142	5.515	0.525
1293.500	699.212	80.001	20.009	100.507	20.141	5.539	0.506
1294.000	699.466	80.002	20.009	100.502	20.143	5.407	0.484
1294.500	699.747	80.003	20.009	100.508	20.144	5.253	0.507
1295.000	700.039	80.003	20.008	100.523	20.141	5.621	0.554
1295.500	700.275	80.001	20.008	100.540	20.142	5.516	0.551
1296.000	700.489	80.002	20.008	100.552	20.138	5.865	0.489
1296.500	700.745	80.003	20.008	100.558	20.142	5.446	0.460
1297.000	701.021	80.002	20.008	100.549	20.143	5.344	0.502
1297.500	701.288	80.002	20.009	100.535	20.142	5.459	0.538
1298.000	701.495	80.002	20.009	100.521	20.146	5.115	0.508
1298.500	701.746	80.003	20.009	100.516	20.141	5.549	0.466
1299.000	701.978	80.002	20.009	100.516	20.143	5.351	0.470
1299.500	702.270	80.002	20.008	100.521	20.141	5.558	0.504
1300.001	702.552	80.002	20.008	100.528	20.141	5.589	0.549
1300.501	702.764	80.002	20.009	100.531	20.143	5.331	0.534
1301.000	702.976	80.002	20.009	100.523	20.139	5.766	0.459
1301.500	703.292	80.000	20.009	100.515	20.140	5.729	0.476
1302.000	703.531	80.003	20.009	100.507	20.140	5.738	0.542
1302.500	703.791	80.002	20.009	100.506	20.139	5.830	0.527
1303.000	704.066	80.002	20.009	100.510	20.139	5.800	0.517
1303.501	704.352	80.002	20.009	100.518	20.136	6.119	0.548
1304.001	704.543	80.002	20.010	100.525	20.137	5.990	0.519
1304.500	704.904	80.002	20.009	100.531	20.139	5.828	0.514
1305.000	705.146	80.002	20.009	100.526	20.137	5.993	0.577
1305.500	705.401	80.002	20.009	100.517	20.137	6.015	0.550
1306.000	705.660	80.002	20.009	100.510	20.139	5.764	0.506
1306.501	705.937	80.002	20.009	100.502	20.138	5.913	0.524
1307.001	706.159	80.002	20.009	100.502	20.138	5.927	0.517
1307.501	706.457	80.001	20.009	100.514	20.139	5.756	0.510
1308.001	706.710	80.001	20.009	100.527	20.139	5.851	0.536
1308.501	707.032	80.003	20.009	100.535	20.138	5.893	0.563
1309.000	707.230	80.002	20.009	100.543	20.139	5.806	0.547
1309.500	707.559	80.001	20.009	100.540	20.139	5.797	0.524
1310.000	707.769	80.002	20.008	100.534	20.139	5.825	0.533
1310.500	708.029	80.002	20.009	100.526	20.140	5.730	0.505
1311.000	708.288	80.002	20.009	100.526	20.140	5.678	0.495
1311.500	708.593	80.002	20.009	100.526	20.140	5.676	0.541
1312.000	708.814	80.002	20.008	100.529	20.139	5.756	0.545
1312.500	709.129	80.003	20.008	100.531	20.141	5.641	0.531
1313.000	709.413	80.002	20.009	100.531	20.138	5.900	0.567
1313.500	709.637	80.002	20.009	100.525	20.139	5.834	0.553
1314.001	709.907	80.001	20.009	100.520	20.141	5.538	0.501
1314.501	710.179	80.003	20.009	100.517	20.140	5.666	0.518
1315.001	710.491	80.001	20.008	100.517	20.139	5.757	0.563
1315.501	710.751	80.002	20.009	100.519	20.140	5.733	0.578
1316.000	711.009	80.003	20.008	100.526	20.140	5.709	0.545
1316.500	711.172	80.002	20.010	100.531	20.141	5.562	0.469
1317.000	711.585	80.002	20.009	100.534	20.140	5.709	0.498
1317.500	711.776	80.002	20.008	100.527	20.142	5.517	0.591
1318.000	712.038	80.002	20.009	100.519	20.140	5.715	0.529
1318.500	712.287	80.002	20.009	100.511	20.142	5.517	0.482
1319.001	712.537	80.003	20.009	100.510	20.140	5.649	0.505
1319.501	712.796	80.001	20.009	100.512	20.139	5.762	0.504
1320.001	713.064	80.003	20.008	100.524	20.141	5.569	0.518
1320.500	713.364	80.002	20.009	100.532	20.142	5.443	0.547
1321.000	713.593	80.003	20.008	100.540	20.141	5.561	0.549
1321.500	713.850	80.002	20.009	100.535	20.142	5.468	0.508
1322.000	714.127	80.001	20.010	100.526	20.143	5.369	0.510
1322.500	714.409	80.003	20.009	100.512	20.142	5.510	0.546
1323.000	714.676	80.003	20.009	100.504	20.142	5.433	0.554
1323.500	714.935	80.003	20.009	100.503	20.144	5.325	0.537
1324.000	715.218	80.002	20.009	100.508	20.142	5.498	0.534
1324.500	715.452	80.002	20.009	100.516	20.143	5.352	0.530
1325.000	715.713	80.002	20.009	100.523	20.140	5.643	0.506
1325.500	716.005	80.003	20.009	100.523	20.144	5.231	0.524
1326.000	716.276	80.003	20.009	100.516	20.146	5.098	0.558
1326.500	716.524	80.002	20.009	100.507	20.142	5.501	0.541
1327.000	716.792	80.003	20.009	100.499	20.140	5.669	0.517
1327.500	717.090	80.002	20.009	100.499	20.139	5.753	0.541
1328.000	717.284	80.002	20.008	100.505	20.140	5.710	0.529
1328.500	717.623	80.002	20.009	100.514	20.140	5.691	0.512
1329.000	717.832	80.002	20.009	100.523	20.142	5.526	0.540
1329.500	718.059	80.003	20.009	100.523	20.140	5.737	0.492
1330.000	718.418	80.001	20.009	100.516	20.144	5.325	0.511
1330.500	718.616	80.002	20.009	100.509	20.142	5.525	0.572
1331.000	718.886	80.002	20.009	100.507	20.142	5.509	0.512
1331.500	719.145	80.003	20.008	100.507	20.145	5.190	0.498
1332.000	719.397	80.002	20.008	100.513	20.145	5.205	0.520
1332.500	719.720	80.002	20.008	100.521	20.145	5.203	0.543
1333.000	719.910	80.002	20.008	100.527	20.141	5.568	0.544
1333.500	720.208	80.002	20.009	100.523	20.144	5.299	0.500
1334.000	720.439	80.002	20.009	100.514	20.142	5.514	0.508
1334.500	720.699	80.003	20.008	100.507	20.142	5.525	0.510
1335.000	720.914	80.002	20.009	100.499	20.144	5.277	0.483
1335.500	721.181	80.001	20.009	100.493	20.140	5.669	0.478
1336.000	721.463	80.003	20.008	100.499	20.142	5.533	0.515
1336.500	721.688	80.002	20.009	100.507	20.144	5.291	0.528
1337.000	721.994	80.002	20.010	100.515	20.145	5.131	0.519
1337.500	722.182	80.004	20.010	100.516	20.143	5.390	0.512
1338.000	722.490	80.001	20.009	100.514	20.142	5.467	0.495
1338.500	722.733	80.003	20.010	100.506	20.144	5.232	0.523
1339.001	722.965	80.002	20.010	100.498	20.146	5.027	0.513
1339.501	723.231	80.004	20.010	100.496	20.142	5.514	0.486
1340.000	723.525	80.001	20.009	100.505	20.144	5.325	0.528
1340.500	723.761	80.002	20.009	100.523	20.145	5.151	0.545
1341.000	723.975	80.003	20.009	100.539	20.143	5.398	0.490
1341.500	724.326	80.002	20.010	100.547	20.146	5.052	0.508
1342.001	724.549	80.003	20.010	100.547	20.145	5.210	0.570
1342.501	724.804	80.002	20.010	100.541	20.146	5.047	0.525
1343.000	725.024	80.004	20.010	100.533	20.145	5.225	0.476
1343.500	725.304	80.002	20.010	100.526	20.142	5.448	0.488
1344.000	725.545	80.002	20.009	100.526	20.143	5.393	0.511
1344.500	725.813	80.002	20.009	100.529	20.143	5.362	0.515
1345.001	726.090	80.003	20.009	100.529	20.142	5.439	0.527
1345.501	726.316	80.002	20.010	100.523	20.141	5.601	0.524
1346.001	726.622	80.003	20.010	100.515	20.144	5.281	0.518
1346.501	726.832	80.001	20.010	100.506	20.146	5.094	0.524
1347.000	727.155	80.003	20.010	100.498	20.143	5.398	0.525
1347.500	727.395	80.001	20.009	100.495	20.143	5.387	0.548
1348.000	727.627	80.003	20.009	100.502	20.145	5.223	0.517
1348.500	727.898	80.002	20.009	100.510	20.146	5.086	0.488
1349.000	728.145	80.002	20.009	100.519	20.146	5.065	0.511
1349.500	728.441	80.002	20.009	100.526	20.146	5.073	0.531
1350.000	728.635	80.001	20.010	100.530	20.145	5.145	0.516
1350.500	728.846	80.002	20.010	100.528	20.148	4.910	0.447
1351.001	729.163	80.002	20.010	100.527	20.148	4.857	0.466
1351.501	729.409	80.002	20.009	100.526	20.148	4.842	0.546
1352.000	729.616	80.002	20.010	100.527	20.146	5.075	0.508
1352.500	729.922	80.002	20.010	100.537	20.146	5.034	0.483
1353.000	730.214	80.002	20.009	100.546	20.147	4.957	0.556
1353.501	730.431	80.002	20.009	100.548	20.147	5.014	0.554
1354.001	730.709	80.002	20.010	100.548	20.145	5.140	0.502
1354.500	730.959	80.004	20.010	100.548	20.148	4.902	0.511
1355.000	731.189	80.001	20.010	100.540	20.149	4.763	0.504
1355.500	731.426	80.002	20.009	100.531	20.149	4.710	0.473
1356.000	731.645	80.002	20.009	100.530	20.148	4.834	0.462
1356.500	731.883	80.003	20.009	100.530	20.148	4.819	0.457
1357.000	732.186	80.001	20.009	100.531	20.150	4.667	0.499
1357.500	732.457	80.003	20.009	100.530	20.147	4.979	0.557
1358.000	732.714	80.002	20.009	100.523	20.148	4.829	0.551
1358.500	732.956	80.001	20.010	100.516	20.148	4.910	0.514
1359.000	733.184	80.002	20.010	100.507	20.147	4.965	0.484
1359.500	733.437	80.002	20.010	100.499	20.147	5.000	0.475
1360.000	733.663	80.003	20.009	100.499	20.145	5.192	0.480
1360.500	733.942	80.003	20.009	100.510	20.148	4.865	0.492
1361.000	734.142	80.002	20.009	100.518	20.145	5.161	0.492
1361.500	734.448	80.002	20.009	100.527	20.146	5.079	0.492
1362.000	734.683	80.002	20.010	100.530	20.147	4.982	0.523
1362.500	734.936	80.002	20.009	100.524	20.145	5.204	0.515
1363.000	735.175	80.001	20.009	100.518	20.145	5.215	0.490
1363.500	735.466	80.003	20.009	100.516	20.147	4.997	0.511
1364.001	735.749	80.001	20.009	100.516	20.146	5.103	0.552
1364.501	735.978	80.001	20.009	100.520	20.148	4.909	0.543
1365.001	736.207	80.002	20.009	100.529	20.143	5.343	0.485
1365.501	736.454	80.002	20.009	100.535	20.149	4.773	0.467
1366.000	736.687	80.002	20.009	100.537	20.148	4.858	0.478
1366.500	736.947	80.003	20.010	100.536	20.147	5.005	0.487
1367.000	737.259	80.003	20.010	100.535	20.148	4.853	0.533
1367.500	737.490	80.000	20.009	100.533	20.151	4.514	0.557
1368.000	737.676	80.003	20.009	100.532	20.151	4.569	0.480
1368.500	737.977	80.001	20.009	100.532	20.149	4.774	0.452
1369.001	738.186	80.002	20.009	100.541	20.152	4.469	0.499
1369.501	738.472	80.001	20.008	100.546	20.151	4.577	0.503
1370.001	738.701	80.001	20.009	100.548	20.148	4.907	0.505
1370.501	738.950	80.001	20.009	100.542	20.146	5.092	0.496
1371.000	739.223	80.002	20.010	100.533	20.146	5.072	0.500
1371.500	739.543	80.002	20.009	100.520	20.145	5.124	0.558
1372.000	739.769	80.002	20.010	100.515	20.147	5.012	0.569
1372.500	739.979	80.003	20.010	100.519	20.148	4.888	0.491
1373.000	740.242	80.002	20.009	100.531	20.145	5.122	0.455
1373.500	740.445	80.001	20.009	100.546	20.145	5.126	0.469
1374.000	740.736	80.002	20.009	100.555	20.147	4.941	0.480
1374.500	740.919	80.001	20.009	100.555	20.148	4.854	0.484
1375.000	741.177	80.001	20.010	100.550	20.149	4.799	0.457
1375.500	741.381	80.002	20.009	100.543	20.146	5.054	0.451
1376.000	741.667	80.002	20.009	100.536	20.147	4.975	0.476
1376.500	741.957	80.002	20.009	100.536	20.143	5.420	0.533
1377.000	742.125	80.002	20.009	100.544	20.144	5.227	0.517
1377.500	742.413	80.002	20.009	100.551	20.147	4.956	0.457
1378.000	742.676	80.002	20.009	100.554	20.148	4.896	0.503
1378.500	742.867	80.003	20.010	100.553	20.148	4.887	0.503
1379.000	743.101	80.002	20.009	100.546	20.145	5.164	0.440
1379.500	743.356	80.003	20.010	100.532	20.149	4.710	0.457
1380.000	743.567	80.001	20.009	100.521	20.146	5.081	0.477
1380.500	743.901	80.001	20.010	100.518	20.145	5.202	0.505
1381.000	744.108	80.002	20.009	100.521	20.144	5.326	0.543
