Sample Weight (mg):	1.96
Heating Rate (C/s):	0.5
Combustor Temp (C):	900
N2 Flow Rate (cc/min):	80
O2 Flow Rate (cc/min):	20
Time (s)	Temperature (C)	N2 flow rate (cc/min)	O2 flow rate (cc/min)	Flow Rate (cc/min)	Oxygen (%)	HRR (W/g)	Heating rate (C/s)
0.000	86.968	80.001	20.008	100.189	20.111	-0.081	-0.024
0.500	86.907	80.001	20.008	100.220	20.109	0.091	-0.045
1.000	86.955	80.003	20.009	100.240	20.107	0.556	-0.038
1.500	86.954	80.002	20.009	100.270	20.105	0.725	0.017
2.000	86.972	80.001	20.009	100.286	20.108	0.374	0.032
2.500	86.961	79.999	20.009	100.245	20.109	0.159	0.012
3.000	86.952	80.001	20.009	100.199	20.109	0.206	-0.007
3.500	86.964	80.000	20.009	100.167	20.110	0.034	-0.009
4.000	86.941	80.000	20.009	100.154	20.112	-0.341	-0.004
4.501	86.927	80.001	20.009	100.155	20.110	0.051	-0.024
5.001	86.940	80.000	20.009	100.170	20.113	-0.455	-0.019
5.501	86.926	80.001	20.009	100.186	20.112	-0.287	-0.001
6.000	86.938	80.001	20.009	100.202	20.111	-0.189	-0.001
6.500	86.932	80.000	20.009	100.206	20.112	-0.300	0.002
7.000	86.952	80.001	20.009	100.210	20.110	0.027	0.009
7.500	86.930	80.000	20.009	100.211	20.112	-0.270	0.006
8.000	86.939	80.000	20.009	100.216	20.112	-0.334	-0.007
8.500	86.939	80.002	20.008	100.225	20.112	-0.260	-0.002
9.000	86.950	80.001	20.009	100.239	20.112	-0.307	0.010
9.500	86.907	80.000	20.009	100.243	20.110	0.013	-0.010
10.000	86.941	80.001	20.009	100.242	20.113	-0.432	-0.021
10.500	86.943	79.999	20.009	100.238	20.113	-0.530	0.013
11.000	86.961	80.001	20.009	100.231	20.113	-0.455	0.028
11.501	86.939	80.000	20.009	100.227	20.112	-0.256	0.008
12.001	86.946	80.001	20.009	100.235	20.112	-0.310	-0.009
12.500	86.983	80.000	20.009	100.243	20.113	-0.530	0.014
13.000	86.983	79.999	20.009	100.249	20.110	0.047	0.040
13.501	86.968	80.001	20.009	100.249	20.111	-0.202	0.011
14.001	86.995	80.001	20.009	100.250	20.107	0.506	-0.001
14.500	86.935	80.000	20.009	100.250	20.107	0.560	-0.011
15.001	87.017	80.000	20.008	100.255	20.108	0.401	-0.006
15.501	86.966	80.001	20.009	100.264	20.106	0.614	0.027
16.001	87.073	80.001	20.009	100.277	20.105	0.742	0.044
16.501	87.049	79.999	20.009	100.282	20.108	0.347	0.070
17.001	87.045	80.000	20.009	100.282	20.104	0.897	0.027
17.501	87.074	80.001	20.009	100.279	20.103	1.194	-0.001
18.000	87.084	80.000	20.009	100.277	20.103	1.096	0.032
18.500	87.117	80.001	20.008	100.279	20.104	1.025	0.041
19.000	87.147	80.000	20.009	100.285	20.099	1.730	0.053
19.500	87.250	80.000	20.009	100.288	20.103	1.123	0.098
20.000	87.194	80.001	20.009	100.288	20.100	1.642	0.090
20.500	87.193	80.001	20.009	100.282	20.102	1.295	-0.005
21.000	87.268	80.001	20.009	100.279	20.102	1.288	0.008
21.500	87.287	80.000	20.009	100.279	20.099	1.683	0.083
22.001	87.258	80.000	20.009	100.284	20.100	1.555	0.042
22.501	87.332	80.000	20.008	100.291	20.099	1.720	0.018
23.000	87.321	80.000	20.009	100.299	20.098	1.862	0.054
23.500	87.302	80.000	20.009	100.299	20.102	1.340	0.016
24.000	87.387	80.001	20.009	100.291	20.098	1.947	0.018
24.500	87.421	80.001	20.009	100.282	20.098	1.968	0.092
25.001	87.456	80.001	20.009	100.273	20.095	2.336	0.095
25.501	87.491	80.001	20.008	100.265	20.095	2.451	0.070
26.000	87.530	79.999	20.009	100.259	20.096	2.251	0.072
26.501	87.595	80.001	20.008	100.258	20.094	2.572	0.089
27.001	87.605	80.000	20.008	100.251	20.094	2.512	0.089
27.500	87.678	79.999	20.009	100.244	20.094	2.617	0.079
28.000	87.678	80.002	20.009	100.239	20.097	2.084	0.078
28.500	87.692	80.001	20.009	100.239	20.091	3.034	0.043
29.000	87.771	80.001	20.009	100.240	20.095	2.480	0.053
29.500	87.746	79.999	20.009	100.248	20.094	2.564	0.074
30.000	87.859	80.002	20.008	100.255	20.094	2.577	0.071
30.500	87.849	80.001	20.008	100.259	20.092	2.868	0.096
31.000	87.858	79.999	20.009	100.259	20.091	3.027	0.052
31.500	87.959	80.001	20.009	100.259	20.090	3.253	0.054
32.000	87.986	80.000	20.008	100.259	20.093	2.744	0.119
32.500	88.048	80.000	20.009	100.258	20.087	3.619	0.108
33.000	88.091	80.000	20.008	100.259	20.088	3.585	0.097
33.500	88.091	80.002	20.009	100.260	20.089	3.440	0.074
34.000	88.194	79.999	20.008	100.260	20.090	3.217	0.073
34.501	88.216	80.001	20.009	100.260	20.089	3.366	0.114
35.001	88.232	80.001	20.010	100.266	20.088	3.475	0.082
35.500	88.316	80.000	20.009	100.275	20.087	3.732	0.069
36.000	88.342	80.001	20.009	100.290	20.087	3.755	0.104
36.500	88.425	80.000	20.009	100.310	20.086	3.901	0.110
37.000	88.486	80.000	20.008	100.329	20.087	3.647	0.127
37.500	88.494	80.001	20.009	100.339	20.084	4.154	0.106
38.000	88.590	80.001	20.009	100.346	20.082	4.556	0.087
38.500	88.657	79.999	20.010	100.346	20.081	4.664	0.134
39.000	88.670	80.002	20.009	100.346	20.079	4.901	0.121
39.500	88.361	80.000	20.010	100.354	20.081	4.641	-0.108
40.000	88.924	80.001	20.009	100.375	20.078	5.168	-0.021
40.500	88.838	80.001	20.010	100.399	20.076	5.407	0.366
41.000	88.942	80.000	20.008	100.419	20.077	5.295	0.247
41.500	88.967	80.001	20.009	100.431	20.073	5.843	0.073
42.001	89.120	80.000	20.009	100.428	20.072	6.053	0.153
42.501	89.154	80.001	20.009	100.417	20.069	6.550	0.183
43.000	89.192	80.000	20.009	100.407	20.068	6.750	0.130
43.501	89.295	80.001	20.009	100.406	20.068	6.750	0.107
44.001	89.374	79.999	20.008	100.415	20.068	6.736	0.162
44.500	89.455	80.001	20.009	100.429	20.064	7.373	0.171
45.000	89.591	80.000	20.009	100.443	20.064	7.362	0.188
45.500	89.675	80.001	20.009	100.452	20.064	7.301	0.219
46.000	89.722	80.001	20.009	100.457	20.061	7.760	0.176
46.500	89.818	80.001	20.009	100.456	20.062	7.747	0.137
47.000	89.877	80.001	20.009	100.461	20.061	7.916	0.149
47.500	90.010	80.001	20.009	100.469	20.062	7.758	0.173
48.000	90.116	80.001	20.009	100.477	20.059	8.173	0.215
48.500	90.197	80.000	20.008	100.484	20.057	8.476	0.213
49.000	90.297	80.001	20.009	100.485	20.058	8.266	0.184
49.500	90.425	79.999	20.009	100.480	20.057	8.428	0.205
50.000	90.520	80.000	20.009	100.472	20.056	8.665	0.226
50.500	90.636	80.002	20.009	100.467	20.057	8.466	0.217
51.000	90.782	80.001	20.009	100.465	20.056	8.579	0.236
51.500	90.875	80.001	20.009	100.470	20.054	9.039	0.250
52.000	91.007	80.001	20.010	100.476	20.058	8.383	0.232
52.500	91.144	80.001	20.009	100.477	20.055	8.825	0.247
53.000	91.230	80.000	20.009	100.473	20.057	8.484	0.246
53.501	91.346	80.001	20.009	100.467	20.059	8.190	0.212
54.001	91.505	80.001	20.009	100.460	20.055	8.788	0.239
54.500	91.599	80.001	20.009	100.455	20.056	8.562	0.264
55.000	91.732	80.002	20.009	100.461	20.057	8.549	0.240
55.500	91.890	80.000	20.009	100.470	20.057	8.438	0.259
56.000	92.018	80.001	20.009	100.477	20.057	8.441	0.288
56.501	92.151	80.001	20.009	100.477	20.055	8.771	0.273
57.001	92.292	80.001	20.009	100.468	20.059	8.177	0.267
57.500	92.437	80.001	20.009	100.453	20.058	8.318	0.280
58.000	92.570	80.001	20.009	100.438	20.058	8.278	0.282
58.500	92.680	80.001	20.009	100.429	20.059	8.110	0.260
59.001	92.813	80.001	20.009	100.431	20.058	8.398	0.243
59.501	92.959	80.000	20.008	100.438	20.057	8.532	0.262
60.000	93.150	80.001	20.009	100.443	20.057	8.440	0.308
60.501	93.257	80.000	20.009	100.442	20.060	7.967	0.317
61.001	93.436	80.002	20.009	100.439	20.058	8.265	0.292
61.500	93.573	80.001	20.009	100.425	20.058	8.298	0.301
62.000	93.702	80.000	20.009	100.415	20.059	8.221	0.291
62.500	93.820	80.001	20.009	100.415	20.060	8.060	0.256
63.000	93.984	80.000	20.009	100.422	20.056	8.624	0.264
63.500	94.157	80.001	20.009	100.430	20.058	8.309	0.310
64.000	94.294	80.000	20.009	100.445	20.058	8.323	0.323
64.501	94.427	80.002	20.009	100.450	20.056	8.620	0.290
65.001	94.593	80.001	20.009	100.446	20.058	8.333	0.285
65.501	94.755	80.001	20.009	100.439	20.057	8.409	0.314
66.001	94.886	80.000	20.009	100.435	20.056	8.575	0.311
66.500	95.077	80.000	20.009	100.435	20.054	8.937	0.307
67.000	95.231	80.000	20.009	100.439	20.058	8.301	0.333
67.500	95.349	80.000	20.009	100.447	20.057	8.415	0.309
68.000	95.559	80.001	20.009	100.454	20.056	8.648	0.300
68.500	95.679	80.001	20.009	100.453	20.056	8.706	0.329
69.000	95.851	80.001	20.009	100.447	20.054	8.980	0.311
69.500	96.067	80.001	20.009	100.442	20.054	8.903	0.340
70.000	96.183	80.000	20.009	100.441	20.054	8.943	0.360
70.500	96.390	80.001	20.009	100.442	20.058	8.358	0.327
71.000	96.515	80.001	20.009	100.447	20.055	8.766	0.328
71.500	96.697	80.000	20.009	100.452	20.053	9.050	0.319
72.000	96.897	80.002	20.009	100.457	20.053	9.063	0.344
72.500	97.045	80.001	20.010	100.453	20.053	9.154	0.365
73.000	97.268	80.001	20.009	100.446	20.053	9.128	0.359
73.500	97.476	80.001	20.009	100.445	20.052	9.267	0.401
74.000	97.638	80.000	20.009	100.445	20.053	9.047	0.401
74.500	97.851	80.002	20.009	100.445	20.054	9.030	0.373
75.000	98.012	80.000	20.009	100.450	20.053	9.061	0.374
75.500	98.187	80.002	20.009	100.458	20.054	8.932	0.355
76.000	98.352	80.000	20.009	100.456	20.052	9.345	0.338
76.500	98.570	80.002	20.009	100.450	20.052	9.224	0.362
77.000	98.731	80.000	20.010	100.450	20.049	9.694	0.381
77.500	98.928	80.001	20.009	100.452	20.051	9.440	0.368
78.000	99.165	79.999	20.009	100.458	20.050	9.615	0.396
78.500	99.352	80.001	20.009	100.470	20.050	9.523	0.429
79.000	99.531	80.001	20.009	100.480	20.052	9.243	0.395
79.500	99.711	80.000	20.009	100.481	20.052	9.234	0.362
80.000	99.942	80.001	20.009	100.477	20.049	9.721	0.385
80.500	100.120	80.001	20.009	100.470	20.052	9.218	0.410
81.000	100.341	80.001	20.009	100.466	20.050	9.549	0.404
81.500	100.526	80.002	20.008	100.469	20.049	9.839	0.402
82.000	100.730	80.001	20.009	100.475	20.049	9.754	0.397
82.500	100.955	80.001	20.009	100.477	20.054	9.023	0.409
83.001	101.156	80.000	20.009	100.477	20.052	9.281	0.428
83.501	101.358	80.002	20.009	100.470	20.053	9.163	0.415
84.000	101.546	80.001	20.009	100.462	20.054	9.039	0.397
84.500	101.757	80.001	20.009	100.456	20.053	9.160	0.395
85.000	101.966	80.000	20.009	100.455	20.055	8.852	0.410
85.501	102.167	80.000	20.009	100.457	20.053	9.078	0.415
86.001	102.431	80.001	20.009	100.464	20.049	9.720	0.437
86.500	102.653	80.002	20.009	100.465	20.052	9.335	0.475
87.000	102.859	80.000	20.010	100.465	20.054	8.994	0.457
87.500	103.073	80.001	20.009	100.466	20.049	9.738	0.424
88.001	103.278	80.000	20.009	100.465	20.051	9.398	0.419
88.501	103.432	80.000	20.009	100.467	20.050	9.573	0.389
89.000	103.729	80.001	20.008	100.473	20.051	9.468	0.405
89.500	103.964	80.000	20.009	100.477	20.052	9.244	0.492
90.000	104.185	80.001	20.009	100.475	20.049	9.684	0.494
90.500	104.409	80.000	20.009	100.473	20.049	9.761	0.450
91.000	104.621	80.000	20.009	100.467	20.050	9.603	0.440
91.500	104.836	80.001	20.009	100.462	20.050	9.523	0.431
92.000	105.079	79.999	20.009	100.466	20.048	9.972	0.442
92.500	105.311	80.001	20.008	100.475	20.050	9.650	0.467
93.001	105.537	80.002	20.009	100.484	20.051	9.447	0.467
93.501	105.753	80.000	20.008	100.486	20.051	9.467	0.450
94.000	105.935	80.001	20.009	100.483	20.051	9.498	0.420
94.500	106.236	80.000	20.009	100.476	20.049	9.793	0.441
95.000	106.406	80.001	20.008	100.467	20.050	9.564	0.477
95.500	106.650	80.000	20.008	100.464	20.049	9.790	0.442
96.001	106.917	80.001	20.008	100.469	20.051	9.388	0.463
96.501	107.151	80.001	20.009	100.476	20.051	9.441	0.506
97.000	107.402	80.000	20.009	100.484	20.050	9.643	0.493
97.500	107.590	80.001	20.009	100.486	20.049	9.711	0.462
98.000	107.824	80.001	20.009	100.482	20.049	9.833	0.431
98.500	108.110	80.000	20.009	100.475	20.051	9.472	0.471
99.000	108.373	80.001	20.009	100.471	20.048	9.895	0.534
99.500	108.590	80.001	20.008	100.472	20.047	10.074	0.514
100.000	108.861	80.000	20.009	100.477	20.050	9.603	0.484
100.500	109.074	80.001	20.008	100.485	20.049	9.704	0.486
101.001	109.373	80.001	20.009	100.493	20.049	9.738	0.498
101.501	109.609	80.001	20.009	100.489	20.049	9.704	0.524
102.000	109.841	80.002	20.009	100.481	20.051	9.495	0.501
102.500	110.105	80.000	20.009	100.479	20.051	9.367	0.482
103.000	110.347	80.000	20.008	100.478	20.052	9.235	0.501
103.500	110.601	80.001	20.009	100.479	20.051	9.444	0.501
104.000	110.880	80.000	20.009	100.485	20.050	9.575	0.515
104.500	111.089	80.001	20.009	100.491	20.051	9.443	0.511
105.000	111.375	80.001	20.009	100.486	20.051	9.453	0.492
105.504	111.622	80.002	20.009	100.478	20.050	9.552	0.514
106.010	111.896	80.000	20.009	100.473	20.051	9.471	0.526
106.512	112.129	80.001	20.009	100.474	20.051	9.455	0.514
107.007	112.372	79.999	20.008	100.480	20.052	9.316	0.492
107.503	112.588	80.001	20.009	100.489	20.052	9.265	0.468
108.007	112.873	80.001	20.009	100.496	20.050	9.548	0.480
108.509	113.153	80.001	20.009	100.499	20.050	9.521	0.533
109.008	113.421	80.000	20.009	100.493	20.052	9.328	0.556
109.508	113.712	80.001	20.009	100.482	20.051	9.457	0.553
110.008	113.977	80.000	20.009	100.477	20.050	9.549	0.557
110.507	114.241	80.001	20.009	100.478	20.051	9.485	0.542
111.005	114.479	80.000	20.009	100.484	20.049	9.693	0.516
111.505	114.763	80.000	20.008	100.493	20.050	9.578	0.512
112.006	115.085	80.000	20.009	100.498	20.051	9.374	0.564
112.509	115.354	80.002	20.009	100.495	20.052	9.334	0.598
113.012	115.626	80.000	20.009	100.486	20.050	9.642	0.566
113.509	115.870	80.001	20.009	100.480	20.050	9.575	0.529
114.005	116.092	80.001	20.009	100.477	20.050	9.589	0.491
114.507	116.405	80.000	20.009	100.480	20.050	9.632	0.500
115.010	116.645	80.001	20.008	100.487	20.048	9.858	0.544
115.505	116.971	79.999	20.009	100.493	20.050	9.654	0.559
116.001	117.226	80.001	20.009	100.488	20.051	9.454	0.573
116.502	117.487	80.000	20.009	100.480	20.050	9.643	0.549
117.004	117.798	80.000	20.009	100.473	20.050	9.549	0.544
117.508	118.075	80.002	20.009	100.470	20.050	9.661	0.580
118.007	118.335	80.000	20.008	100.470	20.050	9.604	0.562
118.503	118.626	80.001	20.009	100.478	20.052	9.246	0.544
119.002	118.851	80.000	20.009	100.486	20.047	10.010	0.534
119.501	119.169	80.001	20.009	100.490	20.052	9.246	0.529
120.001	119.452	80.001	20.009	100.485	20.051	9.483	0.572
120.501	119.709	80.001	20.009	100.479	20.050	9.595	0.571
121.004	119.963	80.002	20.009	100.471	20.050	9.535	0.526
121.505	120.280	80.000	20.009	100.470	20.050	9.596	0.541
122.004	120.585	79.999	20.009	100.473	20.051	9.465	0.596
122.502	120.855	80.001	20.009	100.480	20.052	9.319	0.598
123.003	121.133	80.000	20.009	100.482	20.052	9.335	0.562
123.506	121.436	80.001	20.009	100.483	20.054	8.946	0.565
124.007	121.704	80.001	20.009	100.475	20.055	8.791	0.576
124.508	121.959	80.001	20.009	100.467	20.054	9.035	0.547
125.010	122.249	80.000	20.009	100.459	20.052	9.349	0.534
125.511	122.546	80.000	20.008	100.461	20.054	8.960	0.566
126.013	122.848	80.001	20.008	100.469	20.054	8.942	0.593
126.508	123.119	80.001	20.009	100.474	20.055	8.795	0.586
127.008	123.414	80.001	20.009	100.475	20.056	8.622	0.569
127.507	123.697	79.999	20.009	100.471	20.054	8.885	0.572
128.001	124.023	80.000	20.010	100.460	20.057	8.527	0.593
128.504	124.272	80.001	20.009	100.451	20.054	8.956	0.593
129.006	124.546	80.002	20.009	100.447	20.054	8.926	0.549
129.506	124.834	80.000	20.009	100.446	20.057	8.432	0.542
130.005	125.135	80.002	20.009	100.451	20.058	8.262	0.575
130.507	125.420	80.000	20.009	100.458	20.057	8.525	0.588
131.010	125.674	80.000	20.009	100.459	20.058	8.322	0.562
131.511	125.980	80.001	20.009	100.459	20.059	8.130	0.549
132.009	126.219	80.000	20.009	100.458	20.060	7.966	0.553
132.505	126.544	80.001	20.009	100.459	20.059	8.190	0.554
133.005	126.873	80.001	20.008	100.465	20.058	8.294	0.608
133.505	127.174	80.001	20.009	100.473	20.059	8.091	0.642
134.006	127.430	80.000	20.009	100.482	20.058	8.266	0.594
134.509	127.729	80.000	20.009	100.486	20.061	7.776	0.556
135.012	128.014	80.002	20.009	100.485	20.062	7.620	0.569
135.513	128.282	80.000	20.009	100.478	20.062	7.604	0.568
136.007	128.609	80.001	20.009	100.475	20.063	7.580	0.574
136.502	128.853	80.001	20.009	100.472	20.061	7.769	0.583
137.006	129.190	80.000	20.009	100.474	20.062	7.711	0.576
137.510	129.458	80.000	20.009	100.480	20.060	7.947	0.593
138.011	129.794	80.001	20.009	100.481	20.062	7.707	0.605
138.511	130.065	80.002	20.009	100.474	20.059	8.194	0.606
139.007	130.334	80.001	20.009	100.461	20.061	7.844	0.573
139.508	130.657	80.001	20.009	100.448	20.061	7.827	0.566
140.007	130.973	80.000	20.009	100.434	20.060	7.932	0.616
140.505	131.242	80.001	20.009	100.428	20.061	7.901	0.612
141.008	131.564	80.001	20.009	100.429	20.059	8.086	0.588
141.509	131.847	80.002	20.009	100.433	20.061	7.839	0.598
142.010	132.114	80.002	20.009	100.431	20.059	8.218	0.577
142.511	132.415	80.001	20.009	100.423	20.061	7.901	0.559
143.013	132.743	80.000	20.009	100.413	20.061	7.793	0.598
143.514	132.955	80.003	20.010	100.401	20.061	7.840	0.584
144.007	133.318	80.001	20.009	100.398	20.061	7.873	0.558
144.502	133.633	80.000	20.010	100.408	20.063	7.505	0.626
145.003	133.970	80.000	20.009	100.422	20.064	7.419	0.665
145.505	134.239	80.000	20.010	100.435	20.063	7.477	0.630
146.007	134.476	80.001	20.009	100.438	20.066	6.988	0.556
146.507	134.830	80.002	20.009	100.433	20.065	7.137	0.548
147.008	135.123	80.000	20.009	100.424	20.065	7.154	0.619
147.508	135.344	80.001	20.009	100.417	20.065	7.229	0.580
148.009	135.736	80.001	20.009	100.415	20.064	7.299	0.563
148.510	135.939	80.002	20.009	100.417	20.066	7.042	0.604
149.011	136.242	80.000	20.010	100.418	20.067	6.931	0.551
149.512	136.524	80.002	20.009	100.411	20.064	7.435	0.546
150.014	136.859	80.000	20.009	100.404	20.063	7.534	0.601
150.514	137.168	80.001	20.009	100.400	20.064	7.359	0.630
151.009	137.431	80.000	20.009	100.401	20.064	7.437	0.608
151.503	137.783	80.000	20.009	100.410	20.063	7.551	0.594
152.003	138.062	80.001	20.009	100.418	20.066	7.077	0.623
152.502	138.353	80.001	20.009	100.424	20.064	7.326	0.600
153.002	138.636	80.000	20.009	100.423	20.063	7.566	0.572
153.501	138.917	80.001	20.009	100.417	20.064	7.414	0.569
154.001	139.228	80.001	20.009	100.408	20.063	7.576	0.578
154.502	139.487	80.000	20.009	100.407	20.063	7.532	0.581
155.002	139.826	80.001	20.009	100.408	20.064	7.406	0.584
155.501	140.171	80.001	20.008	100.415	20.063	7.455	0.641
156.000	140.405	80.000	20.009	100.420	20.064	7.300	0.632
156.500	140.697	80.001	20.009	100.420	20.064	7.324	0.553
157.000	141.005	80.001	20.010	100.411	20.064	7.402	0.563
157.500	141.305	80.001	20.009	100.403	20.063	7.484	0.604
158.000	141.604	80.000	20.009	100.393	20.063	7.474	0.603
158.500	141.923	80.002	20.009	100.392	20.062	7.629	0.608
159.000	142.170	80.001	20.009	100.400	20.063	7.510	0.592
159.500	142.481	80.000	20.009	100.412	20.064	7.330	0.562
160.000	142.707	80.001	20.009	100.418	20.063	7.475	0.548
160.500	143.061	80.000	20.009	100.417	20.064	7.323	0.558
161.001	143.392	80.002	20.009	100.410	20.065	7.192	0.632
161.500	143.670	80.000	20.009	100.401	20.068	6.754	0.647
162.000	143.996	80.001	20.010	100.406	20.065	7.149	0.606
162.500	144.336	80.003	20.009	100.416	20.068	6.751	0.635
163.000	144.600	80.000	20.009	100.431	20.066	6.977	0.635
163.500	144.898	80.001	20.009	100.441	20.067	6.875	0.583
164.000	145.210	80.001	20.009	100.443	20.067	6.862	0.586
164.501	145.476	80.000	20.009	100.434	20.067	6.873	0.594
165.000	145.813	80.001	20.009	100.419	20.068	6.756	0.591
165.500	146.010	80.001	20.009	100.412	20.069	6.624	0.568
166.000	146.325	80.001	20.009	100.408	20.067	6.823	0.523
166.500	146.640	80.001	20.009	100.408	20.066	7.058	0.571
167.000	146.904	80.001	20.009	100.406	20.068	6.753	0.605
167.500	147.214	80.000	20.009	100.405	20.069	6.607	0.577
168.000	147.480	80.001	20.009	100.390	20.067	6.907	0.575
168.500	147.835	80.001	20.010	100.377	20.070	6.442	0.598
169.000	148.092	80.001	20.009	100.369	20.067	6.797	0.616
169.500	148.388	80.000	20.009	100.373	20.066	7.087	0.582
170.000	148.632	80.000	20.009	100.381	20.067	6.922	0.547
170.500	148.970	80.001	20.008	100.397	20.065	7.171	0.561
171.000	149.258	80.001	20.009	100.403	20.069	6.620	0.604
171.500	149.554	80.000	20.009	100.397	20.067	6.914	0.605
172.000	149.836	80.002	20.010	100.382	20.070	6.472	0.581
172.500	150.145	80.002	20.009	100.372	20.067	6.810	0.585
173.000	150.432	80.002	20.009	100.365	20.067	6.860	0.593
173.500	150.707	80.001	20.009	100.369	20.069	6.513	0.579
174.000	151.024	80.001	20.009	100.382	20.071	6.313	0.577
174.500	151.300	80.000	20.009	100.390	20.070	6.451	0.593
175.000	151.572	80.001	20.010	100.392	20.069	6.555	0.570
175.500	151.886	80.002	20.010	100.390	20.069	6.596	0.567
176.000	152.180	80.001	20.009	100.385	20.070	6.387	0.597
176.500	152.455	80.000	20.009	100.386	20.071	6.303	0.589
177.000	152.760	80.001	20.009	100.394	20.071	6.181	0.575
177.500	153.027	80.000	20.009	100.403	20.071	6.157	0.576
178.000	153.318	80.001	20.008	100.417	20.070	6.403	0.564
178.500	153.637	80.001	20.009	100.422	20.070	6.410	0.584
179.000	153.942	80.001	20.009	100.410	20.071	6.289	0.617
179.500	154.214	80.000	20.009	100.394	20.069	6.506	0.600
180.000	154.507	80.001	20.009	100.378	20.071	6.284	0.571
180.500	154.796	80.001	20.009	100.363	20.071	6.267	0.573
181.000	155.088	79.999	20.009	100.358	20.070	6.337	0.581
181.500	155.359	80.000	20.009	100.362	20.072	6.060	0.572
182.000	155.659	80.001	20.009	100.370	20.071	6.228	0.567
182.501	155.957	80.000	20.009	100.376	20.073	5.992	0.585
183.000	156.271	80.001	20.009	100.373	20.071	6.252	0.605
183.500	156.538	80.001	20.009	100.365	20.070	6.371	0.597
184.000	156.818	80.000	20.009	100.357	20.070	6.422	0.564
184.500	157.117	80.001	20.009	100.357	20.070	6.469	0.563
185.000	157.406	80.000	20.009	100.358	20.070	6.347	0.584
185.500	157.673	80.001	20.009	100.364	20.069	6.562	0.572
186.000	157.955	80.000	20.009	100.364	20.070	6.390	0.552
186.500	158.269	80.000	20.009	100.364	20.069	6.569	0.572
187.000	158.535	80.000	20.009	100.357	20.068	6.661	0.588
187.500	158.816	80.002	20.009	100.351	20.067	6.904	0.563
188.000	159.120	80.000	20.008	100.348	20.069	6.502	0.566
188.500	159.417	80.000	20.009	100.356	20.070	6.377	0.594
189.000	159.669	80.000	20.009	100.360	20.069	6.623	0.575
189.500	159.976	80.001	20.009	100.355	20.069	6.481	0.554
190.000	160.243	79.999	20.009	100.349	20.067	6.799	0.567
190.500	160.557	80.002	20.009	100.343	20.067	6.894	0.578
191.000	160.825	79.999	20.009	100.342	20.070	6.384	0.582
191.500	161.117	80.001	20.009	100.345	20.070	6.452	0.570
192.000	161.434	80.000	20.008	100.359	20.070	6.391	0.584
192.500	161.711	79.999	20.009	100.372	20.068	6.721	0.602
193.000	161.984	80.000	20.008	100.377	20.069	6.620	0.572
193.500	162.261	80.000	20.009	100.372	20.070	6.438	0.550
194.000	162.563	80.000	20.009	100.363	20.068	6.731	0.564
194.500	162.852	79.999	20.009	100.356	20.069	6.545	0.585
195.000	163.118	80.001	20.008	100.351	20.072	6.082	0.573
195.500	163.391	79.999	20.009	100.353	20.072	6.084	0.546
196.000	163.684	80.002	20.008	100.360	20.070	6.354	0.552
196.500	163.951	79.999	20.008	100.366	20.071	6.182	0.563
197.000	164.221	80.001	20.009	100.365	20.072	6.004	0.549
197.500	164.526	80.000	20.009	100.362	20.072	6.088	0.556
198.000	164.818	79.999	20.009	100.354	20.073	5.940	0.586
198.500	165.118	80.001	20.008	100.348	20.072	6.021	0.595
199.000	165.398	80.000	20.009	100.349	20.074	5.716	0.586
199.500	165.633	80.000	20.008	100.357	20.077	5.311	0.547
200.000	165.944	80.001	20.008	100.359	20.076	5.386	0.531
200.500	166.227	79.999	20.009	100.359	20.075	5.514	0.570
201.000	166.483	80.001	20.009	100.358	20.073	5.916	0.566
201.500	166.752	79.999	20.009	100.351	20.073	5.853	0.531
202.000	167.081	80.000	20.009	100.344	20.070	6.427	0.561
202.500	167.317	80.001	20.009	100.349	20.074	5.698	0.582
203.000	167.624	80.001	20.008	100.357	20.074	5.741	0.554
203.500	167.819	79.999	20.009	100.363	20.072	6.130	0.522
204.000	168.109	80.001	20.009	100.367	20.072	6.022	0.493
204.500	168.415	80.001	20.009	100.366	20.074	5.822	0.540
205.000	168.685	80.000	20.009	100.360	20.069	6.507	0.586
205.500	168.959	79.999	20.008	100.358	20.068	6.635	0.560
206.000	169.204	80.001	20.009	100.359	20.072	6.132	0.531
206.500	169.462	80.000	20.009	100.356	20.073	5.913	0.511
207.000	169.789	79.999	20.008	100.356	20.073	5.933	0.544
207.500	170.071	80.001	20.009	100.350	20.073	5.944	0.597
208.000	170.343	80.002	20.009	100.336	20.072	6.008	0.581
208.500	170.565	80.000	20.009	100.320	20.069	6.571	0.524
209.000	170.859	80.000	20.009	100.315	20.071	6.159	0.505
209.500	171.115	80.000	20.008	100.315	20.073	5.979	0.533
210.000	171.399	80.000	20.009	100.320	20.073	5.844	0.545
210.500	171.750	80.002	20.008	100.328	20.073	5.922	0.588
211.000	171.982	80.000	20.009	100.328	20.076	5.500	0.609
211.500	172.280	79.999	20.009	100.324	20.073	5.896	0.556
212.001	172.534	80.001	20.009	100.317	20.075	5.670	0.541
212.500	172.844	80.000	20.009	100.315	20.074	5.825	0.559
213.000	173.110	80.000	20.008	100.315	20.074	5.683	0.570
213.500	173.372	80.001	20.008	100.324	20.075	5.554	0.552
214.000	173.614	79.999	20.008	100.330	20.073	5.844	0.516
214.500	173.928	80.001	20.009	100.338	20.075	5.561	0.530
215.000	174.155	80.000	20.009	100.340	20.075	5.663	0.548
215.500	174.486	80.001	20.009	100.339	20.075	5.639	0.549
216.000	174.729	80.000	20.009	100.338	20.073	5.987	0.566
216.500	174.988	80.000	20.009	100.339	20.074	5.680	0.538
217.000	175.272	80.001	20.008	100.339	20.072	6.018	0.522
217.500	175.552	80.001	20.008	100.337	20.072	5.998	0.554
218.000	175.777	79.999	20.009	100.332	20.073	5.954	0.535
218.500	176.041	80.001	20.009	100.325	20.077	5.246	0.497
219.000	176.321	80.001	20.009	100.323	20.077	5.306	0.516
219.501	176.590	80.000	20.008	100.324	20.075	5.542	0.546
220.000	176.867	79.999	20.008	100.331	20.074	5.784	0.548
220.500	177.154	80.000	20.008	100.337	20.073	5.895	0.555
221.000	177.377	80.000	20.008	100.340	20.071	6.189	0.537
221.500	177.660	80.000	20.009	100.333	20.073	5.926	0.508
222.000	177.920	80.000	20.009	100.324	20.073	5.980	0.524
222.500	178.198	80.000	20.009	100.311	20.072	6.089	0.540
223.000	178.470	80.000	20.009	100.303	20.071	6.271	0.545
223.500	178.732	80.000	20.009	100.306	20.069	6.571	0.542
224.000	179.018	80.001	20.009	100.316	20.071	6.311	0.541
224.500	179.276	79.999	20.008	100.323	20.070	6.327	0.546
225.000	179.543	80.000	20.009	100.325	20.071	6.304	0.534
225.500	179.776	80.001	20.009	100.324	20.070	6.331	0.512
226.000	180.029	80.000	20.009	100.317	20.070	6.409	0.493
226.500	180.306	80.002	20.008	100.309	20.072	6.035	0.508
227.000	180.612	79.999	20.009	100.308	20.072	6.048	0.557
227.500	180.835	80.001	20.008	100.314	20.071	6.213	0.556
228.000	181.120	80.000	20.008	100.319	20.071	6.260	0.518
228.500	181.362	79.999	20.009	100.324	20.072	6.124	0.517
229.000	181.670	80.002	20.009	100.328	20.072	6.057	0.538
229.500	181.937	79.999	20.009	100.330	20.070	6.317	0.563
230.000	182.191	80.001	20.009	100.330	20.071	6.193	0.548
230.500	182.441	79.999	20.009	100.335	20.072	6.109	0.513
231.000	182.709	80.000	20.009	100.342	20.070	6.433	0.511
231.500	182.964	80.001	20.009	100.345	20.070	6.422	0.520
232.000	183.210	80.000	20.008	100.343	20.073	5.875	0.512
232.500	183.482	79.999	20.009	100.335	20.071	6.253	0.509
233.000	183.733	80.001	20.009	100.325	20.067	6.931	0.520
233.500	184.008	80.000	20.009	100.314	20.069	6.499	0.525
234.000	184.248	80.000	20.009	100.310	20.067	6.932	0.520
234.500	184.558	79.997	20.008	100.314	20.067	6.851	0.532
235.000	184.867	80.002	20.008	100.323	20.066	7.080	0.585
235.500	185.104	79.998	20.009	100.331	20.065	7.202	0.583
236.000	185.367	80.001	20.009	100.335	20.066	6.999	0.522
236.500	185.585	80.000	20.009	100.333	20.065	7.217	0.490
237.000	185.873	79.999	20.009	100.324	20.063	7.507	0.494
237.500	186.099	80.001	20.008	100.318	20.064	7.319	0.511
238.000	186.361	80.000	20.009	100.317	20.066	6.982	0.502
238.500	186.610	80.001	20.009	100.320	20.065	7.154	0.500
239.000	186.932	79.999	20.008	100.328	20.064	7.411	0.541
239.500	187.144	80.001	20.008	100.331	20.065	7.154	0.552
240.000	187.403	80.001	20.009	100.330	20.065	7.130	0.502
240.500	187.634	80.001	20.009	100.323	20.062	7.670	0.480
241.000	187.885	80.000	20.009	100.314	20.065	7.244	0.486
241.500	188.168	80.000	20.009	100.307	20.063	7.474	0.508
242.000	188.441	80.000	20.009	100.311	20.064	7.370	0.545
242.500	188.679	80.000	20.008	100.319	20.062	7.597	0.533
243.000	188.910	80.001	20.009	100.327	20.064	7.344	0.490
243.500	189.226	80.001	20.009	100.331	20.064	7.290	0.508
244.000	189.464	79.999	20.009	100.331	20.063	7.512	0.550
244.500	189.731	80.001	20.009	100.325	20.063	7.430	0.529
245.000	189.998	80.001	20.009	100.317	20.063	7.572	0.519
245.500	190.235	80.000	20.009	100.309	20.062	7.731	0.519
246.000	190.447	80.000	20.008	100.308	20.063	7.509	0.476
246.500	190.752	80.001	20.008	100.314	20.063	7.547	0.483
247.000	190.988	79.999	20.008	100.322	20.065	7.254	0.529
247.500	191.271	79.999	20.009	100.324	20.061	7.881	0.530
248.000	191.524	80.000	20.009	100.324	20.065	7.232	0.528
248.500	191.806	80.000	20.009	100.321	20.063	7.556	0.536
249.000	191.997	80.001	20.009	100.312	20.063	7.478	0.503
249.500	192.254	80.000	20.009	100.305	20.065	7.154	0.460
250.000	192.489	80.000	20.009	100.304	20.068	6.777	0.470
250.500	192.770	80.000	20.008	100.311	20.064	7.314	0.504
251.000	192.984	79.999	20.009	100.316	20.064	7.324	0.506
251.500	193.246	80.000	20.009	100.322	20.061	7.765	0.486
252.000	193.494	80.000	20.009	100.323	20.065	7.154	0.493
252.500	193.766	80.000	20.009	100.322	20.064	7.356	0.515
253.000	194.030	80.000	20.009	100.315	20.063	7.473	0.528
253.500	194.277	80.000	20.008	100.310	20.064	7.427	0.523
254.000	194.519	80.000	20.009	100.308	20.066	7.022	0.500
254.500	194.787	79.999	20.008	100.313	20.065	7.181	0.500
255.000	195.008	80.000	20.008	100.321	20.064	7.343	0.499
255.500	195.318	80.000	20.009	100.326	20.064	7.320	0.510
256.000	195.571	80.000	20.009	100.328	20.066	7.110	0.547
256.501	195.812	80.000	20.009	100.327	20.067	6.947	0.528
257.000	196.061	80.003	20.009	100.319	20.064	7.392	0.492
257.500	196.335	79.999	20.009	100.313	20.067	6.924	0.506
258.000	196.619	80.002	20.008	100.315	20.066	7.012	0.541
258.500	196.817	80.001	20.009	100.320	20.065	7.211	0.520
259.000	197.099	80.001	20.009	100.327	20.063	7.522	0.481
259.500	197.349	80.001	20.009	100.336	20.065	7.228	0.506
260.000	197.581	80.000	20.009	100.341	20.064	7.282	0.507
260.500	197.828	80.001	20.009	100.335	20.066	6.961	0.480
261.000	198.083	79.999	20.009	100.327	20.062	7.723	0.490
261.500	198.332	80.001	20.009	100.322	20.064	7.417	0.503
262.000	198.573	79.999	20.009	100.321	20.066	7.019	0.497
262.500	198.802	80.000	20.008	100.321	20.065	7.209	0.481
263.000	199.102	80.000	20.009	100.327	20.062	7.638	0.500
263.500	199.314	80.001	20.008	100.333	20.063	7.452	0.520
264.000	199.608	79.999	20.009	100.329	20.064	7.424	0.509
264.500	199.879	80.001	20.009	100.323	20.065	7.258	0.536
265.000	200.089	80.000	20.009	100.314	20.063	7.468	0.523
265.500	200.425	80.001	20.009	100.307	20.062	7.640	0.513
266.000	200.616	79.999	20.009	100.301	20.064	7.364	0.537
266.500	200.915	80.000	20.008	100.309	20.063	7.466	0.509
267.000	201.153	80.000	20.008	100.316	20.063	7.459	0.514
267.500	201.397	80.000	20.008	100.322	20.063	7.465	0.509
268.000	201.670	79.999	20.009	100.322	20.064	7.316	0.499
268.500	201.913	80.001	20.009	100.322	20.064	7.363	0.516
269.000	202.156	80.001	20.008	100.313	20.067	6.799	0.501
269.500	202.418	80.000	20.009	100.305	20.064	7.380	0.496
270.000	202.642	79.999	20.009	100.299	20.066	7.086	0.496
270.500	202.894	80.000	20.008	100.305	20.063	7.444	0.481
271.000	203.152	80.000	20.008	100.313	20.064	7.386	0.493
271.500	203.414	79.999	20.008	100.316	20.066	7.072	0.515
272.000	203.664	79.999	20.009	100.317	20.066	7.092	0.516
272.500	203.931	80.000	20.009	100.317	20.064	7.348	0.514
273.000	204.181	80.000	20.008	100.310	20.065	7.203	0.517
273.500	204.427	80.001	20.008	100.303	20.066	7.034	0.507
274.000	204.686	79.999	20.009	100.304	20.066	7.082	0.500
274.500	204.960	80.000	20.009	100.312	20.062	7.592	0.519
275.000	205.193	80.000	20.009	100.319	20.063	7.453	0.520
275.500	205.420	80.000	20.008	100.328	20.065	7.214	0.483
276.000	205.655	80.000	20.009	100.331	20.064	7.345	0.461
276.500	205.932	80.000	20.008	100.328	20.065	7.136	0.487
277.000	206.213	80.000	20.009	100.319	20.065	7.142	0.535
277.500	206.443	80.000	20.009	100.313	20.063	7.500	0.534
278.000	206.697	80.000	20.009	100.312	20.065	7.116	0.498
278.500	206.933	80.000	20.008	100.316	20.066	7.021	0.487
279.000	207.143	79.999	20.008	100.324	20.065	7.258	0.468
279.500	207.460	80.000	20.008	100.331	20.064	7.399	0.486
280.000	207.694	80.001	20.009	100.332	20.064	7.381	0.539
280.500	207.983	80.000	20.008	100.326	20.065	7.179	0.538
281.000	208.204	79.999	20.009	100.318	20.064	7.330	0.517
281.500	208.428	80.000	20.008	100.309	20.065	7.263	0.477
282.000	208.688	80.000	20.008	100.304	20.064	7.376	0.465
282.500	208.949	80.000	20.008	100.309	20.064	7.387	0.502
283.000	209.174	80.000	20.008	100.312	20.063	7.566	0.504
283.500	209.461	80.000	20.009	100.312	20.065	7.198	0.500
284.000	209.725	80.001	20.009	100.309	20.065	7.245	0.532
284.500	210.013	80.000	20.008	100.304	20.062	7.636	0.551
285.000	210.225	80.000	20.009	100.294	20.066	6.995	0.526
285.500	210.470	80.000	20.009	100.290	20.065	7.184	0.478
286.000	210.712	80.000	20.009	100.290	20.064	7.353	0.472
286.500	210.964	80.000	20.008	100.294	20.062	7.656	0.491
287.000	211.217	80.000	20.009	100.299	20.062	7.626	0.500
287.500	211.445	80.000	20.008	100.303	20.063	7.467	0.493
288.000	211.710	79.999	20.009	100.303	20.063	7.547	0.487
288.500	211.952	80.001	20.009	100.303	20.061	7.881	0.500
289.000	212.168	80.000	20.009	100.298	20.064	7.392	0.483
289.500	212.421	79.999	20.009	100.296	20.061	7.832	0.463
290.000	212.712	80.000	20.008	100.295	20.062	7.646	0.506
290.500	212.922	80.000	20.009	100.297	20.061	7.849	0.523
291.000	213.175	80.000	20.008	100.299	20.064	7.406	0.482
291.500	213.465	80.001	20.008	100.303	20.066	6.987	0.503
292.000	213.756	80.000	20.009	100.302	20.065	7.139	0.562
292.500	213.989	80.000	20.009	100.295	20.064	7.354	0.552
293.000	214.163	80.000	20.009	100.287	20.063	7.500	0.465
293.500	214.473	80.001	20.009	100.283	20.063	7.470	0.446
294.000	214.742	80.000	20.009	100.283	20.065	7.227	0.532
294.500	215.017	80.000	20.009	100.290	20.065	7.227	0.562
295.000	215.224	79.999	20.008	100.305	20.066	7.095	0.513
295.500	215.512	79.999	20.008	100.314	20.065	7.176	0.489
296.000	215.745	80.001	20.009	100.317	20.064	7.297	0.508
296.500	216.022	79.999	20.009	100.316	20.064	7.288	0.516
297.000	216.228	80.000	20.009	100.311	20.067	6.830	0.496
297.500	216.511	79.999	20.008	100.303	20.063	7.495	0.485
298.000	216.765	80.001	20.008	100.305	20.065	7.262	0.513
298.500	217.015	80.000	20.008	100.310	20.062	7.599	0.521
299.000	217.252	80.001	20.008	100.312	20.065	7.160	0.495
299.500	217.548	80.001	20.008	100.311	20.065	7.116	0.510
300.000	217.783	80.001	20.009	100.305	20.067	6.819	0.532
300.500	218.015	80.000	20.009	100.298	20.062	7.606	0.499
301.000	218.271	79.999	20.009	100.295	20.064	7.421	0.478
301.500	218.509	80.001	20.009	100.296	20.064	7.303	0.491
302.000	218.804	80.000	20.008	100.301	20.066	7.066	0.513
302.500	219.066	80.000	20.008	100.310	20.065	7.120	0.545
303.000	219.319	80.000	20.009	100.312	20.066	7.001	0.537
303.500	219.510	80.000	20.008	100.310	20.064	7.402	0.479
304.000	219.764	79.999	20.009	100.300	20.061	7.841	0.444
304.500	220.008	80.000	20.009	100.292	20.062	7.660	0.471
305.000	220.292	80.001	20.008	100.288	20.061	7.778	0.513
305.500	220.553	79.999	20.008	100.289	20.061	7.845	0.537
306.000	220.787	80.000	20.008	100.290	20.061	7.798	0.520
306.500	220.993	80.000	20.008	100.298	20.062	7.615	0.467
307.000	221.286	80.000	20.009	100.298	20.062	7.618	0.469
307.500	221.578	80.000	20.008	100.293	20.062	7.652	0.542
308.000	221.827	80.000	20.009	100.289	20.064	7.386	0.563
308.500	222.060	80.001	20.008	100.289	20.062	7.623	0.512
309.000	222.343	80.000	20.009	100.289	20.061	7.835	0.499
309.500	222.574	80.000	20.008	100.299	20.061	7.788	0.515
310.000	222.816	79.999	20.008	100.312	20.062	7.615	0.494
310.500	223.077	80.001	20.008	100.320	20.063	7.442	0.488
311.000	223.306	79.999	20.009	100.319	20.062	7.695	0.496
311.500	223.552	80.000	20.008	100.314	20.063	7.574	0.482
312.000	223.842	80.000	20.009	100.306	20.063	7.567	0.505
312.500	224.056	80.000	20.009	100.299	20.065	7.237	0.520
313.000	224.375	79.998	20.008	100.299	20.064	7.372	0.519
313.500	224.568	80.001	20.008	100.309	20.062	7.696	0.522
314.000	224.846	80.001	20.009	100.317	20.064	7.389	0.491
314.500	225.080	80.000	20.008	100.319	20.062	7.591	0.491
315.000	225.390	80.000	20.009	100.316	20.065	7.241	0.528
315.500	225.576	80.000	20.008	100.310	20.064	7.386	0.520
316.000	225.863	80.001	20.009	100.302	20.066	6.971	0.484
316.500	226.099	80.000	20.009	100.298	20.064	7.345	0.498
317.000	226.407	79.999	20.008	100.300	20.063	7.474	0.534
317.500	226.638	80.001	20.009	100.308	20.063	7.463	0.541
318.000	226.904	79.999	20.008	100.311	20.064	7.271	0.518
318.500	227.176	80.000	20.009	100.311	20.066	7.102	0.517
319.000	227.409	80.000	20.009	100.307	20.066	7.058	0.522
319.500	227.605	79.999	20.009	100.305	20.063	7.544	0.468
320.000	227.849	80.000	20.008	100.300	20.066	6.957	0.435
320.500	228.073	80.000	20.009	100.297	20.065	7.116	0.454
321.000	228.328	80.000	20.009	100.304	20.066	7.102	0.473
321.500	228.582	80.000	20.009	100.311	20.063	7.449	0.494
322.000	228.833	80.000	20.008	100.311	20.064	7.270	0.507
322.500	229.106	80.001	20.008	100.311	20.065	7.216	0.514
323.000	229.353	80.000	20.009	100.304	20.063	7.554	0.521
323.500	229.639	80.000	20.009	100.290	20.064	7.349	0.526
324.000	229.843	80.000	20.009	100.288	20.065	7.238	0.512
324.500	230.111	80.000	20.009	100.288	20.065	7.218	0.481
325.000	230.399	80.001	20.009	100.289	20.063	7.471	0.514
325.500	230.640	80.000	20.009	100.296	20.063	7.508	0.543
326.000	230.909	80.000	20.008	100.303	20.062	7.733	0.519
326.500	231.151	80.001	20.009	100.302	20.063	7.460	0.510
327.000	231.372	79.999	20.009	100.301	20.062	7.741	0.487
327.500	231.662	80.001	20.009	100.300	20.062	7.701	0.487
328.000	231.890	80.001	20.009	100.301	20.064	7.310	0.515
328.500	232.171	80.000	20.009	100.301	20.061	7.819	0.513
329.000	232.417	80.000	20.009	100.304	20.061	7.771	0.518
329.500	232.665	80.001	20.008	100.304	20.062	7.666	0.511
330.000	232.911	79.999	20.009	100.303	20.063	7.508	0.495
330.500	233.154	79.998	20.009	100.298	20.063	7.589	0.492
331.000	233.408	80.001	20.008	100.296	20.062	7.593	0.493
331.500	233.628	80.001	20.008	100.294	20.064	7.374	0.485
332.000	233.929	80.001	20.009	100.294	20.063	7.488	0.498
332.500	234.135	80.001	20.008	100.299	20.062	7.710	0.514
333.000	234.417	80.000	20.009	100.302	20.061	7.760	0.497
333.500	234.668	80.000	20.009	100.303	20.063	7.520	0.511
334.000	234.929	80.000	20.009	100.301	20.062	7.635	0.523
334.500	235.156	80.001	20.008	100.296	20.058	8.300	0.500
335.000	235.428	79.999	20.009	100.291	20.060	7.993	0.493
335.500	235.665	80.000	20.009	100.292	20.060	7.946	0.504
336.000	235.955	80.000	20.008	100.295	20.061	7.760	0.518
336.500	236.150	79.999	20.008	100.303	20.061	7.753	0.506
337.000	236.454	80.001	20.008	100.308	20.061	7.867	0.492
337.500	236.681	80.000	20.009	100.309	20.060	7.985	0.515
338.000	236.915	80.000	20.009	100.308	20.062	7.665	0.496
338.500	237.187	80.000	20.009	100.306	20.058	8.283	0.484
339.000	237.427	80.000	20.009	100.302	20.059	8.145	0.510
339.500	237.681	80.000	20.008	100.308	20.063	7.514	0.503
340.000	237.902	80.001	20.008	100.316	20.061	7.871	0.484
340.500	238.181	79.999	20.008	100.324	20.061	7.770	0.488
341.000	238.428	80.000	20.009	100.325	20.061	7.905	0.513
341.500	238.630	80.000	20.009	100.323	20.063	7.531	0.488
342.000	238.918	79.999	20.009	100.315	20.064	7.278	0.470
342.500	239.146	80.001	20.008	100.308	20.064	7.295	0.503
343.000	239.416	80.000	20.008	100.306	20.064	7.379	0.507
343.500	239.631	79.999	20.008	100.312	20.063	7.568	0.491
344.000	239.873	80.001	20.008	100.318	20.065	7.129	0.471
344.500	240.139	80.000	20.009	100.319	20.062	7.652	0.483
345.000	240.386	80.001	20.009	100.319	20.062	7.656	0.510
345.500	240.664	80.000	20.009	100.311	20.061	7.768	0.519
346.000	240.935	80.001	20.009	100.304	20.062	7.664	0.537
346.500	241.157	80.000	20.008	100.298	20.063	7.529	0.521
347.000	241.455	80.000	20.008	100.298	20.061	7.873	0.506
347.500	241.685	79.999	20.008	100.298	20.060	7.926	0.524
348.000	241.953	80.001	20.009	100.300	20.060	7.949	0.513
348.500	242.233	80.000	20.008	100.298	20.060	8.040	0.523
349.000	242.469	80.001	20.009	100.292	20.060	7.908	0.532
349.500	242.745	79.999	20.009	100.289	20.059	8.175	0.514
350.000	242.965	80.000	20.009	100.289	20.060	7.956	0.505
350.500	243.200	80.000	20.008	100.290	20.061	7.858	0.475
351.000	243.452	80.000	20.009	100.293	20.060	8.023	0.471
351.500	243.722	80.000	20.009	100.299	20.060	7.958	0.505
352.000	243.965	80.000	20.008	100.300	20.063	7.557	0.518
352.500	244.248	80.000	20.009	100.298	20.065	7.216	0.519
353.000	244.447	80.001	20.008	100.295	20.063	7.467	0.504
353.500	244.714	79.999	20.008	100.294	20.063	7.471	0.475
354.000	245.014	79.999	20.008	100.296	20.064	7.326	0.517
354.500	245.231	80.000	20.008	100.302	20.064	7.336	0.542
355.000	245.472	80.001	20.008	100.305	20.063	7.534	0.487
355.500	245.749	79.999	20.008	100.308	20.064	7.362	0.488
356.000	245.997	80.001	20.008	100.304	20.064	7.395	0.521
356.500	246.254	80.000	20.009	100.298	20.065	7.183	0.515
357.000	246.466	80.000	20.009	100.295	20.064	7.389	0.487
357.500	246.743	80.000	20.009	100.295	20.062	7.693	0.479
358.000	247.022	80.001	20.009	100.301	20.063	7.565	0.523
358.500	247.284	80.000	20.008	100.312	20.064	7.412	0.548
359.000	247.523	79.999	20.008	100.321	20.063	7.459	0.521
359.500	247.819	80.001	20.008	100.320	20.065	7.129	0.518
360.000	248.056	80.001	20.009	100.317	20.066	7.048	0.534
360.500	248.319	80.001	20.009	100.305	20.064	7.298	0.517
361.000	248.533	80.000	20.009	100.297	20.064	7.407	0.488
361.500	248.791	80.000	20.009	100.293	20.063	7.489	0.474
362.000	249.052	80.000	20.008	100.295	20.063	7.556	0.496
362.500	249.302	79.999	20.008	100.299	20.065	7.235	0.515
363.000	249.547	80.001	20.008	100.304	20.065	7.228	0.502
363.500	249.793	80.000	20.009	100.301	20.063	7.474	0.493
364.000	250.014	80.001	20.009	100.293	20.067	6.884	0.479
364.500	250.266	80.000	20.009	100.285	20.066	6.982	0.470
365.000	250.556	80.000	20.008	100.284	20.066	6.976	0.507
365.500	250.809	79.999	20.009	100.290	20.066	7.010	0.542
366.000	251.026	79.999	20.009	100.299	20.064	7.387	0.507
366.500	251.312	80.002	20.008	100.307	20.065	7.252	0.487
367.000	251.508	80.000	20.009	100.313	20.064	7.366	0.493
367.500	251.769	79.999	20.008	100.310	20.064	7.389	0.469
368.000	252.059	80.000	20.009	100.299	20.066	7.035	0.504
368.500	252.346	80.001	20.009	100.294	20.062	7.627	0.564
369.000	252.586	80.000	20.008	100.293	20.063	7.469	0.552
369.500	252.856	80.000	20.008	100.295	20.064	7.328	0.519
370.000	253.075	80.000	20.008	100.299	20.063	7.497	0.500
370.500	253.324	80.000	20.008	100.306	20.064	7.348	0.479
371.000	253.573	80.001	20.008	100.302	20.062	7.648	0.483
371.500	253.825	80.000	20.009	100.294	20.061	7.763	0.499
372.000	254.077	80.000	20.009	100.291	20.062	7.594	0.502
372.500	254.339	80.000	20.009	100.290	20.061	7.763	0.509
373.001	254.538	80.000	20.009	100.296	20.064	7.324	0.488
373.500	254.801	80.001	20.008	100.306	20.060	7.975	0.462
374.000	255.076	80.000	20.008	100.319	20.059	8.082	0.500
374.500	255.353	80.000	20.009	100.323	20.061	7.882	0.545
375.000	255.589	80.000	20.009	100.323	20.061	7.820	0.532
375.500	255.813	80.000	20.009	100.317	20.062	7.660	0.487
376.000	256.115	80.002	20.009	100.309	20.061	7.785	0.493
376.500	256.341	80.000	20.009	100.307	20.061	7.806	0.526
377.000	256.626	80.000	20.008	100.310	20.066	7.047	0.519
377.500	256.867	79.999	20.008	100.318	20.064	7.311	0.518
378.000	257.094	80.001	20.008	100.325	20.062	7.621	0.497
378.500	257.351	80.000	20.009	100.328	20.065	7.233	0.476
379.000	257.622	80.000	20.009	100.324	20.067	6.902	0.506
379.500	257.890	79.999	20.009	100.316	20.067	6.895	0.533
380.000	258.160	80.000	20.009	100.307	20.064	7.293	0.539
380.500	258.441	80.000	20.009	100.304	20.065	7.261	0.545
381.000	258.691	80.000	20.009	100.309	20.066	6.968	0.541
381.500	258.929	80.001	20.008	100.322	20.066	7.083	0.510
382.000	259.148	80.000	20.008	100.335	20.066	6.985	0.473
382.500	259.428	80.002	20.008	100.343	20.068	6.775	0.478
383.000	259.680	79.999	20.008	100.345	20.068	6.643	0.515
383.500	259.909	79.999	20.009	100.344	20.069	6.521	0.506
384.000	260.130	80.001	20.008	100.336	20.067	6.923	0.465
384.500	260.417	80.000	20.009	100.334	20.065	7.129	0.479
385.000	260.655	80.000	20.008	100.334	20.068	6.719	0.517
385.500	260.931	80.000	20.008	100.335	20.066	6.986	0.519
386.000	261.167	80.000	20.008	100.337	20.065	7.239	0.513
386.500	261.406	80.000	20.008	100.334	20.065	7.265	0.494
387.000	261.663	79.999	20.008	100.321	20.064	7.275	0.486
387.500	261.925	80.001	20.009	100.306	20.062	7.628	0.508
388.000	262.139	79.998	20.008	100.289	20.061	7.787	0.498
388.500	262.431	80.000	20.008	100.275	20.063	7.484	0.491
389.001	262.658	80.000	20.008	100.272	20.061	7.791	0.512
389.500	262.884	80.000	20.008	100.278	20.063	7.514	0.486
390.000	263.117	80.000	20.008	100.285	20.061	7.871	0.456
390.500	263.379	79.998	20.008	100.293	20.062	7.695	0.477
391.000	263.591	79.999	20.008	100.294	20.060	7.965	0.485
391.500	263.866	80.001	20.008	100.287	20.060	8.042	0.481
392.001	264.134	80.000	20.009	100.280	20.063	7.502	0.515
392.500	264.409	80.000	20.008	100.280	20.062	7.729	0.543
393.000	264.694	79.999	20.008	100.285	20.061	7.774	0.551
393.500	264.905	80.001	20.008	100.298	20.062	7.664	0.528
394.000	265.155	80.000	20.009	100.307	20.061	7.819	0.478
394.500	265.459	79.999	20.008	100.314	20.062	7.698	0.507
395.000	265.719	80.001	20.008	100.313	20.062	7.711	0.559
395.500	265.956	80.000	20.009	100.300	20.060	7.913	0.530
396.000	266.178	80.000	20.009	100.289	20.060	7.956	0.478
396.500	266.450	80.000	20.009	100.287	20.062	7.733	0.477
397.000	266.713	79.999	20.008	100.293	20.060	8.017	0.514
397.501	266.942	80.001	20.008	100.303	20.058	8.283	0.513
398.000	267.210	79.999	20.008	100.319	20.060	7.951	0.495
398.500	267.450	80.001	20.008	100.322	20.062	7.661	0.503
399.000	267.735	80.000	20.008	100.321	20.059	8.177	0.517
399.500	267.990	80.000	20.008	100.313	20.059	8.167	0.532
400.000	268.205	80.000	20.009	100.304	20.059	8.103	0.505
400.500	268.489	80.000	20.008	100.296	20.060	8.020	0.484
401.000	268.751	80.001	20.009	100.297	20.060	8.030	0.522
401.500	268.968	80.000	20.008	100.300	20.060	7.959	0.513
402.000	269.248	79.999	20.008	100.303	20.060	7.982	0.488
402.500	269.501	80.001	20.008	100.304	20.062	7.590	0.515
403.000	269.727	80.000	20.008	100.298	20.061	7.873	0.507
403.500	269.984	80.000	20.009	100.289	20.060	8.028	0.481
404.000	270.237	80.000	20.009	100.282	20.059	8.133	0.496
404.500	270.503	80.000	20.008	100.280	20.059	8.114	0.515
405.000	270.807	80.000	20.008	100.281	20.059	8.120	0.544
405.500	271.005	80.000	20.008	100.290	20.058	8.275	0.536
406.000	271.273	80.000	20.008	100.305	20.059	8.133	0.484
406.500	271.498	80.001	20.008	100.319	20.057	8.420	0.480
407.000	271.760	80.002	20.008	100.325	20.056	8.679	0.490
407.500	271.965	79.999	20.008	100.325	20.055	8.822	0.477
408.000	272.304	80.000	20.008	100.322	20.056	8.613	0.505
408.500	272.532	79.999	20.008	100.315	20.056	8.685	0.556
409.000	272.797	79.999	20.008	100.308	20.056	8.664	0.530
409.500	273.037	80.001	20.008	100.303	20.058	8.384	0.499
410.000	273.309	80.000	20.009	100.302	20.054	8.916	0.509
410.500	273.523	80.000	20.008	100.295	20.057	8.517	0.499
411.000	273.803	79.999	20.008	100.287	20.053	9.067	0.490
411.500	274.038	80.001	20.008	100.279	20.053	9.044	0.504
412.000	274.305	80.000	20.008	100.278	20.052	9.247	0.508
412.500	274.530	80.000	20.008	100.279	20.053	9.120	0.497
413.000	274.788	80.000	20.008	100.289	20.054	8.924	0.488
413.500	275.062	80.000	20.008	100.298	20.054	8.984	0.508
414.000	275.332	80.000	20.008	100.304	20.056	8.660	0.538
414.500	275.576	80.000	20.008	100.299	20.054	8.946	0.529
415.000	275.835	80.001	20.008	100.291	20.053	9.179	0.508
415.500	276.074	79.999	20.008	100.280	20.052	9.277	0.501
416.000	276.383	80.000	20.008	100.275	20.051	9.376	0.523
416.500	276.613	80.002	20.008	100.276	20.052	9.258	0.543
417.000	276.875	80.000	20.008	100.281	20.049	9.814	0.516
417.500	277.131	80.002	20.008	100.290	20.049	9.689	0.505
418.000	277.425	80.001	20.008	100.291	20.048	9.867	0.534
418.500	277.671	80.001	20.008	100.288	20.048	9.822	0.545
419.001	277.951	80.000	20.008	100.280	20.046	10.146	0.533
419.501	278.128	80.001	20.008	100.278	20.046	10.214	0.491
420.000	278.360	80.000	20.008	100.277	20.047	10.110	0.433
420.500	278.619	80.001	20.008	100.284	20.046	10.261	0.450
421.000	278.870	80.000	20.008	100.292	20.046	10.197	0.500
421.500	279.140	80.000	20.008	100.300	20.045	10.334	0.516
422.000	279.395	80.001	20.008	100.298	20.044	10.495	0.523
422.500	279.609	80.001	20.008	100.291	20.044	10.616	0.497
423.000	279.878	80.000	20.009	100.283	20.045	10.455	0.476
423.500	280.109	80.000	20.008	100.279	20.044	10.459	0.492
424.000	280.389	79.999	20.008	100.279	20.045	10.432	0.505
424.500	280.634	80.000	20.008	100.284	20.044	10.486	0.518
425.000	280.920	80.000	20.008	100.293	20.044	10.601	0.528
425.500	281.186	80.000	20.008	100.301	20.045	10.361	0.541
426.000	281.438	80.001	20.008	100.299	20.043	10.756	0.535
426.500	281.665	80.000	20.008	100.292	20.046	10.288	0.498
427.000	281.913	80.000	20.008	100.284	20.044	10.528	0.477
427.500	282.155	80.000	20.008	100.281	20.043	10.700	0.482
428.000	282.398	80.000	20.008	100.281	20.041	10.984	0.488
428.500	282.666	80.000	20.008	100.287	20.042	10.919	0.498
429.000	282.911	80.001	20.008	100.295	20.040	11.222	0.512
429.500	283.192	80.000	20.008	100.297	20.042	10.833	0.519
430.000	283.484	80.002	20.009	100.293	20.041	11.010	0.549
430.500	283.746	80.001	20.009	100.285	20.039	11.405	0.564
431.000	283.970	80.000	20.009	100.276	20.038	11.450	0.520
431.500	284.181	80.000	20.009	100.268	20.038	11.450	0.460
432.000	284.478	80.000	20.009	100.270	20.038	11.419	0.471
432.500	284.745	79.999	20.008	100.277	20.036	11.763	0.536
433.000	284.966	80.000	20.008	100.280	20.037	11.736	0.526
433.500	285.221	80.000	20.008	100.277	20.038	11.473	0.482
434.000	285.455	79.998	20.008	100.271	20.036	11.886	0.483
434.500	285.698	80.001	20.008	100.262	20.035	11.920	0.483
435.000	285.984	80.000	20.008	100.254	20.037	11.620	0.503
435.500	286.246	80.002	20.008	100.251	20.035	11.974	0.538
436.000	286.484	80.000	20.008	100.255	20.034	12.087	0.524
436.500	286.733	80.000	20.008	100.260	20.034	12.188	0.494
437.000	287.002	80.000	20.008	100.265	20.032	12.383	0.502
437.500	287.232	79.999	20.008	100.264	20.036	11.891	0.508
438.000	287.445	80.000	20.009	100.264	20.035	11.980	0.471
438.500	287.711	79.999	20.008	100.261	20.035	12.014	0.461
439.000	287.991	80.000	20.008	100.265	20.035	12.054	0.512
439.500	288.239	80.000	20.009	100.273	20.033	12.279	0.537
440.000	288.493	80.000	20.008	100.279	20.034	12.104	0.515
440.501	288.709	80.001	20.008	100.280	20.035	12.023	0.486
441.000	288.992	80.000	20.008	100.281	20.031	12.563	0.485
441.500	289.276	80.000	20.009	100.275	20.031	12.571	0.534
442.000	289.502	80.001	20.008	100.267	20.028	13.060	0.539
442.500	289.771	80.001	20.009	100.265	20.029	13.002	0.503
443.000	290.054	80.000	20.008	100.272	20.031	12.606	0.523
443.500	290.231	80.001	20.008	100.280	20.030	12.792	0.505
444.000	290.503	80.000	20.008	100.287	20.031	12.691	0.455
444.500	290.738	80.001	20.008	100.287	20.028	13.140	0.478
445.000	290.996	80.000	20.009	100.283	20.028	13.147	0.500
445.501	291.271	79.999	20.008	100.278	20.027	13.252	0.513
446.001	291.514	80.000	20.008	100.278	20.027	13.218	0.525
446.500	291.756	80.000	20.008	100.282	20.027	13.233	0.501
447.000	292.005	79.999	20.008	100.291	20.027	13.226	0.488
447.500	292.258	80.001	20.008	100.299	20.025	13.587	0.497
448.000	292.496	79.999	20.008	100.302	20.027	13.240	0.497
448.500	292.736	80.001	20.008	100.296	20.026	13.464	0.485
449.000	293.001	79.999	20.009	100.285	20.024	13.694	0.491
449.500	293.234	80.000	20.008	100.279	20.026	13.438	0.501
450.000	293.495	80.001	20.008	100.279	20.025	13.502	0.496
450.500	293.723	80.000	20.008	100.281	20.024	13.684	0.492
451.001	293.962	80.001	20.008	100.287	20.025	13.559	0.478
451.501	294.210	80.000	20.008	100.293	20.023	13.839	0.477
452.000	294.488	79.999	20.008	100.289	20.024	13.813	0.506
452.500	294.738	79.999	20.008	100.285	20.022	14.025	0.527
453.000	294.956	80.000	20.008	100.285	20.022	14.119	0.498
453.500	295.231	79.999	20.008	100.284	20.021	14.169	0.481
454.000	295.497	80.000	20.008	100.288	20.022	14.131	0.517
454.500	295.760	80.001	20.008	100.295	20.022	14.020	0.535
455.000	296.017	80.001	20.008	100.296	20.022	14.125	0.524
455.500	296.262	80.000	20.008	100.288	20.023	13.919	0.511
456.000	296.521	80.000	20.008	100.283	20.019	14.530	0.503
456.500	296.784	80.001	20.008	100.281	20.021	14.214	0.513
457.000	297.019	79.999	20.008	100.282	20.020	14.432	0.510
457.500	297.262	80.001	20.008	100.286	20.020	14.323	0.488
458.000	297.492	79.999	20.008	100.292	20.020	14.319	0.475
458.500	297.739	80.001	20.008	100.294	20.021	14.282	0.475
459.000	297.977	80.001	20.008	100.288	20.021	14.181	0.481
459.500	298.228	80.000	20.008	100.280	20.018	14.665	0.487
460.000	298.488	80.000	20.008	100.274	20.019	14.580	0.500
460.500	298.742	80.000	20.008	100.275	20.021	14.213	0.512
461.000	298.979	79.999	20.008	100.279	20.017	14.815	0.502
461.500	299.236	80.001	20.008	100.287	20.017	14.865	0.492
462.000	299.468	80.000	20.008	100.294	20.019	14.532	0.492
462.500	299.732	80.000	20.008	100.297	20.018	14.745	0.493
463.000	299.966	80.000	20.008	100.296	20.016	14.935	0.497
463.500	300.198	80.001	20.008	100.295	20.018	14.693	0.482
464.000	300.476	80.001	20.008	100.293	20.015	15.169	0.488
464.500	300.723	80.001	20.008	100.295	20.015	15.151	0.518
465.000	300.996	80.000	20.008	100.297	20.017	14.799	0.522
465.500	301.261	80.000	20.008	100.296	20.013	15.548	0.529
466.000	301.482	80.000	20.008	100.294	20.014	15.360	0.512
466.500	301.707	80.001	20.008	100.291	20.011	15.793	0.467
467.000	301.986	80.000	20.008	100.285	20.012	15.707	0.475
467.500	302.187	80.000	20.008	100.284	20.013	15.562	0.492
468.000	302.472	80.002	20.008	100.284	20.011	15.855	0.483
468.500	302.700	79.999	20.008	100.286	20.013	15.526	0.500
469.000	302.928	80.001	20.008	100.291	20.014	15.366	0.485
469.500	303.223	80.002	20.008	100.293	20.014	15.292	0.489
470.000	303.474	79.999	20.008	100.286	20.013	15.464	0.534
470.500	303.716	80.001	20.008	100.281	20.012	15.624	0.520
471.000	303.983	80.000	20.008	100.274	20.012	15.602	0.501
471.500	304.203	80.000	20.008	100.275	20.010	15.901	0.498
472.000	304.443	80.001	20.008	100.280	20.009	16.086	0.474
472.500	304.701	79.999	20.008	100.285	20.010	15.949	0.479
473.000	304.967	79.999	20.008	100.286	20.008	16.215	0.511
473.500	305.228	80.000	20.008	100.286	20.008	16.232	0.526
474.000	305.465	80.000	20.009	100.278	20.008	16.284	0.512
474.500	305.702	80.002	20.008	100.275	20.008	16.322	0.486
475.000	306.022	79.999	20.008	100.277	20.008	16.349	0.516
475.500	306.225	80.002	20.008	100.284	20.009	16.180	0.540
476.000	306.446	79.999	20.008	100.292	20.007	16.438	0.474
476.500	306.708	80.000	20.008	100.298	20.006	16.542	0.453
477.000	306.941	80.000	20.008	100.296	20.006	16.576	0.489
477.500	307.207	80.001	20.008	100.288	20.008	16.334	0.497
478.000	307.438	80.000	20.008	100.282	20.006	16.602	0.498
478.500	307.691	80.001	20.008	100.282	20.006	16.545	0.490
479.000	307.956	80.001	20.008	100.286	20.008	16.318	0.501
479.500	308.194	80.002	20.008	100.297	20.004	16.863	0.510
480.000	308.442	80.001	20.008	100.304	20.004	16.970	0.495
480.500	308.681	80.000	20.008	100.311	20.004	16.908	0.486
481.000	308.933	80.001	20.008	100.303	20.004	16.939	0.488
481.500	309.191	80.000	20.008	100.294	20.002	17.261	0.500
482.000	309.445	80.000	20.008	100.286	20.004	16.971	0.511
482.500	309.691	80.002	20.008	100.287	20.003	17.115	0.506
483.000	309.948	80.001	20.007	100.288	20.000	17.503	0.502
483.500	310.194	80.000	20.008	100.296	19.999	17.687	0.503
484.000	310.409	80.000	20.008	100.303	19.997	17.973	0.482
484.500	310.684	80.002	20.008	100.299	20.000	17.543	0.475
485.000	310.932	80.002	20.008	100.291	19.998	17.895	0.506
485.500	311.204	80.000	20.008	100.281	19.998	17.867	0.521
486.000	311.410	80.001	20.008	100.279	19.999	17.753	0.499
486.500	311.730	80.003	20.008	100.278	19.998	17.926	0.502
487.000	311.989	79.999	20.008	100.284	19.997	17.973	0.553
487.500	312.216	80.001	20.008	100.291	19.997	18.070	0.532
488.000	312.438	80.000	20.008	100.293	19.995	18.326	0.467
488.500	312.703	80.000	20.008	100.288	19.992	18.775	0.468
489.000	312.966	80.000	20.008	100.281	19.993	18.610	0.507
489.500	313.208	80.001	20.008	100.278	19.990	19.146	0.517
490.001	313.460	80.001	20.007	100.279	19.990	19.125	0.500
490.500	313.693	80.001	20.008	100.285	19.988	19.403	0.490
491.000	313.937	80.001	20.007	100.293	19.988	19.483	0.481
491.500	314.169	79.999	20.007	100.294	19.986	19.831	0.476
492.000	314.436	80.002	20.008	100.290	19.984	20.145	0.487
492.500	314.647	80.001	20.008	100.281	19.985	20.009	0.489
493.000	314.933	80.000	20.008	100.274	19.981	20.622	0.487
493.500	315.186	80.001	20.008	100.265	19.980	20.714	0.518
494.000	315.434	80.000	20.007	100.269	19.979	20.987	0.520
494.500	315.701	80.000	20.007	100.276	19.978	21.098	0.508
495.000	315.952	80.001	20.008	100.277	19.976	21.385	0.516
495.500	316.167	80.000	20.008	100.276	19.974	21.756	0.492
496.000	316.439	80.000	20.008	100.272	19.974	21.761	0.477
496.500	316.666	80.001	20.008	100.266	19.970	22.411	0.492
497.000	316.926	80.002	20.008	100.263	19.969	22.564	0.493
497.500	317.206	80.000	20.007	100.269	19.968	22.672	0.514
498.000	317.424	80.000	20.007	100.278	19.966	22.940	0.520
498.500	317.713	80.000	20.007	100.289	19.966	22.954	0.503
499.000	317.950	80.000	20.007	100.296	19.965	23.188	0.516
499.500	318.190	80.001	20.008	100.297	19.963	23.470	0.501
500.000	318.467	80.000	20.008	100.296	19.963	23.440	0.497
500.500	318.698	80.001	20.007	100.295	19.960	24.004	0.513
501.000	318.927	80.001	20.007	100.294	19.958	24.345	0.484
501.500	319.231	79.999	20.007	100.294	19.955	24.767	0.496
502.000	319.476	80.001	20.007	100.297	19.954	24.975	0.541
502.500	319.685	80.001	20.008	100.295	19.952	25.150	0.502
503.000	319.955	80.000	20.007	100.288	19.950	25.489	0.467
503.500	320.204	80.000	20.008	100.280	19.947	25.978	0.499
504.000	320.461	80.001	20.008	100.275	19.943	26.595	0.512
504.500	320.697	80.000	20.008	100.275	19.939	27.359	0.499
505.000	320.922	80.001	20.007	100.278	19.932	28.405	0.477
505.500	321.173	80.001	20.007	100.289	19.927	29.141	0.469
506.000	321.455	80.002	20.007	100.299	19.925	29.509	0.504
506.500	321.676	80.000	20.008	100.304	19.918	30.619	0.518
507.000	321.950	80.001	20.007	100.305	19.916	31.043	0.499
507.500	322.171	80.001	20.008	100.304	19.914	31.359	0.495
508.000	322.433	80.002	20.008	100.302	19.906	32.631	0.489
508.500	322.650	80.000	20.008	100.302	19.905	32.712	0.481
509.000	322.910	80.001	20.007	100.310	19.902	33.196	0.478
509.500	323.197	80.001	20.008	100.318	19.900	33.582	0.512
510.000	323.433	80.001	20.007	100.324	19.897	33.929	0.535
510.500	323.679	80.000	20.007	100.325	19.894	34.445	0.503
511.000	323.910	80.001	20.007	100.317	19.890	35.068	0.479
511.500	324.161	80.000	20.008	100.303	19.889	35.220	0.479
512.001	324.437	80.000	20.008	100.294	19.888	35.516	0.504
512.501	324.657	80.001	20.007	100.288	19.884	36.120	0.511
513.000	324.925	80.001	20.007	100.288	19.881	36.643	0.492
513.500	325.168	80.000	20.007	100.293	19.878	37.036	0.499
514.000	325.427	80.001	20.007	100.293	19.876	37.380	0.506
514.501	325.678	80.001	20.008	100.280	19.871	38.191	0.506
515.000	325.927	80.001	20.007	100.264	19.867	38.752	0.505
515.500	326.173	80.002	20.008	100.249	19.863	39.501	0.498
516.000	326.447	80.000	20.007	100.241	19.857	40.482	0.508
516.500	326.680	80.001	20.008	100.242	19.854	40.968	0.513
517.000	326.925	80.002	20.007	100.256	19.848	41.884	0.492
517.500	327.188	80.001	20.008	100.271	19.848	41.807	0.493
518.000	327.436	80.000	20.007	100.286	19.844	42.499	0.510
518.500	327.700	80.000	20.008	100.287	19.839	43.306	0.512
519.000	327.925	80.002	20.008	100.290	19.838	43.525	0.501
519.500	328.191	79.999	20.008	100.290	19.831	44.542	0.490
520.000	328.445	80.001	20.007	100.297	19.829	44.934	0.505
520.500	328.695	80.002	20.007	100.304	19.826	45.366	0.512
521.000	328.941	80.000	20.007	100.313	19.824	45.688	0.500
521.500	329.169	80.001	20.007	100.315	19.819	46.487	0.485
522.000	329.447	80.001	20.007	100.308	19.816	46.996	0.490
522.501	329.714	80.001	20.008	100.293	19.813	47.431	0.526
523.000	329.936	80.001	20.008	100.280	19.809	48.023	0.517
523.500	330.193	80.001	20.007	100.280	19.807	48.369	0.483
524.000	330.429	80.001	20.007	100.287	19.800	49.549	0.486
524.500	330.671	80.002	20.007	100.296	19.794	50.378	0.485
525.000	330.909	80.002	20.007	100.303	19.792	50.690	0.479
525.500	331.192	80.001	20.008	100.304	19.783	52.277	0.501
526.000	331.425	80.002	20.008	100.296	19.776	53.381	0.519
526.500	331.688	80.001	20.008	100.282	19.768	54.633	0.506
527.000	331.985	80.001	20.007	100.281	19.757	56.370	0.528
527.500	332.182	80.001	20.007	100.284	19.751	57.259	0.527
528.000	332.437	80.000	20.008	100.296	19.741	58.994	0.473
528.500	332.676	80.000	20.007	100.312	19.734	60.035	0.473
529.000	332.923	80.002	20.008	100.327	19.727	61.089	0.490
529.500	333.169	80.002	20.007	100.335	19.722	61.947	0.489
530.000	333.426	80.001	20.007	100.340	19.718	62.630	0.498
530.500	333.687	80.002	20.008	100.341	19.709	64.098	0.511
531.000	333.879	80.001	20.007	100.341	19.705	64.684	0.486
531.500	334.191	80.001	20.008	100.341	19.699	65.611	0.479
532.000	334.417	80.002	20.007	100.341	19.695	66.261	0.521
532.500	334.643	80.001	20.007	100.335	19.691	66.989	0.495
533.000	334.881	80.001	20.008	100.328	19.685	67.888	0.458
533.500	335.167	80.001	20.007	100.314	19.677	69.206	0.494
534.000	335.393	80.001	20.008	100.301	19.673	69.844	0.518
534.500	335.667	80.001	20.008	100.293	19.667	70.755	0.506
535.000	335.902	80.002	20.007	100.292	19.661	71.770	0.504
535.500	336.186	80.000	20.007	100.293	19.655	72.654	0.514
536.000	336.405	80.002	20.007	100.295	19.646	74.061	0.511
536.500	336.687	80.001	20.007	100.291	19.640	75.119	0.502
537.000	336.935	80.002	20.008	100.284	19.631	76.572	0.516
537.500	337.215	80.002	20.008	100.275	19.625	77.474	0.529
538.000	337.436	80.002	20.007	100.271	19.616	78.854	0.514
538.500	337.710	80.001	20.007	100.276	19.611	79.747	0.498
539.000	337.921	80.001	20.008	100.289	19.602	81.074	0.490
539.500	338.201	80.001	20.007	100.303	19.595	82.294	0.488
540.000	338.419	80.002	20.008	100.313	19.586	83.605	0.494
540.500	338.698	80.001	20.007	100.317	19.580	84.613	0.497
541.000	338.962	80.002	20.008	100.317	19.573	85.722	0.520
541.500	339.218	80.002	20.007	100.315	19.561	87.709	0.532
542.000	339.464	80.001	20.008	100.317	19.553	88.970	0.511
542.500	339.694	80.002	20.007	100.322	19.542	90.676	0.489
543.000	339.950	80.001	20.007	100.330	19.533	92.084	0.481
543.500	340.215	80.002	20.007	100.336	19.526	93.212	0.503
544.000	340.442	80.000	20.007	100.334	19.516	94.844	0.506
544.500	340.712	80.001	20.008	100.327	19.504	96.770	0.494
545.000	340.958	80.003	20.008	100.319	19.495	98.170	0.507
545.500	341.215	79.999	20.007	100.319	19.487	99.442	0.510
546.000	341.461	80.002	20.008	100.320	19.476	101.331	0.503
546.500	341.691	80.001	20.007	100.327	19.466	102.879	0.489
547.000	341.935	80.002	20.007	100.333	19.457	104.272	0.475
547.500	342.227	80.000	20.007	100.333	19.450	105.457	0.505
548.000	342.491	80.002	20.008	100.326	19.443	106.622	0.546
548.500	342.699	80.002	20.008	100.317	19.434	107.928	0.515
549.000	342.940	80.000	20.007	100.312	19.427	109.038	0.460
549.500	343.206	80.002	20.008	100.314	19.419	110.306	0.478
550.000	343.443	80.001	20.007	100.321	19.413	111.280	0.505
550.500	343.699	80.003	20.007	100.323	19.407	112.328	0.498
551.000	343.967	80.001	20.007	100.323	19.398	113.685	0.508
551.500	344.210	80.002	20.008	100.317	19.394	114.339	0.517
552.000	344.430	80.001	20.007	100.301	19.385	115.847	0.487
552.500	344.708	80.002	20.008	100.286	19.379	116.744	0.481
553.000	344.928	80.001	20.008	100.281	19.372	117.843	0.498
553.500	345.176	80.001	20.007	100.281	19.364	119.083	0.482
554.000	345.465	80.001	20.008	100.284	19.355	120.524	0.502
554.500	345.710	80.000	20.008	100.291	19.348	121.643	0.536
555.000	345.945	80.002	20.008	100.298	19.339	123.075	0.508
555.500	346.218	80.001	20.008	100.301	19.331	124.404	0.494
556.000	346.487	80.002	20.008	100.301	19.319	126.286	0.525
556.500	346.741	80.000	20.007	100.302	19.309	127.853	0.532
557.000	346.976	80.002	20.008	100.308	19.303	128.799	0.506
557.500	347.208	80.001	20.008	100.315	19.293	130.399	0.478
558.000	347.448	80.000	20.007	100.321	19.289	131.130	0.469
558.500	347.674	80.001	20.008	100.328	19.278	132.934	0.469
559.000	347.949	80.000	20.008	100.333	19.269	134.361	0.484
559.500	348.180	80.001	20.008	100.336	19.258	136.128	0.503
560.000	348.415	80.001	20.008	100.338	19.249	137.445	0.486
560.500	348.680	80.001	20.008	100.341	19.237	139.448	0.483
561.000	348.942	80.000	20.008	100.342	19.226	141.158	0.514
561.500	349.168	80.001	20.007	100.342	19.215	142.972	0.508
562.000	349.451	80.001	20.008	100.339	19.204	144.665	0.498
562.500	349.664	80.000	20.007	100.337	19.196	145.989	0.503
563.000	349.961	80.001	20.008	100.336	19.182	148.253	0.503
563.500	350.169	80.002	20.008	100.341	19.177	149.101	0.507
564.001	350.416	79.999	20.007	100.349	19.169	150.280	0.480
564.501	350.681	80.002	20.007	100.358	19.166	150.900	0.483
565.001	350.925	80.001	20.008	100.359	19.157	152.346	0.510
565.500	351.177	80.000	20.007	100.353	19.149	153.517	0.502
566.000	351.411	80.001	20.008	100.340	19.145	154.116	0.491
566.500	351.677	80.001	20.008	100.324	19.139	155.105	0.493
567.000	351.921	80.001	20.007	100.310	19.131	156.456	0.505
567.500	352.190	80.002	20.008	100.301	19.122	157.815	0.511
568.000	352.435	80.000	20.007	100.302	19.117	158.592	0.513
568.500	352.670	80.002	20.008	100.301	19.109	159.899	0.497
569.000	352.902	80.000	20.007	100.301	19.100	161.237	0.474
569.500	353.144	80.001	20.008	100.302	19.091	162.723	0.470
570.000	353.422	80.001	20.008	100.300	19.085	163.650	0.497
570.500	353.616	80.002	20.008	100.304	19.075	165.264	0.496
571.000	353.862	80.001	20.008	100.313	19.068	166.492	0.456
571.500	354.139	80.001	20.007	100.322	19.057	168.250	0.482
572.000	354.372	80.002	20.007	100.330	19.050	169.368	0.516
572.500	354.637	80.001	20.008	100.331	19.044	170.357	0.504
573.000	354.859	80.002	20.008	100.331	19.037	171.443	0.493
573.500	355.109	80.001	20.008	100.330	19.027	173.025	0.479
574.000	355.344	80.002	20.008	100.334	19.020	174.197	0.478
574.500	355.635	80.001	20.008	100.342	19.012	175.419	0.505
575.000	355.870	80.000	20.008	100.357	19.006	176.373	0.526
575.500	356.120	80.001	20.007	100.367	18.998	177.642	0.506
576.000	356.351	80.002	20.008	100.373	18.989	179.062	0.483
576.500	356.608	80.001	20.008	100.374	18.981	180.346	0.484
577.000	356.875	80.002	20.008	100.372	18.975	181.354	0.506
577.500	357.093	80.001	20.008	100.371	18.968	182.442	0.504
578.000	357.301	80.001	20.007	100.369	18.966	182.827	0.455
578.500	357.562	80.001	20.007	100.369	18.959	183.910	0.448
579.000	357.804	80.001	20.008	100.363	18.957	184.189	0.486
579.500	358.065	80.001	20.008	100.356	18.947	185.809	0.503
580.001	358.347	80.000	20.008	100.342	18.943	186.564	0.523
580.500	358.586	80.002	20.008	100.330	18.937	187.411	0.532
581.000	358.821	80.002	20.008	100.324	18.930	188.526	0.498
581.500	359.090	80.000	20.008	100.325	18.925	189.381	0.489
582.000	359.317	80.002	20.007	100.326	18.918	190.463	0.500
582.500	359.561	80.002	20.008	100.333	18.914	191.161	0.483
583.000	359.852	80.001	20.008	100.338	18.910	191.674	0.503
583.500	360.089	80.002	20.008	100.336	18.904	192.799	0.532
584.000	360.302	80.001	20.008	100.336	18.900	193.341	0.489
584.500	360.598	80.002	20.008	100.338	18.894	194.243	0.480
585.000	360.798	80.001	20.008	100.347	18.889	195.125	0.503
585.500	361.089	80.001	20.008	100.355	18.886	195.610	0.493
586.000	361.301	80.002	20.007	100.362	18.879	196.614	0.497
586.501	361.529	80.002	20.008	100.363	18.874	197.493	0.472
587.000	361.796	80.002	20.008	100.361	18.869	198.223	0.468
587.500	362.056	80.002	20.008	100.358	18.865	198.891	0.511
588.000	362.311	80.001	20.008	100.359	18.861	199.615	0.521
588.500	362.544	80.001	20.008	100.366	18.852	201.023	0.501
589.000	362.768	80.002	20.008	100.376	18.850	201.355	0.473
589.500	363.057	80.001	20.007	100.384	18.842	202.602	0.486
590.000	363.278	80.002	20.008	100.385	18.834	203.778	0.511
590.500	363.499	80.001	20.008	100.377	18.829	204.586	0.475
591.000	363.766	80.001	20.008	100.365	18.823	205.545	0.465
591.500	364.022	80.001	20.008	100.357	18.815	206.844	0.506
592.000	364.232	80.002	20.007	100.359	18.809	207.746	0.495
592.500	364.461	80.002	20.008	100.369	18.804	208.633	0.453
593.000	364.727	80.001	20.007	100.385	18.799	209.454	0.467
593.500	365.007	80.001	20.008	100.397	18.795	210.088	0.520
594.000	365.235	80.002	20.007	100.402	18.791	210.747	0.527
594.500	365.471	80.001	20.008	100.400	18.784	211.831	0.486
595.000	365.721	80.002	20.008	100.391	18.778	212.867	0.475
595.500	365.958	80.001	20.008	100.384	18.774	213.536	0.486
596.000	366.215	80.002	20.007	100.380	18.771	213.942	0.490
596.500	366.416	80.002	20.007	100.386	18.765	215.001	0.476
597.000	366.684	80.000	20.007	100.387	18.761	215.593	0.464
597.500	366.920	80.000	20.008	100.385	18.758	216.033	0.486
598.000	367.199	80.002	20.008	100.378	18.751	217.184	0.509
598.500	367.417	80.000	20.008	100.369	18.746	218.000	0.506
599.001	367.663	80.001	20.008	100.363	18.738	219.276	0.480
599.500	367.927	80.002	20.007	100.365	18.735	219.824	0.487
600.000	368.184	80.001	20.008	100.367	18.728	220.943	0.516
600.500	368.421	80.000	20.008	100.376	18.728	220.932	0.508
601.000	368.637	80.002	20.007	100.381	18.723	221.652	0.474
601.500	368.939	80.001	20.008	100.374	18.723	221.616	0.486
602.000	369.157	80.002	20.008	100.365	18.723	221.545	0.519
602.500	369.402	80.002	20.007	100.357	18.724	221.463	0.491
603.000	369.635	80.003	20.008	100.348	18.724	221.322	0.470
603.500	369.890	80.001	20.007	100.342	18.724	221.337	0.483
604.000	370.123	80.003	20.008	100.342	18.722	221.608	0.488
604.500	370.357	80.001	20.008	100.342	18.720	221.887	0.477
605.000	370.639	80.002	20.008	100.341	18.721	221.631	0.492
605.500	370.896	80.001	20.008	100.340	18.718	222.179	0.528
606.000	371.115	80.002	20.007	100.339	18.716	222.601	0.508
606.500	371.394	80.002	20.008	100.337	18.714	223.048	0.487
607.000	371.626	80.001	20.008	100.342	18.713	223.158	0.504
607.500	371.902	80.001	20.007	100.352	18.716	222.751	0.509
608.001	372.106	80.002	20.008	100.363	18.716	222.614	0.494
608.500	372.346	80.000	20.008	100.378	18.711	223.371	0.462
609.000	372.608	80.002	20.007	100.388	18.709	223.807	0.473
609.500	372.853	80.002	20.009	100.387	18.704	224.658	0.504
610.000	373.136	80.001	20.007	100.384	18.703	224.841	0.517
610.500	373.347	80.003	20.007	100.379	18.702	225.011	0.511
611.000	373.629	80.001	20.007	100.369	18.707	224.335	0.493
611.500	373.879	80.001	20.007	100.367	18.711	223.630	0.513
612.000	374.136	80.001	20.009	100.373	18.719	222.401	0.520
612.500	374.402	80.003	20.010	100.395	18.727	221.121	0.515
613.000	374.678	79.999	20.007	100.413	18.739	219.091	0.532
613.500	374.951	80.002	20.007	100.406	18.749	217.524	0.546
614.000	375.159	80.002	20.009	100.395	18.762	215.441	0.515
614.500	375.420	80.001	20.008	100.393	18.773	213.635	0.475
615.000	375.653	80.002	20.007	100.370	18.779	212.639	0.481
615.500	375.933	80.001	20.008	100.342	18.790	210.897	0.503
616.000	376.164	80.002	20.008	100.330	18.796	209.906	0.512
616.500	376.466	80.001	20.007	100.312	18.806	208.361	0.522
617.001	376.617	80.001	20.008	100.281	18.818	206.544	0.493
617.500	376.900	80.001	20.007	100.256	18.824	205.570	0.443
618.000	377.116	80.000	20.009	100.255	18.833	204.055	0.467
618.500	377.403	80.002	20.008	100.283	18.846	202.078	0.501
619.001	377.654	80.001	20.008	100.319	18.860	199.904	0.521
619.500	377.915	80.002	20.007	100.355	18.871	198.030	0.525
620.000	378.149	80.001	20.008	100.371	18.883	196.071	0.504
620.500	378.433	80.001	20.008	100.370	18.892	194.661	0.506
621.000	378.637	80.002	20.008	100.351	18.905	192.593	0.503
621.500	378.924	80.000	20.008	100.336	18.915	191.075	0.490
622.000	379.215	80.002	20.007	100.332	18.927	189.040	0.535
622.500	379.452	80.001	20.008	100.346	18.941	186.822	0.553
623.000	379.700	80.001	20.008	100.375	18.951	185.220	0.507
623.500	379.999	80.002	20.007	100.404	18.966	182.915	0.516
624.000	380.247	80.001	20.007	100.419	18.975	181.323	0.547
624.501	380.495	80.001	20.008	100.427	18.986	179.540	0.521
625.000	380.746	80.003	20.008	100.432	18.996	177.963	0.497
625.500	380.972	80.000	20.008	100.426	19.007	176.317	0.488
626.000	381.209	80.002	20.008	100.414	19.018	174.582	0.470
626.500	381.505	80.001	20.007	100.400	19.026	173.318	0.498
627.000	381.752	80.001	20.009	100.387	19.034	171.894	0.537
627.500	381.974	80.001	20.008	100.384	19.043	170.459	0.506
628.000	382.271	80.000	20.007	100.381	19.054	168.777	0.494
628.500	382.467	80.001	20.008	100.375	19.062	167.484	0.506
629.000	382.734	80.002	20.008	100.374	19.074	165.587	0.478
629.500	382.997	80.000	20.008	100.383	19.086	163.726	0.496
630.000	383.243	80.001	20.007	100.388	19.096	162.106	0.519
630.500	383.510	80.001	20.008	100.399	19.104	160.831	0.511
631.000	383.730	80.002	20.007	100.418	19.114	159.214	0.500
631.500	384.001	80.000	20.007	100.433	19.125	157.466	0.489
632.000	384.239	80.002	20.008	100.430	19.132	156.278	0.500
632.500	384.480	80.001	20.008	100.420	19.143	154.520	0.494
633.000	384.787	80.001	20.008	100.405	19.150	153.369	0.513
633.500	385.027	80.001	20.008	100.395	19.162	151.585	0.547
634.000	385.262	80.001	20.008	100.396	19.168	150.550	0.511
634.500	385.558	80.001	20.008	100.408	19.179	148.810	0.503
635.000	385.818	80.002	20.008	100.418	19.187	147.508	0.543
635.500	386.077	80.001	20.007	100.426	19.197	145.937	0.537
636.000	386.342	80.001	20.008	100.420	19.206	144.477	0.522
636.500	386.581	80.001	20.008	100.410	19.215	143.010	0.514
637.000	386.765	80.002	20.007	100.396	19.221	142.006	0.463
637.500	387.032	80.000	20.008	100.387	19.230	140.542	0.437
638.000	387.318	80.002	20.008	100.383	19.238	139.356	0.502
638.500	387.594	80.002	20.007	100.386	19.247	137.908	0.558
639.000	387.848	80.001	20.008	100.390	19.258	136.095	0.546
639.500	388.113	79.999	20.007	100.394	19.265	134.906	0.524
640.000	388.351	80.001	20.008	100.394	19.275	133.289	0.511
640.500	388.608	80.001	20.008	100.388	19.281	132.301	0.499
641.000	388.875	80.001	20.008	100.387	19.293	130.440	0.510
641.500	389.114	80.002	20.008	100.391	19.300	129.414	0.515
642.000	389.358	80.002	20.008	100.395	19.310	127.848	0.494
642.500	389.635	80.001	20.007	100.402	19.319	126.326	0.502
643.000	389.856	80.001	20.007	100.404	19.329	124.650	0.510
643.500	390.061	80.002	20.008	100.401	19.338	123.340	0.462
644.000	390.362	80.001	20.008	100.389	19.346	122.070	0.466
644.500	390.613	80.001	20.008	100.381	19.355	120.546	0.529
645.000	390.880	80.001	20.008	100.375	19.362	119.485	0.535
645.500	391.156	80.001	20.007	100.380	19.369	118.263	0.531
646.000	391.410	80.001	20.007	100.389	19.380	116.456	0.537
646.500	391.663	80.001	20.007	100.400	19.387	115.425	0.518
647.000	391.890	80.001	20.008	100.405	19.398	113.750	0.494
647.500	392.148	80.001	20.007	100.405	19.407	112.326	0.483
648.000	392.416	80.001	20.008	100.392	19.414	111.079	0.505
648.500	392.711	80.002	20.008	100.376	19.421	110.129	0.544
649.000	392.941	80.001	20.008	100.363	19.429	108.773	0.544
649.500	393.159	80.001	20.009	100.353	19.441	106.954	0.487
650.001	393.403	80.000	20.007	100.361	19.447	105.908	0.455
650.501	393.653	80.000	20.006	100.376	19.456	104.503	0.478
651.001	393.911	80.002	20.008	100.376	19.464	103.241	0.501
651.500	394.151	80.001	20.008	100.364	19.472	101.915	0.503
652.000	394.423	80.001	20.008	100.351	19.481	100.499	0.505
652.500	394.691	80.001	20.008	100.328	19.490	99.017	0.526
653.000	394.969	80.001	20.008	100.312	19.499	97.561	0.543
653.500	395.192	80.001	20.008	100.313	19.505	96.538	0.523
654.000	395.404	80.000	20.007	100.325	19.516	94.819	0.468
654.500	395.700	80.002	20.007	100.335	19.523	93.770	0.472
655.000	395.972	79.999	20.007	100.335	19.530	92.633	0.539
655.500	396.187	80.001	20.009	100.319	19.539	91.252	0.528
656.000	396.460	79.999	20.012	100.307	19.546	90.137	0.487
656.500	396.714	80.002	20.003	100.344	19.552	89.092	0.507
657.000	396.964	80.001	20.010	100.336	19.563	87.454	0.515
657.500	397.225	80.001	20.009	100.311	19.572	85.952	0.507
658.000	397.460	80.001	20.008	100.305	19.579	84.777	0.503
658.500	397.722	80.000	20.008	100.304	19.587	83.614	0.496
659.000	397.951	79.999	20.008	100.259	19.594	82.359	0.495
659.500	398.224	80.000	20.008	100.265	19.606	80.515	0.496
660.000	398.475	80.000	20.009	100.291	19.616	78.982	0.512
660.500	398.717	80.001	20.008	100.303	19.624	77.611	0.509
661.000	398.949	80.000	20.009	100.313	19.632	76.320	0.484
661.500	399.201	80.000	20.007	100.336	19.642	74.698	0.479
662.000	399.409	80.000	20.006	100.370	19.650	73.523	0.472
662.500	399.724	79.999	20.007	100.397	19.658	72.227	0.492
663.000	399.964	80.002	20.007	100.417	19.665	71.048	0.539
663.500	400.228	80.001	20.008	100.421	19.671	70.152	0.529
664.000	400.478	80.000	20.007	100.405	19.679	68.766	0.509
664.500	400.725	80.001	20.007	100.373	19.686	67.715	0.505
665.000	400.975	80.000	20.008	100.346	19.698	65.872	0.496
665.500	401.265	80.001	20.008	100.328	19.700	65.413	0.519
666.000	401.486	80.001	20.008	100.320	19.713	63.437	0.526
666.500	401.718	80.000	20.007	100.312	19.716	62.949	0.482
667.000	402.029	80.000	20.007	100.311	19.723	61.744	0.498
667.500	402.242	80.000	20.008	100.318	19.732	60.441	0.534
668.000	402.492	80.001	20.008	100.334	19.740	59.129	0.493
668.500	402.751	80.001	20.007	100.348	19.747	57.974	0.486
669.000	402.982	80.002	20.007	100.361	19.752	57.193	0.499
669.500	403.226	80.000	20.007	100.363	19.761	55.788	0.483
670.000	403.516	80.000	20.008	100.362	19.768	54.631	0.505
670.500	403.706	80.002	20.008	100.355	19.774	53.629	0.507
671.000	403.946	80.001	20.007	100.350	19.782	52.422	0.455
671.500	404.158	80.001	20.007	100.345	19.786	51.760	0.441
672.000	404.381	80.000	20.007	100.345	19.794	50.475	0.443
672.500	404.569	80.000	20.007	100.344	19.800	49.469	0.423
673.000	404.890	80.001	20.007	100.340	19.803	49.017	0.460
673.500	405.128	80.001	20.008	100.329	19.813	47.426	0.534
674.000	405.333	80.001	20.008	100.319	19.820	46.304	0.501
674.500	405.607	80.001	20.008	100.311	19.825	45.490	0.462
675.000	405.846	80.001	20.008	100.310	19.832	44.407	0.496
675.500	406.091	80.000	20.007	100.314	19.836	43.718	0.498
676.000	406.356	80.002	20.007	100.322	19.843	42.691	0.496
676.500	406.639	80.000	20.007	100.329	19.850	41.491	0.529
677.000	406.874	80.000	20.007	100.335	19.855	40.685	0.533
677.500	407.097	80.000	20.008	100.329	19.860	39.936	0.488
678.000	407.362	80.001	20.008	100.323	19.866	38.930	0.473
678.500	407.617	80.002	20.008	100.323	19.870	38.349	0.504
679.000	407.842	80.000	20.008	100.331	19.873	37.899	0.501
679.500	408.086	80.000	20.007	100.338	19.880	36.724	0.475
680.000	408.319	80.001	20.007	100.344	19.883	36.204	0.473
680.500	408.608	80.000	20.007	100.343	19.893	34.606	0.499
681.000	408.837	80.001	20.007	100.335	19.895	34.350	0.520
681.500	409.077	80.001	20.008	100.321	19.899	33.684	0.493
682.000	409.355	79.999	20.008	100.307	19.905	32.809	0.493
682.500	409.527	80.002	20.007	100.304	19.909	32.114	0.484
683.000	409.822	80.000	20.007	100.312	19.912	31.547	0.459
683.500	410.042	80.001	20.007	100.319	19.921	30.161	0.491
684.000	410.295	80.001	20.008	100.327	19.925	29.462	0.494
684.500	410.550	80.001	20.007	100.332	19.929	28.837	0.491
685.000	410.783	80.001	20.008	100.328	19.935	27.984	0.498
685.500	410.974	80.001	20.007	100.320	19.937	27.675	0.456
686.000	411.257	80.002	20.008	100.313	19.944	26.588	0.449
686.500	411.491	80.002	20.008	100.310	19.944	26.448	0.495
687.000	411.750	80.001	20.008	100.314	19.950	25.595	0.505
687.500	411.981	80.002	20.007	100.319	19.952	25.280	0.492
688.000	412.214	80.002	20.007	100.320	19.957	24.444	0.477
688.500	412.492	80.002	20.008	100.319	19.961	23.835	0.488
689.000	412.645	80.002	20.008	100.308	19.965	23.154	0.471
689.501	412.953	80.002	20.008	100.293	19.969	22.477	0.445
690.000	413.153	80.000	20.008	100.288	19.971	22.216	0.484
690.500	413.432	80.001	20.008	100.288	19.973	21.856	0.493
691.000	413.669	80.000	20.007	100.295	19.979	20.959	0.498
691.500	413.925	80.000	20.007	100.301	19.982	20.518	0.505
692.000	414.130	80.002	20.007	100.305	19.984	20.173	0.477
692.500	414.365	80.001	20.008	100.305	19.985	19.909	0.450
693.001	414.600	80.001	20.007	100.302	19.992	18.839	0.455
693.500	414.830	80.002	20.008	100.296	19.993	18.674	0.467
694.000	415.076	80.001	20.007	100.298	19.996	18.158	0.471
694.500	415.291	80.001	20.007	100.306	19.999	17.777	0.469
695.000	415.519	80.002	20.007	100.310	20.001	17.333	0.452
695.500	415.760	80.001	20.007	100.313	20.005	16.694	0.456
696.000	415.991	80.001	20.008	100.312	20.006	16.636	0.470
696.500	416.248	80.001	20.007	100.305	20.008	16.269	0.480
697.000	416.477	80.000	20.008	100.290	20.010	16.000	0.487
697.500	416.741	80.001	20.008	100.287	20.014	15.289	0.490
698.000	417.014	80.001	20.007	100.288	20.015	15.121	0.515
698.500	417.262	80.002	20.007	100.293	20.019	14.561	0.529
699.000	417.515	79.999	20.008	100.303	20.020	14.391	0.511
699.500	417.766	80.001	20.007	100.312	20.025	13.587	0.503
700.000	417.970	80.002	20.007	100.312	20.027	13.326	0.479
700.500	418.205	80.001	20.007	100.310	20.029	12.995	0.447
701.000	418.427	80.001	20.008	100.298	20.034	12.102	0.448
701.500	418.665	80.002	20.008	100.292	20.033	12.369	0.458
702.000	418.959	80.001	20.008	100.294	20.035	11.925	0.496
702.500	419.220	80.002	20.007	100.299	20.035	11.952	0.543
703.000	419.406	80.001	20.008	100.306	20.040	11.202	0.501
703.500	419.665	80.001	20.007	100.313	20.040	11.231	0.446
704.000	419.872	80.001	20.007	100.315	20.041	11.055	0.456
704.500	420.163	80.002	20.008	100.306	20.044	10.556	0.482
705.000	420.389	80.001	20.008	100.298	20.045	10.401	0.507
705.500	420.688	80.002	20.007	100.294	20.044	10.618	0.521
706.000	420.907	80.002	20.008	100.294	20.044	10.474	0.521
706.500	421.139	80.001	20.007	100.295	20.049	9.722	0.485
707.000	421.404	80.001	20.007	100.298	20.051	9.495	0.474
707.500	421.685	80.001	20.008	100.294	20.050	9.636	0.521
708.000	421.886	80.001	20.007	100.285	20.052	9.254	0.513
708.501	422.186	80.001	20.008	100.278	20.051	9.399	0.491
709.000	422.389	80.000	20.008	100.272	20.055	8.853	0.502
709.500	422.665	80.002	20.008	100.274	20.055	8.726	0.491
710.000	422.894	80.000	20.007	100.282	20.055	8.736	0.492
710.500	423.178	80.001	20.007	100.288	20.057	8.544	0.509
711.000	423.435	80.002	20.007	100.292	20.057	8.403	0.527
711.500	423.636	80.001	20.008	100.290	20.058	8.297	0.499
712.000	423.806	80.001	20.007	100.282	20.056	8.550	0.414
712.500	424.054	80.002	20.008	100.273	20.061	7.818	0.395
713.000	424.345	80.001	20.008	100.266	20.061	7.818	0.478
713.500	424.616	80.002	20.008	100.263	20.062	7.589	0.550
714.000	424.795	80.002	20.007	100.267	20.065	7.256	0.506
714.500	425.096	80.001	20.008	100.273	20.064	7.347	0.465
715.001	425.337	80.002	20.008	100.280	20.065	7.235	0.511
715.500	425.586	80.001	20.007	100.281	20.065	7.134	0.516
716.000	425.839	80.001	20.008	100.276	20.066	7.060	0.496
716.500	426.080	80.002	20.008	100.266	20.069	6.554	0.498
717.000	426.333	80.000	20.008	100.259	20.068	6.636	0.494
717.500	426.573	80.002	20.008	100.254	20.069	6.629	0.494
718.000	426.855	80.003	20.008	100.259	20.068	6.673	0.508
718.500	427.106	80.001	20.008	100.270	20.069	6.544	0.528
719.000	427.322	80.000	20.007	100.279	20.070	6.364	0.500
719.500	427.561	80.002	20.007	100.279	20.071	6.182	0.461
720.001	427.801	80.002	20.008	100.275	20.072	6.047	0.467
720.500	428.064	80.002	20.008	100.268	20.073	5.898	0.491
721.000	428.312	80.000	20.008	100.260	20.077	5.264	0.507
721.500	428.517	80.001	20.007	100.258	20.075	5.589	0.483
722.000	428.794	80.002	20.007	100.261	20.074	5.784	0.468
722.500	429.096	80.000	20.008	100.266	20.076	5.507	0.530
723.000	429.321	80.002	20.007	100.274	20.077	5.335	0.552
723.500	429.568	80.002	20.008	100.277	20.078	5.163	0.500
724.000	429.807	80.001	20.008	100.276	20.078	5.166	0.480
724.500	430.056	80.000	20.008	100.269	20.080	4.853	0.487
725.000	430.349	80.003	20.007	100.268	20.077	5.332	0.514
725.501	430.587	80.000	20.008	100.262	20.078	5.184	0.536
726.001	430.810	80.002	20.007	100.263	20.076	5.481	0.496
726.501	431.078	80.001	20.007	100.268	20.080	4.850	0.476
727.000	431.268	80.001	20.007	100.276	20.079	4.954	0.474
727.500	431.547	80.002	20.008	100.275	20.080	4.833	0.464
728.000	431.835	80.001	20.008	100.275	20.079	4.877	0.518
728.500	432.073	80.000	20.008	100.275	20.081	4.675	0.546
729.000	432.318	80.002	20.008	100.276	20.081	4.675	0.505
729.500	432.556	80.001	20.008	100.278	20.081	4.662	0.483
730.000	432.838	80.001	20.007	100.284	20.080	4.715	0.501
730.500	433.118	80.003	20.008	100.285	20.080	4.823	0.541
731.000	433.338	80.000	20.007	100.283	20.078	5.133	0.531
731.500	433.585	80.002	20.007	100.275	20.081	4.630	0.484
732.000	433.835	79.999	20.008	100.261	20.081	4.691	0.482
732.500	434.085	80.001	20.008	100.255	20.083	4.368	0.499
733.000	434.309	80.001	20.008	100.252	20.081	4.661	0.487
733.500	434.549	80.001	20.007	100.253	20.082	4.483	0.469
734.000	434.814	80.002	20.008	100.256	20.082	4.432	0.484
734.500	435.038	80.000	20.007	100.263	20.084	4.199	0.496
735.001	435.336	80.002	20.008	100.261	20.083	4.307	0.506
735.500	435.540	80.001	20.008	100.256	20.085	3.973	0.512
736.000	435.819	80.002	20.007	100.249	20.086	3.845	0.492
736.501	436.050	80.001	20.008	100.247	20.087	3.626	0.496
737.000	436.342	80.001	20.008	100.247	20.088	3.532	0.517
737.500	436.611	80.001	20.008	100.250	20.089	3.383	0.542
738.000	436.869	80.001	20.008	100.257	20.087	3.650	0.544
738.501	437.107	80.001	20.007	100.263	20.088	3.481	0.512
739.000	437.360	80.002	20.008	100.263	20.089	3.379	0.494
739.500	437.597	80.000	20.007	100.259	20.088	3.477	0.491
740.000	437.858	80.002	20.008	100.258	20.089	3.410	0.494
740.500	438.069	80.001	20.008	100.258	20.090	3.147	0.484
741.000	438.326	80.002	20.007	100.262	20.088	3.512	0.469
741.500	438.586	80.000	20.008	100.267	20.088	3.505	0.492
742.000	438.843	80.002	20.007	100.276	20.090	3.259	0.517
742.500	439.071	79.999	20.007	100.277	20.090	3.201	0.502
743.000	439.320	80.001	20.008	100.269	20.091	2.992	0.481
743.500	439.530	80.001	20.008	100.260	20.092	2.867	0.468
744.000	439.821	80.002	20.007	100.255	20.088	3.535	0.480
744.500	440.128	80.001	20.008	100.251	20.089	3.288	0.550
745.000	440.350	80.001	20.007	100.252	20.091	3.046	0.564
745.500	440.558	80.000	20.007	100.265	20.092	2.944	0.479
746.000	440.838	80.001	20.007	100.270	20.091	3.066	0.459
746.500	441.079	80.000	20.007	100.269	20.091	3.089	0.504
747.000	441.299	80.001	20.008	100.263	20.093	2.698	0.491
747.500	441.576	80.000	20.008	100.260	20.095	2.411	0.479
748.000	441.792	80.000	20.007	100.253	20.092	2.809	0.495
748.500	442.060	80.002	20.008	100.254	20.092	2.928	0.489
749.000	442.308	80.000	20.007	100.262	20.092	2.826	0.500
749.500	442.578	80.000	20.007	100.276	20.093	2.641	0.517
750.000	442.804	80.002	20.007	100.278	20.093	2.748	0.507
750.500	443.076	80.000	20.007	100.279	20.094	2.627	0.497
751.000	443.343	80.002	20.007	100.278	20.095	2.468	0.519
751.501	443.566	80.000	20.008	100.270	20.093	2.735	0.515
752.000	443.868	80.001	20.007	100.263	20.095	2.472	0.507
752.500	444.090	80.000	20.008	100.265	20.097	2.067	0.524
753.001	444.331	80.001	20.007	100.272	20.095	2.361	0.493
753.500	444.616	80.000	20.007	100.280	20.093	2.661	0.495
754.000	444.833	80.001	20.008	100.287	20.094	2.532	0.514
754.500	445.067	80.000	20.008	100.288	20.094	2.492	0.477
755.000	445.352	80.001	20.007	100.284	20.093	2.681	0.485
755.500	445.560	80.002	20.008	100.276	20.092	2.806	0.506
756.000	445.903	80.001	20.008	100.267	20.094	2.540	0.522
756.500	446.062	80.001	20.007	100.262	20.094	2.519	0.526
757.000	446.304	80.001	20.007	100.265	20.092	2.890	0.451
757.500	446.571	80.000	20.007	100.265	20.094	2.586	0.455
758.000	446.855	80.002	20.007	100.266	20.093	2.765	0.530
758.500	447.080	80.001	20.007	100.265	20.092	2.809	0.530
759.000	447.334	80.000	20.008	100.260	20.092	2.863	0.494
759.500	447.580	80.001	20.008	100.253	20.091	3.045	0.489
760.000	447.843	80.001	20.007	100.255	20.092	2.809	0.504
760.501	448.039	80.001	20.008	100.260	20.092	2.823	0.484
761.000	448.336	80.000	20.007	100.261	20.092	2.799	0.476
761.500	448.594	80.002	20.008	100.265	20.092	2.944	0.524
762.000	448.853	80.001	20.007	100.262	20.096	2.246	0.537
762.500	449.069	80.002	20.008	100.254	20.094	2.498	0.496
763.000	449.302	80.001	20.008	100.245	20.093	2.755	0.461
763.500	449.571	80.001	20.007	100.244	20.094	2.603	0.475
764.000	449.801	80.000	20.007	100.244	20.092	2.904	0.501
764.500	450.053	80.002	20.007	100.250	20.092	2.833	0.491
765.000	450.306	80.001	20.007	100.257	20.090	3.163	0.493
765.500	450.537	80.000	20.007	100.258	20.093	2.701	0.494
766.000	450.791	80.001	20.008	100.252	20.093	2.650	0.485
766.500	451.043	80.002	20.008	100.244	20.096	2.249	0.496
767.000	451.282	80.000	20.007	100.242	20.092	2.870	0.499
767.500	451.538	80.002	20.008	100.241	20.094	2.533	0.493
768.000	451.812	80.001	20.007	100.246	20.094	2.597	0.512
768.500	452.029	80.001	20.007	100.253	20.096	2.216	0.511
769.000	452.307	80.002	20.007	100.261	20.096	2.162	0.493
769.500	452.557	80.002	20.007	100.259	20.095	2.377	0.512
770.000	452.785	80.000	20.008	100.251	20.095	2.330	0.503
770.500	453.052	80.001	20.008	100.244	20.094	2.617	0.486
771.000	453.242	80.001	20.008	100.242	20.095	2.358	0.476
771.500	453.498	80.002	20.007	100.241	20.096	2.273	0.452
772.000	453.789	80.001	20.007	100.245	20.096	2.233	0.496
772.500	454.039	80.001	20.008	100.253	20.094	2.499	0.544
773.000	454.277	80.002	20.007	100.260	20.094	2.509	0.515
773.500	454.529	80.002	20.008	100.256	20.095	2.364	0.489
774.000	454.758	80.001	20.008	100.248	20.093	2.654	0.486
774.500	454.973	80.001	20.008	100.240	20.093	2.721	0.463
775.000	455.211	80.002	20.008	100.233	20.091	3.005	0.448
775.500	455.473	80.001	20.008	100.231	20.093	2.769	0.476
776.000	455.739	80.002	20.007	100.238	20.092	2.826	0.514
776.500	456.040	80.001	20.008	100.245	20.093	2.792	0.547
777.000	456.253	80.000	20.007	100.251	20.093	2.647	0.540
777.500	456.549	80.000	20.007	100.252	20.093	2.725	0.511
778.000	456.788	80.001	20.008	100.246	20.095	2.364	0.522
778.500	457.041	80.001	20.008	100.244	20.093	2.738	0.514
779.000	457.302	80.000	20.007	100.245	20.093	2.769	0.504
779.500	457.538	80.000	20.007	100.252	20.094	2.523	0.506
780.000	457.748	80.001	20.008	100.266	20.096	2.202	0.471
780.500	458.032	80.001	20.007	100.275	20.092	2.846	0.470
781.000	458.280	80.001	20.008	100.274	20.094	2.586	0.513
781.500	458.546	80.001	20.008	100.269	20.093	2.789	0.523
782.000	458.769	80.001	20.008	100.259	20.092	2.887	0.502
782.500	459.074	80.000	20.007	100.251	20.092	2.853	0.508
783.000	459.322	80.002	20.008	100.251	20.092	2.954	0.540
783.500	459.553	80.001	20.008	100.259	20.093	2.668	0.516
784.000	459.759	80.000	20.007	100.265	20.091	3.079	0.458
784.500	460.059	80.001	20.007	100.269	20.091	3.018	0.472
785.000	460.307	80.000	20.008	100.265	20.090	3.244	0.527
785.500	460.529	80.002	20.008	100.258	20.091	3.028	0.509
786.000	460.815	79.999	20.007	100.247	20.091	3.089	0.489
786.500	460.995	80.000	20.007	100.244	20.089	3.295	0.487
787.000	461.250	80.001	20.008	100.246	20.092	2.799	0.450
787.500	461.564	80.002	20.007	100.251	20.093	2.695	0.502
788.000	461.773	80.000	20.007	100.259	20.092	2.836	0.546
788.500	462.013	79.999	20.007	100.265	20.092	2.900	0.486
789.000	462.261	80.002	20.008	100.258	20.093	2.792	0.469
789.500	462.501	80.000	20.008	100.249	20.090	3.146	0.488
790.000	462.712	80.001	20.008	100.242	20.093	2.684	0.469
790.500	463.017	80.001	20.008	100.240	20.091	3.082	0.483
791.000	463.195	79.999	20.007	100.240	20.092	2.887	0.500
791.500	463.475	80.002	20.008	100.248	20.091	3.002	0.471
792.000	463.717	80.000	20.008	100.256	20.091	2.991	0.490
792.500	463.966	80.001	20.007	100.262	20.093	2.745	0.507
793.000	464.215	80.002	20.007	100.255	20.094	2.597	0.495
793.500	464.442	80.001	20.008	100.247	20.094	2.479	0.487
794.000	464.727	80.000	20.008	100.244	20.093	2.738	0.494
794.500	464.968	80.003	20.008	100.244	20.093	2.745	0.518
795.001	465.209	80.000	20.007	100.244	20.093	2.691	0.504
795.501	465.450	80.001	20.007	100.253	20.091	3.069	0.482
796.000	465.700	80.001	20.007	100.260	20.090	3.210	0.487
796.500	465.986	80.000	20.008	100.261	20.092	2.850	0.513
797.000	466.171	80.001	20.008	100.258	20.091	3.018	0.503
797.500	466.428	80.002	20.008	100.256	20.091	3.076	0.456
798.000	466.675	80.002	20.008	100.254	20.090	3.227	0.473
798.500	466.930	80.000	20.008	100.254	20.090	3.146	0.503
799.000	467.201	80.000	20.007	100.257	20.094	2.593	0.514
799.500	467.442	80.001	20.007	100.260	20.093	2.765	0.519
800.000	467.701	80.001	20.008	100.261	20.093	2.667	0.506
800.500	467.938	80.001	20.007	100.258	20.094	2.630	0.498
801.000	468.160	80.001	20.008	100.250	20.094	2.576	0.477
801.500	468.432	80.000	20.008	100.244	20.094	2.499	0.476
802.000	468.635	80.002	20.008	100.240	20.096	2.280	0.485
802.500	468.907	80.001	20.007	100.241	20.096	2.310	0.475
803.000	469.181	80.001	20.007	100.245	20.098	1.882	0.511
803.500	469.425	80.002	20.007	100.252	20.096	2.307	0.532
804.000	469.666	80.000	20.008	100.258	20.097	2.104	0.501
804.500	469.875	80.001	20.007	100.261	20.096	2.161	0.467
805.000	470.123	80.001	20.008	100.257	20.093	2.745	0.453
805.500	470.362	80.001	20.008	100.251	20.093	2.765	0.472
806.000	470.633	80.001	20.007	100.250	20.093	2.654	0.499
806.500	470.819	80.002	20.008	100.250	20.092	2.880	0.484
807.000	471.069	80.000	20.007	100.250	20.090	3.170	0.446
807.500	471.334	80.002	20.007	100.254	20.093	2.674	0.475
808.000	471.585	80.002	20.008	100.257	20.095	2.374	0.516
808.500	471.841	80.000	20.008	100.253	20.094	2.515	0.512
809.000	472.042	80.002	20.007	100.251	20.092	2.799	0.482
809.500	472.302	80.001	20.008	100.251	20.093	2.701	0.459
810.000	472.537	80.002	20.007	100.251	20.091	2.975	0.478
810.500	472.785	80.001	20.008	100.254	20.091	2.965	0.489
811.000	472.991	80.001	20.007	100.256	20.092	2.853	0.468
811.500	473.218	80.001	20.007	100.253	20.090	3.224	0.443
812.000	473.449	80.001	20.007	100.247	20.092	2.944	0.445
812.500	473.679	80.002	20.008	100.238	20.092	2.914	0.460
813.000	473.957	80.001	20.008	100.231	20.095	2.472	0.485
813.500	474.163	80.001	20.008	100.227	20.095	2.425	0.496
814.000	474.408	80.003	20.007	100.234	20.094	2.611	0.468
814.500	474.624	80.001	20.007	100.248	20.096	2.233	0.456
815.000	474.916	80.002	20.007	100.258	20.094	2.617	0.485
815.500	475.169	80.001	20.007	100.266	20.094	2.610	0.526
816.000	475.402	80.001	20.007	100.266	20.095	2.445	0.515
816.500	475.643	80.001	20.007	100.256	20.094	2.546	0.480
817.000	475.893	80.001	20.008	100.241	20.095	2.465	0.482
817.500	476.149	80.003	20.008	100.235	20.096	2.212	0.498
818.000	476.367	80.000	20.008	100.234	20.095	2.388	0.490
818.500	476.625	80.001	20.008	100.243	20.093	2.661	0.475
819.000	476.876	80.002	20.007	100.255	20.091	3.002	0.492
819.500	477.099	80.001	20.007	100.263	20.095	2.448	0.491
820.000	477.322	80.001	20.008	100.266	20.092	2.809	0.460
820.500	477.571	80.002	20.008	100.259	20.093	2.728	0.459
821.000	477.802	80.001	20.008	100.248	20.093	2.745	0.476
821.500	478.037	80.001	20.008	100.240	20.092	2.819	0.473
822.000	478.285	80.002	20.007	100.241	20.094	2.597	0.475
822.500	478.526	80.001	20.008	100.245	20.095	2.411	0.486
823.000	478.770	80.001	20.008	100.256	20.096	2.243	0.487
823.500	479.022	80.002	20.007	100.264	20.095	2.341	0.491
824.000	479.276	80.001	20.008	100.268	20.096	2.283	0.501
824.500	479.556	80.002	20.007	100.262	20.096	2.219	0.520
825.000	479.753	80.001	20.008	100.258	20.094	2.553	0.506
825.500	480.016	80.002	20.008	100.255	20.095	2.358	0.468
826.000	480.230	80.001	20.008	100.256	20.096	2.297	0.468
826.500	480.482	80.002	20.007	100.260	20.095	2.469	0.472
827.000	480.722	80.002	20.007	100.267	20.092	2.820	0.479
827.500	480.971	79.999	20.007	100.269	20.096	2.236	0.491
828.000	481.212	80.001	20.007	100.262	20.095	2.384	0.490
828.500	481.467	80.001	20.007	100.254	20.096	2.270	0.493
829.000	481.712	80.002	20.008	100.243	20.094	2.506	0.497
829.500	481.958	80.000	20.008	100.234	20.096	2.313	0.495
830.000	482.255	80.002	20.007	100.233	20.094	2.550	0.517
830.500	482.480	80.001	20.007	100.240	20.094	2.580	0.533
831.000	482.732	80.000	20.007	100.248	20.093	2.722	0.499
831.500	483.008	80.002	20.007	100.256	20.096	2.239	0.502
832.000	483.177	80.002	20.007	100.259	20.093	2.728	0.487
832.500	483.471	80.001	20.007	100.254	20.093	2.755	0.454
833.000	483.744	80.001	20.008	100.247	20.094	2.485	0.515
833.500	483.949	80.000	20.007	100.242	20.095	2.434	0.523
834.000	484.216	80.000	20.008	100.242	20.095	2.387	0.476
834.500	484.444	80.002	20.007	100.246	20.095	2.367	0.484
835.000	484.692	80.000	20.007	100.254	20.093	2.792	0.485
835.500	484.934	80.002	20.007	100.260	20.093	2.668	0.483
836.000	485.163	80.001	20.007	100.262	20.092	2.802	0.480
836.500	485.430	80.000	20.008	100.257	20.093	2.721	0.483
837.000	485.678	80.002	20.008	100.255	20.094	2.580	0.506
837.500	485.941	80.000	20.007	100.254	20.096	2.290	0.513
838.000	486.137	80.002	20.008	100.258	20.095	2.327	0.485
838.500	486.430	79.999	20.007	100.263	20.096	2.162	0.474
839.001	486.661	80.002	20.007	100.272	20.095	2.324	0.506
839.500	486.923	80.001	20.008	100.274	20.093	2.786	0.508
840.000	487.152	80.000	20.007	100.273	20.094	2.563	0.492
840.500	487.369	80.002	20.008	100.263	20.094	2.617	0.469
841.000	487.630	80.002	20.007	100.252	20.095	2.384	0.462
841.500	487.872	80.000	20.008	100.248	20.093	2.677	0.491
842.000	488.120	80.002	20.007	100.248	20.095	2.475	0.497
842.500	488.385	79.999	20.008	100.249	20.093	2.745	0.501
843.000	488.614	80.001	20.007	100.257	20.094	2.590	0.503
843.500	488.856	80.002	20.007	100.266	20.094	2.482	0.483
844.000	489.132	80.000	20.008	100.263	20.095	2.354	0.495
844.500	489.342	80.003	20.008	100.254	20.094	2.532	0.502
845.000	489.607	80.000	20.008	100.246	20.093	2.718	0.481
845.500	489.891	80.001	20.008	100.236	20.094	2.513	0.512
846.001	490.119	80.000	20.008	100.229	20.095	2.415	0.530
846.500	490.356	80.001	20.007	100.232	20.094	2.557	0.489
847.000	490.608	80.002	20.008	100.240	20.093	2.773	0.477
847.500	490.851	80.000	20.007	100.248	20.095	2.445	0.492
848.000	491.116	80.003	20.007	100.254	20.093	2.698	0.501
848.500	491.351	80.001	20.008	100.252	20.093	2.731	0.504
849.000	491.604	80.001	20.008	100.245	20.092	2.846	0.494
849.500	491.835	80.001	20.008	100.242	20.091	2.994	0.487
850.000	492.096	80.002	20.007	100.242	20.094	2.630	0.488
850.500	492.367	80.002	20.008	100.246	20.094	2.525	0.512
851.000	492.558	80.001	20.008	100.254	20.094	2.499	0.497
851.500	492.844	80.002	20.007	100.261	20.093	2.714	0.470
852.000	493.079	80.001	20.007	100.261	20.095	2.411	0.499
852.500	493.310	80.001	20.008	100.255	20.093	2.778	0.493
853.000	493.533	80.002	20.008	100.245	20.093	2.734	0.460
853.500	493.841	80.001	20.008	100.236	20.091	2.967	0.493
854.000	494.081	80.000	20.008	100.235	20.093	2.690	0.540
854.500	494.341	80.002	20.008	100.239	20.091	3.075	0.523
855.000	494.579	80.001	20.007	100.244	20.091	3.058	0.499
855.500	494.786	80.001	20.007	100.251	20.090	3.220	0.472
856.000	495.034	80.002	20.008	100.253	20.091	3.001	0.450
856.500	495.285	80.001	20.008	100.247	20.090	3.149	0.477
857.000	495.525	80.002	20.008	100.239	20.093	2.792	0.495
857.500	495.790	80.001	20.008	100.240	20.093	2.771	0.498
858.000	496.053	80.002	20.008	100.246	20.092	2.799	0.516
858.500	496.265	80.001	20.008	100.261	20.091	3.035	0.502
859.001	496.542	80.002	20.008	100.275	20.092	2.802	0.482
859.500	496.796	80.002	20.008	100.284	20.090	3.163	0.510
860.000	497.076	80.003	20.008	100.280	20.091	3.116	0.533
860.501	497.309	80.001	20.008	100.268	20.092	2.879	0.524
861.001	497.565	80.001	20.008	100.252	20.090	3.237	0.501
861.500	497.780	80.001	20.008	100.236	20.092	2.937	0.480
862.000	498.070	80.001	20.007	100.228	20.091	3.058	0.488
862.500	498.297	80.001	20.007	100.225	20.091	3.062	0.511
863.000	498.545	80.001	20.008	100.228	20.089	3.285	0.496
863.500	498.798	80.002	20.007	100.234	20.092	2.816	0.488
864.000	499.013	80.001	20.008	100.238	20.091	3.052	0.484
864.500	499.256	80.001	20.007	100.237	20.089	3.376	0.463
865.000	499.532	80.001	20.007	100.235	20.092	2.887	0.488
865.501	499.783	80.002	20.008	100.229	20.089	3.362	0.523
866.001	500.031	80.001	20.008	100.222	20.092	2.944	0.513
866.500	500.291	80.001	20.008	100.220	20.093	2.722	0.503
867.000	500.534	80.000	20.008	100.225	20.093	2.766	0.505
867.500	500.797	80.001	20.007	100.232	20.090	3.133	0.505
868.000	501.084	80.002	20.007	100.238	20.091	3.076	0.528
868.500	501.307	80.001	20.007	100.238	20.091	3.015	0.530
869.000	501.526	80.001	20.008	100.238	20.091	3.011	0.476
869.501	501.800	80.000	20.008	100.233	20.091	2.971	0.468
870.000	502.024	80.001	20.007	100.225	20.091	3.038	0.496
870.500	502.237	80.002	20.007	100.225	20.091	2.961	0.467
871.000	502.479	80.000	20.007	100.232	20.092	2.806	0.446
871.501	502.711	80.002	20.007	100.240	20.092	2.948	0.465
872.001	502.963	80.000	20.008	100.243	20.088	3.437	0.479
872.500	503.195	80.001	20.007	100.244	20.089	3.365	0.484
873.000	503.487	80.001	20.008	100.241	20.091	3.112	0.504
873.500	503.760	80.001	20.007	100.234	20.095	2.411	0.544
874.000	503.955	80.001	20.008	100.228	20.093	2.681	0.516
874.500	504.189	80.001	20.007	100.234	20.094	2.603	0.449
875.000	504.461	80.001	20.008	100.242	20.094	2.489	0.468
875.500	504.691	80.001	20.007	100.253	20.093	2.698	0.504
876.000	504.937	80.000	20.007	100.263	20.093	2.698	0.489
876.500	505.174	80.001	20.007	100.268	20.094	2.570	0.479
877.000	505.401	80.002	20.008	100.263	20.093	2.735	0.473
877.500	505.677	80.001	20.008	100.259	20.096	2.273	0.484
878.000	505.876	80.001	20.007	100.254	20.095	2.448	0.489
878.500	506.173	80.001	20.008	100.252	20.093	2.739	0.486
879.000	506.392	80.002	20.007	100.252	20.092	2.924	0.506
879.500	506.645	80.001	20.007	100.257	20.093	2.725	0.494
880.000	506.896	80.000	20.007	100.260	20.093	2.678	0.488
880.500	507.121	80.001	20.007	100.257	20.093	2.769	0.490
881.000	507.362	80.001	20.008	100.250	20.090	3.163	0.471
881.500	507.631	80.001	20.008	100.241	20.093	2.735	0.488
882.000	507.885	80.002	20.007	100.234	20.092	2.904	0.516
882.500	508.156	80.001	20.008	100.234	20.090	3.180	0.524
883.000	508.356	80.001	20.007	100.240	20.092	2.894	0.498
883.500	508.610	80.001	20.007	100.250	20.092	2.880	0.463
884.000	508.860	80.002	20.007	100.259	20.092	2.877	0.479
884.500	509.116	80.002	20.008	100.262	20.092	2.944	0.505
885.000	509.378	80.001	20.008	100.255	20.091	3.075	0.512
885.501	509.625	80.002	20.008	100.247	20.092	2.937	0.514
886.000	509.889	80.001	20.008	100.240	20.091	3.045	0.509
886.500	510.114	80.002	20.008	100.240	20.092	2.931	0.500
887.000	510.375	80.001	20.007	100.244	20.088	3.552	0.488
887.500	510.635	80.002	20.007	100.250	20.090	3.143	0.503
888.000	510.868	80.002	20.008	100.258	20.091	3.109	0.507
888.500	511.077	80.001	20.007	100.262	20.093	2.775	0.468
889.001	511.359	80.001	20.008	100.256	20.094	2.620	0.467
889.500	511.636	80.002	20.008	100.252	20.093	2.664	0.525
890.000	511.882	80.002	20.008	100.252	20.093	2.698	0.541
890.500	512.100	80.001	20.007	100.251	20.093	2.688	0.493
891.000	512.369	80.001	20.007	100.257	20.092	2.816	0.476
891.500	512.616	80.002	20.008	100.269	20.093	2.752	0.502
892.000	512.842	80.001	20.007	100.273	20.096	2.212	0.494
892.500	513.088	80.002	20.007	100.272	20.093	2.758	0.473
893.000	513.344	80.002	20.008	100.265	20.094	2.556	0.488
893.500	513.608	80.001	20.008	100.258	20.093	2.715	0.511
894.000	513.885	80.001	20.008	100.252	20.094	2.617	0.530
894.500	514.145	80.001	20.007	100.253	20.094	2.516	0.539
895.000	514.356	80.002	20.007	100.254	20.095	2.465	0.504
895.500	514.588	80.002	20.007	100.261	20.093	2.769	0.457
896.000	514.875	80.000	20.007	100.264	20.093	2.681	0.481
896.500	515.130	80.001	20.008	100.259	20.092	2.812	0.530
897.000	515.358	80.002	20.007	100.251	20.092	2.866	0.513
897.500	515.591	80.002	20.008	100.244	20.093	2.688	0.472
898.000	515.861	80.003	20.007	100.245	20.094	2.496	0.482
898.500	516.174	80.002	20.007	100.250	20.092	2.907	0.543
899.000	516.390	80.001	20.007	100.258	20.092	2.914	0.555
899.500	516.622	80.002	20.007	100.267	20.092	2.934	0.488
900.000	516.889	80.001	20.007	100.273	20.092	2.917	0.474
900.500	517.129	80.001	20.008	100.265	20.091	2.988	0.503
901.000	517.393	80.001	20.008	100.253	20.093	2.745	0.506
901.501	517.624	80.002	20.008	100.247	20.091	2.971	0.500
902.000	517.930	80.002	20.008	100.245	20.093	2.785	0.516
902.500	518.118	80.001	20.007	100.250	20.091	3.106	0.516
903.000	518.334	80.001	20.007	100.259	20.093	2.735	0.449
903.500	518.648	80.002	20.007	100.266	20.091	3.011	0.467
904.000	518.899	80.001	20.007	100.268	20.092	2.876	0.547
904.500	519.131	80.003	20.008	100.262	20.091	2.984	0.524
905.000	519.392	80.001	20.008	100.251	20.090	3.234	0.488
905.500	519.641	80.001	20.008	100.247	20.093	2.772	0.501
906.000	519.918	80.003	20.008	100.248	20.090	3.197	0.518
906.500	520.167	80.002	20.008	100.249	20.092	2.812	0.526
907.000	520.422	80.001	20.007	100.254	20.091	3.105	0.515
907.500	520.690	80.002	20.008	100.260	20.091	3.007	0.514
908.000	520.927	80.001	20.008	100.254	20.090	3.247	0.514
908.500	521.125	80.001	20.008	100.247	20.089	3.281	0.470
909.000	521.467	80.002	20.008	100.243	20.091	2.977	0.488
909.500	521.702	80.002	20.008	100.243	20.090	3.176	0.559
910.000	521.919	80.001	20.007	100.244	20.092	2.886	0.515
910.500	522.201	80.000	20.007	100.251	20.093	2.785	0.475
911.000	522.426	80.001	20.008	100.258	20.089	3.392	0.503
911.500	522.670	80.002	20.008	100.257	20.091	3.034	0.488
912.000	522.940	80.001	20.008	100.249	20.092	2.822	0.491
912.500	523.178	80.003	20.008	100.242	20.092	2.836	0.511
913.000	523.452	80.001	20.008	100.239	20.090	3.244	0.510
913.500	523.693	80.002	20.008	100.239	20.092	2.910	0.514
914.001	523.913	80.000	20.007	100.242	20.091	2.961	0.488
914.500	524.208	80.000	20.007	100.249	20.091	3.001	0.488
915.000	524.437	80.003	20.008	100.248	20.092	2.832	0.519
915.500	524.683	80.002	20.008	100.244	20.091	2.967	0.499
916.000	524.933	80.002	20.008	100.236	20.093	2.670	0.486
916.500	525.185	80.001	20.008	100.229	20.095	2.475	0.499
917.000	525.421	80.001	20.008	100.228	20.094	2.590	0.495
917.500	525.649	80.002	20.007	100.235	20.094	2.533	0.476
918.000	525.953	80.002	20.007	100.242	20.093	2.728	0.498
918.500	526.212	80.001	20.008	100.247	20.092	2.806	0.547
919.000	526.396	80.001	20.008	100.247	20.091	3.055	0.503
919.500	526.679	80.002	20.008	100.241	20.095	2.387	0.455
920.000	526.919	80.002	20.008	100.234	20.094	2.549	0.495
920.500	527.155	80.001	20.008	100.227	20.092	2.849	0.499
921.000	527.408	80.002	20.007	100.223	20.093	2.779	0.482
921.500	527.665	80.000	20.008	100.230	20.091	3.025	0.500
922.000	527.921	80.001	20.007	100.239	20.091	2.981	0.512
922.501	528.163	80.001	20.008	100.243	20.093	2.772	0.506
923.000	528.396	80.002	20.008	100.242	20.090	3.274	0.487
923.500	528.643	80.001	20.008	100.239	20.091	3.088	0.478
924.000	528.886	80.002	20.007	100.233	20.092	2.825	0.485
924.500	529.158	80.002	20.008	100.224	20.092	2.852	0.502
925.000	529.389	80.001	20.007	100.225	20.092	2.829	0.509
925.500	529.673	80.002	20.007	100.234	20.091	3.112	0.509
926.000	529.926	80.001	20.008	100.242	20.092	2.856	0.526
926.500	530.167	80.001	20.007	100.244	20.095	2.340	0.515
927.000	530.385	80.002	20.008	100.244	20.096	2.293	0.477
927.500	530.654	80.002	20.007	100.239	20.095	2.418	0.473
928.000	530.896	80.002	20.008	100.231	20.095	2.407	0.499
928.500	531.128	80.001	20.008	100.230	20.095	2.458	0.492
929.000	531.384	80.002	20.008	100.236	20.096	2.245	0.481
929.501	531.644	80.001	20.007	100.246	20.094	2.529	0.502
930.000	531.838	80.003	20.007	100.255	20.095	2.384	0.485
930.500	532.084	80.001	20.007	100.260	20.095	2.350	0.447
931.000	532.355	80.002	20.008	100.255	20.094	2.583	0.479
931.500	532.609	79.999	20.007	100.246	20.094	2.563	0.521
932.000	532.855	80.001	20.008	100.237	20.092	2.954	0.512
932.500	533.113	80.000	20.008	100.228	20.093	2.775	0.502
933.000	533.353	80.001	20.008	100.227	20.094	2.485	0.501
933.500	533.606	80.001	20.007	100.235	20.095	2.434	0.495
934.000	533.845	80.001	20.007	100.243	20.095	2.461	0.493
934.500	534.091	80.002	20.007	100.248	20.095	2.354	0.489
935.000	534.344	80.001	20.007	100.249	20.095	2.408	0.492
935.500	534.569	80.000	20.007	100.244	20.097	2.017	0.488
936.000	534.809	80.002	20.008	100.236	20.095	2.415	0.471
936.500	535.065	80.001	20.007	100.228	20.096	2.195	0.480
937.000	535.290	80.001	20.008	100.224	20.096	2.253	0.489
937.500	535.543	80.001	20.007	100.225	20.094	2.505	0.479
938.000	535.795	80.002	20.008	100.231	20.097	2.154	0.491
938.500	536.015	80.001	20.008	100.236	20.098	1.993	0.489
939.000	536.241	80.001	20.008	100.240	20.094	2.607	0.459
939.500	536.502	80.000	20.007	100.245	20.097	2.081	0.467
940.000	536.756	80.001	20.007	100.243	20.098	1.973	0.501
940.500	536.959	80.001	20.008	100.236	20.096	2.196	0.486
941.000	537.223	80.001	20.007	100.226	20.096	2.290	0.462
941.500	537.455	80.001	20.008	100.221	20.096	2.243	0.482
942.000	537.719	80.000	20.008	100.218	20.096	2.192	0.497
942.500	538.003	80.002	20.008	100.226	20.095	2.418	0.522
943.001	538.247	80.002	20.007	100.235	20.100	1.655	0.538
943.500	538.467	80.002	20.007	100.249	20.096	2.299	0.496
944.000	538.733	80.001	20.007	100.257	20.095	2.435	0.475
944.500	538.972	80.002	20.008	100.259	20.093	2.762	0.495
945.000	539.228	80.002	20.008	100.250	20.097	2.023	0.500
945.500	539.447	80.002	20.007	100.243	20.095	2.452	0.485
946.000	539.693	80.001	20.007	100.234	20.095	2.341	0.470
946.500	539.940	80.002	20.008	100.232	20.094	2.603	0.479
947.000	540.145	80.001	20.008	100.237	20.096	2.296	0.473
947.500	540.418	80.001	20.008	100.245	20.093	2.684	0.465
948.000	540.654	80.002	20.007	100.252	20.093	2.657	0.493
948.501	540.855	80.001	20.007	100.260	20.095	2.448	0.473
949.000	541.153	80.002	20.008	100.257	20.093	2.724	0.468
949.500	541.396	80.001	20.007	100.249	20.092	2.849	0.520
950.000	541.644	80.000	20.008	100.242	20.095	2.431	0.516
950.500	541.881	80.000	20.008	100.234	20.096	2.229	0.488
951.000	542.115	80.002	20.008	100.230	20.094	2.570	0.478
951.500	542.397	80.001	20.008	100.235	20.093	2.654	0.493
952.000	542.591	80.001	20.007	100.247	20.094	2.512	0.496
952.500	542.870	80.001	20.007	100.256	20.093	2.741	0.474
953.000	543.107	80.001	20.007	100.266	20.094	2.559	0.494
953.501	543.366	80.001	20.007	100.268	20.092	2.893	0.506
954.001	543.604	80.002	20.008	100.263	20.095	2.441	0.497
954.501	543.831	80.001	20.008	100.252	20.094	2.580	0.481
955.000	544.093	80.002	20.007	100.242	20.095	2.475	0.477
955.500	544.320	80.000	20.007	100.233	20.094	2.567	0.489
956.000	544.555	80.002	20.008	100.228	20.094	2.536	0.475
956.500	544.822	80.001	20.007	100.230	20.095	2.445	0.482
957.000	545.076	80.000	20.007	100.238	20.095	2.354	0.512
957.500	545.311	80.002	20.008	100.246	20.094	2.505	0.505
958.000	545.571	80.000	20.007	100.254	20.093	2.758	0.492
958.500	545.802	80.002	20.007	100.261	20.092	2.832	0.493
959.000	546.064	80.000	20.008	100.259	20.093	2.792	0.492
959.500	546.293	80.001	20.007	100.251	20.093	2.661	0.492
960.000	546.523	80.001	20.007	100.244	20.094	2.540	0.475
960.500	546.759	80.001	20.008	100.235	20.094	2.502	0.462
961.000	547.024	80.001	20.007	100.227	20.093	2.762	0.483
961.500	547.274	80.002	20.008	100.225	20.094	2.526	0.508
962.000	547.474	80.001	20.008	100.231	20.094	2.596	0.483
962.500	547.746	80.002	20.007	100.239	20.091	3.011	0.461
963.000	547.992	80.000	20.007	100.247	20.092	2.943	0.495
963.501	548.205	80.000	20.007	100.255	20.092	2.883	0.489
964.000	548.479	80.002	20.007	100.262	20.093	2.752	0.473
964.500	548.770	80.001	20.007	100.258	20.093	2.654	0.526
965.000	548.994	80.001	20.007	100.249	20.092	2.891	0.540
965.500	549.254	80.001	20.008	100.242	20.091	2.958	0.500
966.000	549.497	80.000	20.007	100.233	20.092	2.911	0.494
966.500	549.764	80.003	20.007	100.232	20.091	2.982	0.506
967.000	549.975	80.001	20.008	100.237	20.091	3.008	0.494
967.500	550.211	80.001	20.007	100.246	20.091	3.001	0.462
968.000	550.467	80.001	20.007	100.253	20.091	3.045	0.470
968.501	550.729	80.000	20.007	100.261	20.090	3.126	0.506
969.001	550.992	80.001	20.007	100.261	20.091	2.991	0.522
969.500	551.243	80.000	20.007	100.254	20.090	3.235	0.519
970.000	551.449	80.001	20.007	100.246	20.094	2.628	0.485
970.500	551.686	80.001	20.008	100.237	20.092	2.918	0.450
971.000	551.954	80.003	20.008	100.233	20.093	2.654	0.474
971.500	552.196	80.000	20.008	100.234	20.094	2.526	0.507
972.000	552.461	80.001	20.007	100.241	20.094	2.488	0.508
972.500	552.671	80.001	20.007	100.248	20.091	3.038	0.491
973.000	552.946	80.000	20.007	100.256	20.095	2.360	0.480
973.500	553.140	80.001	20.007	100.259	20.096	2.266	0.477
974.000	553.384	80.002	20.008	100.253	20.095	2.445	0.453
974.501	553.615	80.000	20.008	100.243	20.095	2.344	0.457
975.000	553.858	80.000	20.007	100.233	20.096	2.182	0.475
975.500	554.138	80.002	20.008	100.224	20.094	2.482	0.499
976.000	554.396	80.000	20.008	100.222	20.097	2.101	0.531
976.500	554.684	80.001	20.007	100.231	20.095	2.364	0.542
977.000	554.882	80.001	20.007	100.245	20.094	2.512	0.516
977.501	555.129	80.000	20.007	100.261	20.097	2.134	0.465
978.000	555.384	80.001	20.007	100.272	20.093	2.721	0.474
978.500	555.649	80.001	20.008	100.278	20.095	2.353	0.511
979.000	555.911	80.001	20.007	100.274	20.096	2.263	0.524
979.500	556.088	80.001	20.008	100.265	20.094	2.549	0.483
980.000	556.317	80.001	20.007	100.252	20.095	2.445	0.423
980.500	556.566	80.002	20.008	100.245	20.093	2.775	0.442
981.000	556.836	80.001	20.007	100.245	20.096	2.182	0.498
981.500	557.071	80.002	20.007	100.246	20.095	2.360	0.512
982.000	557.323	80.000	20.007	100.256	20.098	1.976	0.496
982.500	557.537	80.003	20.007	100.265	20.098	1.942	0.477
983.000	557.793	80.001	20.007	100.268	20.099	1.794	0.468
983.500	558.027	80.002	20.007	100.268	20.097	2.108	0.480
984.000	558.268	80.001	20.007	100.260	20.098	1.949	0.482
984.500	558.540	80.003	20.008	100.248	20.097	2.107	0.494
985.001	558.745	80.000	20.007	100.238	20.094	2.494	0.495
985.500	558.988	80.002	20.007	100.231	20.094	2.500	0.463
986.000	559.258	80.001	20.008	100.229	20.092	2.940	0.481
986.500	559.552	80.001	20.007	100.237	20.094	2.520	0.539
987.000	559.757	80.001	20.007	100.244	20.096	2.173	0.532
987.500	560.030	80.001	20.007	100.252	20.091	3.018	0.489
988.000	560.269	80.003	20.008	100.259	20.094	2.521	0.495
988.500	560.515	80.001	20.007	100.261	20.093	2.732	0.498
989.000	560.767	80.001	20.007	100.255	20.093	2.706	0.492
989.500	561.061	80.001	20.007	100.247	20.091	3.027	0.522
990.000	561.297	80.000	20.007	100.240	20.094	2.573	0.538
990.500	561.552	80.002	20.007	100.232	20.092	2.906	0.510
991.001	561.810	80.000	20.008	100.227	20.092	2.868	0.501
991.500	562.022	80.002	20.007	100.232	20.092	2.917	0.492
992.000	562.332	80.002	20.007	100.239	20.093	2.667	0.496
992.500	562.605	80.001	20.007	100.246	20.091	3.079	0.552
993.000	562.807	80.001	20.007	100.249	20.092	2.873	0.529
993.500	563.049	80.001	20.007	100.245	20.092	2.813	0.459
994.000	563.262	80.001	20.007	100.237	20.091	3.022	0.449
994.500	563.535	80.001	20.008	100.228	20.091	2.961	0.470
995.000	563.772	80.000	20.007	100.219	20.089	3.379	0.498
995.500	563.989	80.002	20.008	100.216	20.089	3.305	0.483
996.000	564.218	79.999	20.008	100.224	20.088	3.440	0.450
996.500	564.500	80.002	20.007	100.261	20.089	3.359	0.478
997.000	564.744	80.000	20.011	100.233	20.088	3.463	0.519
997.500	565.005	80.002	20.008	100.207	20.086	3.780	0.516
998.000	565.245	80.003	20.008	100.189	20.090	3.163	0.503
998.500	565.526	80.001	20.008	100.171	20.089	3.430	0.511
999.000	565.774	80.000	20.008	100.127	20.090	3.130	0.525
999.500	566.027	80.002	20.007	100.152	20.090	3.257	0.515
1000.000	566.270	80.001	20.012	100.151	20.091	3.038	0.498
1000.500	566.496	80.001	20.010	100.141	20.095	2.448	0.483
1001.000	566.736	80.001	20.008	100.195	20.092	2.870	0.468
1001.500	567.023	80.000	20.007	100.252	20.095	2.476	0.497
1002.000	567.250	80.001	20.007	100.290	20.092	2.898	0.520
1002.500	567.554	80.001	20.007	100.334	20.093	2.756	0.522
1003.001	567.781	80.002	20.008	100.369	20.094	2.557	0.531
1003.500	567.983	80.002	20.008	100.330	20.093	2.790	0.480
1004.000	568.276	80.000	20.007	100.287	20.092	2.837	0.462
1004.500	568.532	80.003	20.007	100.261	20.093	2.695	0.522
1005.000	568.768	80.001	20.007	100.250	20.090	3.258	0.521
1005.500	569.028	80.001	20.008	100.250	20.091	3.099	0.494
1006.001	569.298	80.001	20.008	100.254	20.088	3.463	0.513
1006.500	569.527	80.001	20.007	100.255	20.090	3.203	0.514
1007.000	569.769	80.003	20.007	100.258	20.089	3.355	0.485
1007.500	570.073	80.001	20.007	100.261	20.091	2.998	0.509
1008.000	570.287	80.002	20.008	100.257	20.090	3.190	0.532
1008.500	570.554	80.002	20.008	100.250	20.089	3.291	0.500
1009.000	570.858	80.001	20.007	100.244	20.090	3.231	0.526
1009.500	571.103	80.001	20.007	100.243	20.091	3.048	0.560
1010.001	571.347	80.001	20.007	100.244	20.091	3.105	0.519
1010.501	571.617	80.001	20.007	100.249	20.092	2.896	0.501
1011.000	571.822	80.002	20.007	100.257	20.092	2.924	0.494
1011.500	572.096	80.001	20.007	100.260	20.093	2.789	0.477
1012.000	572.346	80.002	20.008	100.253	20.091	3.015	0.502
1012.500	572.625	80.001	20.007	100.245	20.091	3.028	0.526
1013.000	572.855	80.001	20.008	100.245	20.090	3.274	0.519
1013.500	573.087	80.000	20.008	100.245	20.090	3.139	0.486
1014.000	573.346	80.002	20.008	100.248	20.090	3.206	0.477
1014.500	573.602	80.001	20.007	100.261	20.090	3.206	0.503
1015.000	573.854	80.002	20.008	100.275	20.091	3.031	0.512
1015.500	574.098	80.000	20.007	100.283	20.090	3.271	0.502
1016.000	574.392	80.003	20.007	100.290	20.092	2.944	0.517
1016.500	574.657	80.001	20.008	100.289	20.093	2.749	0.549
1017.000	574.883	80.001	20.008	100.278	20.093	2.641	0.525
1017.501	575.185	80.002	20.007	100.263	20.091	3.106	0.509
1018.000	575.398	80.002	20.007	100.247	20.089	3.433	0.521
1018.500	575.668	80.000	20.008	100.235	20.090	3.220	0.499
1019.000	575.912	80.001	20.007	100.234	20.090	3.207	0.499
1019.500	576.208	80.001	20.007	100.240	20.089	3.362	0.527
1020.000	576.406	80.002	20.007	100.248	20.090	3.200	0.517
1020.500	576.675	80.001	20.007	100.256	20.092	2.856	0.480
1021.000	576.914	80.002	20.008	100.259	20.091	2.960	0.488
1021.500	577.153	80.001	20.007	100.253	20.091	3.038	0.493
1022.000	577.398	80.001	20.007	100.246	20.089	3.368	0.480
1022.500	577.677	80.001	20.008	100.238	20.090	3.260	0.504
1023.000	577.918	80.001	20.007	100.233	20.089	3.328	0.522
1023.500	578.200	80.001	20.008	100.233	20.090	3.183	0.521
1024.000	578.436	80.002	20.007	100.241	20.089	3.338	0.521
1024.500	578.672	80.000	20.007	100.249	20.091	3.105	0.495
1025.000	578.931	80.001	20.007	100.253	20.092	2.947	0.483
1025.500	579.185	80.000	20.008	100.247	20.090	3.247	0.504
1026.000	579.445	80.000	20.008	100.239	20.090	3.234	0.514
1026.500	579.698	80.003	20.008	100.231	20.088	3.497	0.514
1027.000	579.932	80.001	20.007	100.226	20.089	3.298	0.500
1027.500	580.199	80.002	20.008	100.229	20.090	3.261	0.494
1028.000	580.464	80.001	20.007	100.240	20.090	3.200	0.517
1028.500	580.706	80.000	20.007	100.253	20.092	2.852	0.519
1029.000	580.911	80.000	20.007	100.264	20.088	3.456	0.477
1029.500	581.173	80.002	20.007	100.269	20.090	3.234	0.457
1030.000	581.442	80.001	20.008	100.265	20.089	3.355	0.499
1030.500	581.684	80.000	20.008	100.265	20.089	3.285	0.521
1031.001	581.939	80.002	20.007	100.257	20.086	3.804	0.503
1031.501	582.201	80.003	20.008	100.245	20.087	3.706	0.507
1032.001	582.449	80.002	20.008	100.238	20.090	3.247	0.514
1032.500	582.701	80.001	20.007	100.232	20.088	3.452	0.506
1033.001	582.966	80.001	20.008	100.225	20.089	3.304	0.509
1033.501	583.217	80.002	20.007	100.223	20.089	3.327	0.516
1034.000	583.459	80.000	20.007	100.228	20.088	3.537	0.504
1034.500	583.673	80.002	20.007	100.231	20.090	3.170	0.474
1035.001	583.970	80.001	20.007	100.231	20.087	3.716	0.483
1035.501	584.180	80.001	20.008	100.231	20.088	3.503	0.509
1036.001	584.453	80.002	20.008	100.230	20.089	3.311	0.495
1036.501	584.761	80.001	20.007	100.225	20.089	3.321	0.532
1037.001	584.982	80.002	20.007	100.224	20.088	3.581	0.555
1037.501	585.237	80.001	20.008	100.232	20.086	3.800	0.502
1038.000	585.495	80.002	20.008	100.239	20.090	3.150	0.495
1038.500	585.739	80.000	20.007	100.247	20.087	3.747	0.508
1039.000	586.004	80.002	20.007	100.252	20.087	3.646	0.506
1039.501	586.272	80.000	20.007	100.251	20.088	3.596	0.521
1040.001	586.515	80.002	20.007	100.243	20.088	3.461	0.522
1040.501	586.747	80.001	20.008	100.236	20.087	3.623	0.493
1041.000	587.011	80.003	20.008	100.229	20.085	3.994	0.485
1041.500	587.242	80.001	20.008	100.227	20.086	3.862	0.496
1042.000	587.458	80.001	20.007	100.233	20.088	3.551	0.471
1042.500	587.756	80.001	20.007	100.241	20.085	4.051	0.480
1043.000	587.984	80.001	20.008	100.249	20.087	3.730	0.520
1043.501	588.252	80.001	20.007	100.254	20.085	4.010	0.511
1044.001	588.505	80.001	20.008	100.253	20.085	3.949	0.509
1044.500	588.765	79.999	20.008	100.244	20.086	3.828	0.517
1045.000	589.000	80.001	20.008	100.232	20.088	3.591	0.504
1045.500	589.254	80.002	20.007	100.223	20.088	3.490	0.492
1046.000	589.535	80.001	20.008	100.217	20.087	3.625	0.512
1046.500	589.760	80.001	20.008	100.217	20.086	3.766	0.521
1047.000	590.010	80.000	20.007	100.225	20.090	3.156	0.491
1047.500	590.287	80.001	20.007	100.236	20.087	3.730	0.501
1048.001	590.513	80.000	20.007	100.237	20.090	3.130	0.515
1048.501	590.745	80.001	20.007	100.237	20.091	3.052	0.480
1049.001	591.012	80.002	20.008	100.235	20.089	3.288	0.478
1049.501	591.247	80.001	20.008	100.229	20.088	3.484	0.501
1050.000	591.499	80.002	20.008	100.225	20.089	3.376	0.495
1050.501	591.752	80.000	20.007	100.231	20.089	3.379	0.496
1051.001	592.033	80.001	20.008	100.243	20.090	3.200	0.520
1051.500	592.267	80.002	20.007	100.259	20.090	3.268	0.525
1052.000	592.513	80.001	20.007	100.274	20.091	3.001	0.498
1052.500	592.734	80.000	20.007	100.282	20.091	3.012	0.473
1053.000	593.017	80.001	20.008	100.284	20.090	3.261	0.485
1053.500	593.256	80.001	20.007	100.280	20.095	2.445	0.513
1054.000	593.490	80.000	20.007	100.271	20.094	2.623	0.497
1054.501	593.739	80.000	20.008	100.264	20.094	2.495	0.478
1055.001	593.960	80.001	20.007	100.261	20.093	2.765	0.476
1055.500	594.230	80.001	20.009	100.261	20.092	2.933	0.481
1056.000	594.468	80.002	20.007	100.261	20.094	2.579	0.500
1056.500	594.707	80.001	20.007	100.262	20.092	2.954	0.493
1057.000	594.938	80.001	20.007	100.261	20.092	2.907	0.474
1057.500	595.213	80.002	20.008	100.254	20.092	2.913	0.488
1058.000	595.442	80.001	20.008	100.247	20.089	3.308	0.505
1058.500	595.704	80.000	20.008	100.239	20.091	3.092	0.498
1059.000	595.921	80.001	20.008	100.234	20.089	3.361	0.485
1059.500	596.158	80.001	20.008	100.235	20.089	3.297	0.467
1060.001	596.438	80.002	20.007	100.242	20.091	3.048	0.486
1060.501	596.665	80.001	20.007	100.251	20.091	3.021	0.512
1061.001	596.934	79.999	20.008	100.262	20.089	3.393	0.501
1061.500	597.186	80.002	20.007	100.268	20.088	3.457	0.508
1062.001	597.463	80.002	20.007	100.265	20.091	3.066	0.525
1062.501	597.694	80.000	20.008	100.257	20.087	3.622	0.518
1063.000	597.954	80.001	20.008	100.248	20.089	3.331	0.500
1063.500	598.246	80.001	20.008	100.240	20.089	3.375	0.522
1064.000	598.495	80.002	20.008	100.240	20.087	3.712	0.547
1064.500	598.709	80.000	20.007	100.244	20.086	3.844	0.502
1065.000	598.931	80.002	20.007	100.252	20.088	3.466	0.449
1065.500	599.189	80.001	20.007	100.258	20.087	3.713	0.458
1066.001	599.439	80.001	20.008	100.255	20.087	3.730	0.494
1066.501	599.701	80.002	20.007	100.246	20.087	3.751	0.510
1067.000	599.937	80.001	20.008	100.237	20.085	3.946	0.505
1067.500	600.200	80.000	20.008	100.229	20.086	3.878	0.498
1068.000	600.458	80.002	20.008	100.223	20.089	3.376	0.510
1068.500	600.715	80.000	20.007	100.224	20.088	3.510	0.518
1069.000	600.920	80.002	20.008	100.232	20.089	3.312	0.489
1069.501	601.175	80.001	20.007	100.239	20.089	3.403	0.462
1070.001	601.436	80.001	20.007	100.242	20.089	3.396	0.488
1070.500	601.707	80.001	20.008	100.242	20.089	3.282	0.523
1071.000	601.944	80.001	20.007	100.241	20.089	3.315	0.520
1071.501	602.178	80.001	20.008	100.234	20.090	3.231	0.490
1072.001	602.412	80.001	20.008	100.228	20.089	3.372	0.469
1072.501	602.656	80.001	20.008	100.229	20.089	3.352	0.473
1073.001	602.908	80.001	20.007	100.237	20.088	3.456	0.487
1073.501	603.163	80.001	20.008	100.244	20.088	3.511	0.502
1074.001	603.407	80.001	20.007	100.253	20.089	3.363	0.503
1074.501	603.649	80.000	20.007	100.257	20.086	3.829	0.492
1075.001	603.901	80.001	20.007	100.253	20.088	3.458	0.490
1075.501	604.162	80.001	20.008	100.243	20.089	3.400	0.504
1076.000	604.406	80.000	20.008	100.234	20.088	3.467	0.509
1076.500	604.645	80.002	20.007	100.225	20.089	3.352	0.494
1077.000	604.896	80.001	20.008	100.225	20.090	3.186	0.486
1077.500	605.132	80.002	20.007	100.232	20.089	3.365	0.488
1078.000	605.391	80.000	20.007	100.243	20.088	3.459	0.491
1078.500	605.657	80.001	20.008	100.254	20.090	3.203	0.510
1079.000	605.882	80.002	20.008	100.262	20.089	3.362	0.508
1079.500	606.138	80.000	20.007	100.266	20.086	3.804	0.486
1080.000	606.407	80.001	20.008	100.261	20.090	3.146	0.503
1080.500	606.650	80.003	20.007	100.255	20.087	3.618	0.519
1081.000	606.900	80.001	20.008	100.248	20.089	3.416	0.502
1081.500	607.135	80.001	20.008	100.247	20.089	3.382	0.489
1082.001	607.357	80.002	20.007	100.248	20.089	3.378	0.471
1082.501	607.628	80.002	20.007	100.256	20.090	3.146	0.475
1083.001	607.880	80.001	20.007	100.264	20.090	3.163	0.508
1083.501	608.112	80.001	20.007	100.268	20.090	3.258	0.504
1084.000	608.401	80.001	20.007	100.262	20.091	3.099	0.503
1084.500	608.658	80.002	20.008	100.253	20.092	2.867	0.533
1085.000	608.902	80.001	20.008	100.246	20.093	2.705	0.523
1085.501	609.132	80.002	20.007	100.243	20.090	3.173	0.488
1086.001	609.372	80.001	20.008	100.244	20.089	3.399	0.472
1086.500	609.654	80.000	20.008	100.257	20.090	3.267	0.496
1087.001	609.908	80.003	20.007	100.272	20.090	3.240	0.529
1087.501	610.137	80.000	20.007	100.275	20.089	3.429	0.510
1088.000	610.404	80.001	20.007	100.276	20.088	3.574	0.490
1088.500	610.640	80.001	20.007	100.273	20.087	3.726	0.499
1089.000	610.921	80.001	20.008	100.259	20.086	3.757	0.510
1089.501	611.160	80.002	20.007	100.244	20.087	3.605	0.518
1090.001	611.419	79.999	20.008	100.234	20.086	3.861	0.509
1090.500	611.641	80.002	20.008	100.229	20.087	3.692	0.490
1091.000	611.939	80.000	20.007	100.232	20.087	3.729	0.500
1091.500	612.182	80.002	20.007	100.241	20.089	3.297	0.530
1092.000	612.432	80.001	20.007	100.247	20.087	3.716	0.517
1092.500	612.674	80.002	20.008	100.256	20.088	3.507	0.493
1093.000	612.932	80.000	20.007	100.253	20.086	3.834	0.496
1093.500	613.193	80.001	20.008	100.246	20.088	3.437	0.509
1094.001	613.451	80.001	20.008	100.237	20.086	3.761	0.519
1094.501	613.685	80.001	20.008	100.231	20.088	3.534	0.506
1095.001	613.879	80.002	20.007	100.225	20.089	3.338	0.461
1095.501	614.177	80.000	20.007	100.231	20.089	3.362	0.460
1096.000	614.409	80.001	20.007	100.239	20.090	3.200	0.511
1096.500	614.691	80.000	20.008	100.247	20.089	3.298	0.522
1097.001	614.950	80.001	20.007	100.253	20.089	3.332	0.527
1097.501	615.214	80.002	20.007	100.258	20.088	3.484	0.532
1098.000	615.432	80.001	20.007	100.252	20.091	3.082	0.503
1098.500	615.703	80.001	20.007	100.241	20.090	3.173	0.485
1099.000	615.965	80.001	20.008	100.228	20.089	3.301	0.511
1099.501	616.181	80.002	20.008	100.218	20.090	3.200	0.506
1100.001	616.439	80.001	20.007	100.211	20.090	3.146	0.476
1100.500	616.720	80.002	20.007	100.218	20.089	3.378	0.507
1101.000	616.955	80.001	20.008	100.227	20.089	3.331	0.528
1101.500	617.188	80.002	20.007	100.240	20.088	3.537	0.492
1102.000	617.439	80.002	20.008	100.247	20.088	3.548	0.475
1102.501	617.666	80.001	20.007	100.247	20.089	3.376	0.481
1103.001	617.933	80.002	20.007	100.240	20.088	3.554	0.486
1103.500	618.204	80.001	20.008	100.233	20.089	3.355	0.516
1104.000	618.450	80.001	20.008	100.226	20.089	3.325	0.527
1104.501	618.651	80.001	20.008	100.228	20.088	3.460	0.482
1105.001	618.959	80.001	20.008	100.238	20.087	3.632	0.478
1105.501	619.165	80.002	20.007	100.246	20.086	3.774	0.511
1106.001	619.446	80.002	20.008	100.254	20.084	4.125	0.501
1106.501	619.684	80.001	20.008	100.261	20.086	3.879	0.503
1107.000	619.915	80.002	20.007	100.261	20.087	3.750	0.494
1107.500	620.202	80.001	20.008	100.253	20.081	4.563	0.493
1108.001	620.424	80.001	20.008	100.246	20.082	4.499	0.514
1108.501	620.683	80.001	20.008	100.242	20.084	4.151	0.495
1109.001	620.926	80.001	20.007	100.241	20.082	4.444	0.491
1109.501	621.183	80.003	20.007	100.243	20.082	4.451	0.501
1110.000	621.437	80.001	20.007	100.248	20.086	3.872	0.506
1110.500	621.672	80.001	20.007	100.255	20.083	4.391	0.500
1111.000	621.974	80.003	20.007	100.255	20.085	4.027	0.513
1111.500	622.174	80.001	20.008	100.252	20.083	4.263	0.519
1112.000	622.463	80.001	20.008	100.244	20.087	3.720	0.495
1112.500	622.704	80.002	20.007	100.237	20.083	4.259	0.509
1113.000	622.983	80.002	20.008	100.230	20.084	4.212	0.525
1113.500	623.211	80.000	20.008	100.232	20.086	3.827	0.514
1114.000	623.404	80.002	20.007	100.236	20.087	3.699	0.465
1114.501	623.686	80.001	20.008	100.244	20.088	3.571	0.448
1115.001	623.952	80.001	20.007	100.250	20.087	3.730	0.511
1115.501	624.201	80.001	20.007	100.250	20.087	3.656	0.531
1116.001	624.445	80.001	20.008	100.245	20.087	3.741	0.504
1116.501	624.652	80.003	20.007	100.238	20.087	3.622	0.472
1117.000	624.916	80.002	20.008	100.236	20.088	3.571	0.461
1117.500	625.191	80.002	20.008	100.238	20.088	3.541	0.505
1118.000	625.440	80.001	20.008	100.246	20.089	3.369	0.532
1118.501	625.686	80.001	20.007	100.253	20.087	3.723	0.509
1119.001	625.965	80.002	20.007	100.262	20.087	3.726	0.510
1119.500	626.184	80.001	20.007	100.263	20.085	3.976	0.512
1120.000	626.457	80.000	20.007	100.262	20.086	3.787	0.495
1120.500	626.677	80.001	20.007	100.255	20.086	3.872	0.493
1121.000	626.915	80.001	20.008	100.248	20.086	3.831	0.475
1121.500	627.147	80.002	20.008	100.239	20.087	3.750	0.464
1122.000	627.363	80.001	20.008	100.239	20.087	3.635	0.459
1122.500	627.630	80.003	20.007	100.244	20.090	3.139	0.465
1123.000	627.854	80.001	20.007	100.254	20.090	3.183	0.487
1123.500	628.078	80.003	20.007	100.262	20.090	3.221	0.470
1124.000	628.289	80.000	20.007	100.270	20.090	3.261	0.442
1124.500	628.546	80.002	20.007	100.269	20.091	3.025	0.452
1125.001	628.799	80.001	20.007	100.259	20.092	2.887	0.489
1125.501	629.058	80.002	20.007	100.247	20.094	2.519	0.510
1126.001	629.300	80.002	20.007	100.240	20.091	3.052	0.506
1126.501	629.545	80.001	20.008	100.240	20.090	3.234	0.494
1127.001	629.755	80.002	20.007	100.241	20.090	3.166	0.471
1127.500	630.049	80.000	20.007	100.256	20.091	3.038	0.480
1128.000	630.290	80.002	20.007	100.266	20.092	2.829	0.520
1128.500	630.522	80.001	20.007	100.273	20.089	3.295	0.504
1129.001	630.789	80.003	20.007	100.273	20.088	3.453	0.486
1129.501	631.022	80.001	20.007	100.267	20.088	3.531	0.500
1130.000	631.238	80.001	20.007	100.252	20.090	3.139	0.474
1130.500	631.510	80.001	20.007	100.242	20.087	3.662	0.468
1131.000	631.746	80.001	20.008	100.238	20.090	3.186	0.498
1131.500	631.963	80.000	20.007	100.238	20.091	3.011	0.481
1132.000	632.206	80.001	20.007	100.246	20.092	2.951	0.457
1132.500	632.443	80.001	20.007	100.253	20.091	3.082	0.470
1133.001	632.733	80.002	20.007	100.259	20.088	3.527	0.503
1133.501	632.939	80.000	20.007	100.255	20.090	3.267	0.512
1134.001	633.178	80.003	20.008	100.246	20.088	3.550	0.471
1134.501	633.396	80.001	20.008	100.237	20.088	3.469	0.451
1135.000	633.642	80.001	20.008	100.233	20.087	3.644	0.460
1135.500	633.895	80.001	20.007	100.234	20.090	3.176	0.481
1136.000	634.105	80.002	20.008	100.242	20.088	3.453	0.481
1136.500	634.319	80.002	20.007	100.251	20.091	3.031	0.444
1137.001	634.587	80.002	20.007	100.257	20.091	3.072	0.453
1137.501	634.815	80.001	20.008	100.260	20.087	3.598	0.489
1138.000	635.093	80.002	20.007	100.252	20.088	3.544	0.501
1138.500	635.335	80.002	20.007	100.245	20.092	2.825	0.513
1139.000	635.546	80.001	20.007	100.236	20.086	3.763	0.487
1139.500	635.858	80.004	20.007	100.235	20.087	3.645	0.489
1140.000	636.042	80.000	20.007	100.237	20.084	4.117	0.509
1140.500	636.364	80.002	20.007	100.245	20.087	3.730	0.500
1141.000	636.549	80.001	20.007	100.252	20.086	3.861	0.507
1141.500	636.817	80.001	20.007	100.259	20.088	3.514	0.480
1142.000	637.039	80.002	20.007	100.254	20.086	3.790	0.471
1142.500	637.294	80.002	20.008	100.246	20.084	4.130	0.484
1143.001	637.540	80.002	20.008	100.238	20.085	3.985	0.489
1143.501	637.776	80.002	20.008	100.233	20.086	3.786	0.491
1144.001	638.020	80.001	20.007	100.232	20.087	3.736	0.481
1144.500	638.288	80.001	20.008	100.239	20.087	3.612	0.496
1145.001	638.514	80.001	20.007	100.248	20.087	3.619	0.503
1145.501	638.736	80.000	20.008	100.248	20.087	3.669	0.472
1146.000	639.039	80.003	20.008	100.245	20.086	3.774	0.487
1146.500	639.272	80.001	20.008	100.238	20.086	3.868	0.530
1147.001	639.504	80.001	20.007	100.229	20.087	3.638	0.501
1147.501	639.791	80.002	20.008	100.219	20.086	3.888	0.492
1148.001	640.025	80.001	20.008	100.219	20.083	4.333	0.519
1148.501	640.261	80.003	20.008	100.224	20.086	3.791	0.495
1149.000	640.532	80.001	20.007	100.231	20.087	3.733	0.489
1149.501	640.780	80.001	20.007	100.239	20.086	3.912	0.513
1150.001	641.051	80.000	20.008	100.240	20.086	3.871	0.519
1150.500	641.251	80.002	20.007	100.240	20.088	3.473	0.495
1151.000	641.577	80.000	20.008	100.234	20.088	3.570	0.499
1151.500	641.803	80.002	20.008	100.228	20.087	3.668	0.539
1152.000	642.056	80.001	20.008	100.228	20.087	3.706	0.515
1152.500	642.303	80.001	20.007	100.235	20.084	4.094	0.489
1153.001	642.581	80.002	20.007	100.242	20.086	3.784	0.513
1153.501	642.829	80.001	20.007	100.250	20.086	3.848	0.526
1154.000	643.049	80.000	20.007	100.255	20.085	3.952	0.497
1154.500	643.365	80.001	20.008	100.249	20.089	3.352	0.502
1155.000	643.630	80.000	20.008	100.241	20.089	3.341	0.559
1155.500	643.835	80.001	20.007	100.235	20.089	3.392	0.525
1156.001	644.074	80.000	20.008	100.230	20.087	3.689	0.457
1156.501	644.348	80.002	20.007	100.234	20.090	3.197	0.479
1157.000	644.558	80.002	20.008	100.241	20.089	3.382	0.499
1157.500	644.881	80.001	20.007	100.250	20.087	3.666	0.508
1158.000	645.146	80.001	20.007	100.255	20.090	3.220	0.560
1158.501	645.365	80.000	20.007	100.257	20.090	3.274	0.536
1159.001	645.613	80.002	20.008	100.249	20.088	3.526	0.475
1159.501	645.894	80.000	20.007	100.242	20.089	3.412	0.498
1160.000	646.131	80.001	20.007	100.242	20.091	3.034	0.524
1160.500	646.408	80.002	20.007	100.243	20.090	3.142	0.516
1161.000	646.701	80.001	20.008	100.246	20.088	3.530	0.541
1161.500	646.886	80.000	20.007	100.252	20.087	3.729	0.524
1162.000	647.203	80.000	20.007	100.252	20.088	3.581	0.490
1162.500	647.353	80.002	20.007	100.244	20.087	3.621	0.484
1163.000	647.641	80.002	20.008	100.236	20.088	3.547	0.452
1163.500	647.829	80.001	20.008	100.228	20.089	3.398	0.457
1164.001	648.085	80.000	20.007	100.226	20.088	3.543	0.460
1164.501	648.440	80.001	20.007	100.233	20.086	3.857	0.527
1165.000	648.682	80.001	20.008	100.243	20.089	3.355	0.604
1165.501	648.926	80.000	20.007	100.252	20.087	3.713	0.542
1166.001	649.208	80.003	20.007	100.260	20.086	3.848	0.505
1166.501	649.439	80.001	20.007	100.259	20.088	3.494	0.519
1167.001	649.713	80.001	20.007	100.252	20.085	3.962	0.509
1167.500	649.981	80.001	20.008	100.243	20.084	4.174	0.524
1168.000	650.239	80.001	20.008	100.234	20.085	3.958	0.534
1168.500	650.440	80.000	20.007	100.232	20.085	4.046	0.493
1169.000	650.711	80.000	20.007	100.237	20.086	3.864	0.466
1169.500	650.986	80.002	20.007	100.244	20.085	3.986	0.509
1170.001	651.211	80.000	20.007	100.246	20.085	4.040	0.522
1170.501	651.491	80.002	20.008	100.246	20.086	3.841	0.502
1171.000	651.741	80.001	20.007	100.239	20.086	3.773	0.517
1171.500	651.992	80.003	20.008	100.229	20.087	3.719	0.515
1172.000	652.225	80.000	20.008	100.221	20.084	4.204	0.493
1172.500	652.503	80.001	20.008	100.218	20.085	4.073	0.498
1173.000	652.731	80.001	20.007	100.220	20.086	3.908	0.508
1173.501	653.013	80.001	20.008	100.226	20.086	3.790	0.508
1174.001	653.327	80.001	20.007	100.232	20.088	3.483	0.553
1174.501	653.546	80.001	20.008	100.233	20.088	3.555	0.565
1175.001	653.789	80.001	20.007	100.233	20.086	3.777	0.497
1175.501	654.031	80.002	20.008	100.231	20.085	4.013	0.473
1176.000	654.298	80.001	20.008	100.227	20.085	3.986	0.497
1176.500	654.578	80.001	20.007	100.223	20.086	3.891	0.529
1177.000	654.827	80.001	20.008	100.224	20.086	3.803	0.538
1177.501	655.047	80.002	20.007	100.233	20.089	3.372	0.499
1178.001	655.299	80.001	20.007	100.241	20.087	3.730	0.470
1178.500	655.575	80.001	20.007	100.249	20.087	3.720	0.500
1179.000	655.801	80.001	20.007	100.255	20.086	3.872	0.515
1179.500	656.026	80.001	20.008	100.256	20.087	3.707	0.477
1180.000	656.268	80.000	20.007	100.248	20.088	3.514	0.459
1180.500	656.518	80.002	20.008	100.240	20.086	3.912	0.479
1181.000	656.777	80.000	20.007	100.233	20.086	3.911	0.501
1181.500	657.049	80.001	20.008	100.229	20.085	4.036	0.520
1182.000	657.268	80.000	20.007	100.231	20.085	3.925	0.511
1182.500	657.548	80.001	20.007	100.240	20.085	4.023	0.495
1183.000	657.766	80.002	20.007	100.244	20.085	3.989	0.499
1183.501	657.986	80.002	20.007	100.247	20.088	3.460	0.468
1184.001	658.284	80.001	20.007	100.244	20.086	3.875	0.477
1184.500	658.527	80.001	20.007	100.240	20.088	3.571	0.529
1185.000	658.746	80.002	20.008	100.231	20.088	3.497	0.502
1185.500	659.041	80.001	20.007	100.228	20.086	3.851	0.488
1186.000	659.308	80.001	20.007	100.232	20.087	3.638	0.538
1186.500	659.556	80.001	20.008	100.239	20.087	3.652	0.538
1187.000	659.779	80.002	20.007	100.247	20.088	3.494	0.493
1187.500	660.058	80.000	20.007	100.255	20.087	3.632	0.487
1188.000	660.302	80.002	20.007	100.262	20.088	3.497	0.512
1188.501	660.491	80.002	20.007	100.256	20.086	3.885	0.478
1189.001	660.774	80.002	20.008	100.248	20.088	3.487	0.452
1189.500	661.035	80.001	20.008	100.240	20.088	3.581	0.508
1190.000	661.270	80.002	20.008	100.238	20.087	3.601	0.520
1190.500	661.517	80.001	20.007	100.238	20.087	3.679	0.490
1191.000	661.785	80.001	20.007	100.246	20.088	3.540	0.499
1191.500	662.017	80.002	20.007	100.255	20.089	3.376	0.507
1192.001	662.293	80.001	20.007	100.262	20.085	3.922	0.504
1192.501	662.501	80.001	20.007	100.261	20.085	4.024	0.496
1193.001	662.780	80.002	20.008	100.254	20.087	3.649	0.486
1193.500	663.012	80.002	20.007	100.246	20.086	3.858	0.499
1194.000	663.252	80.001	20.008	100.237	20.084	4.100	0.491
1194.501	663.472	80.002	20.008	100.232	20.087	3.659	0.466
1195.001	663.776	80.001	20.007	100.233	20.086	3.905	0.492
1195.500	663.997	80.002	20.007	100.240	20.082	4.414	0.524
1196.000	664.258	80.001	20.007	100.248	20.084	4.172	0.503
1196.500	664.483	80.002	20.007	100.256	20.085	4.023	0.484
1197.000	664.744	80.002	20.007	100.256	20.086	3.848	0.486
1197.501	664.964	80.002	20.007	100.251	20.086	3.858	0.484
1198.001	665.233	80.000	20.008	100.244	20.086	3.810	0.485
1198.500	665.479	80.002	20.008	100.239	20.086	3.827	0.502
1199.001	665.730	80.001	20.008	100.237	20.086	3.820	0.506
1199.501	666.001	80.001	20.007	100.243	20.088	3.571	0.510
1200.001	666.211	80.000	20.007	100.251	20.087	3.747	0.501
1200.501	666.520	80.002	20.007	100.257	20.087	3.740	0.500
1201.000	666.724	80.000	20.007	100.255	20.085	3.986	0.516
1201.500	666.987	80.001	20.007	100.249	20.084	4.164	0.491
1202.000	667.251	80.001	20.008	100.241	20.086	3.908	0.497
1202.500	667.501	80.004	20.008	100.232	20.085	4.026	0.520
1203.001	667.758	80.001	20.008	100.225	20.087	3.753	0.510
1203.501	667.980	80.001	20.008	100.232	20.085	4.013	0.493
1204.000	668.246	80.001	20.008	100.238	20.088	3.575	0.484
1204.500	668.491	80.001	20.007	100.245	20.084	4.148	0.500
1205.000	668.757	80.000	20.008	100.251	20.085	4.006	0.511
1205.500	668.997	80.001	20.007	100.259	20.085	4.036	0.508
1206.000	669.221	80.000	20.008	100.257	20.087	3.655	0.485
1206.500	669.471	80.001	20.008	100.250	20.086	3.827	0.469
1207.000	669.741	80.002	20.008	100.243	20.087	3.645	0.497
1207.501	670.000	80.001	20.008	100.242	20.087	3.679	0.524
1208.001	670.270	80.002	20.008	100.242	20.084	4.084	0.529
1208.500	670.493	80.002	20.007	100.244	20.085	3.993	0.511
1209.001	670.754	80.001	20.007	100.252	20.086	3.908	0.488
1209.501	671.008	80.000	20.007	100.257	20.084	4.218	0.499
1210.000	671.260	80.002	20.008	100.251	20.085	3.969	0.511
1210.500	671.498	80.001	20.008	100.243	20.084	4.181	0.498
1211.000	671.762	80.001	20.008	100.235	20.084	4.107	0.496
1211.500	671.961	80.001	20.008	100.232	20.086	3.763	0.482
1212.000	672.243	80.002	20.008	100.235	20.087	3.743	0.472
1212.500	672.476	80.000	20.007	100.242	20.086	3.868	0.498
1213.000	672.717	80.002	20.007	100.249	20.087	3.703	0.494
1213.500	672.997	80.002	20.007	100.256	20.087	3.723	0.498
1214.000	673.254	80.002	20.008	100.251	20.088	3.453	0.529
1214.500	673.513	80.001	20.008	100.243	20.085	4.019	0.527
1215.000	673.798	80.001	20.008	100.236	20.087	3.746	0.530
1215.500	674.012	80.001	20.008	100.231	20.084	4.093	0.521
1216.000	674.335	80.002	20.008	100.231	20.086	3.898	0.518
1216.500	674.550	80.001	20.007	100.239	20.085	4.009	0.538
1217.000	674.787	80.001	20.007	100.247	20.085	3.928	0.496
1217.500	675.049	80.001	20.007	100.254	20.086	3.884	0.476
1218.000	675.298	80.000	20.007	100.252	20.087	3.752	0.505
1218.500	675.555	80.002	20.008	100.246	20.087	3.671	0.508
1219.001	675.858	80.001	20.008	100.236	20.087	3.648	0.533
1219.501	676.063	80.001	20.008	100.230	20.091	3.102	0.534
1220.001	676.297	80.002	20.008	100.231	20.089	3.369	0.474
1220.501	676.590	80.000	20.007	100.237	20.088	3.487	0.483
1221.001	676.841	80.001	20.007	100.245	20.087	3.618	0.535
1221.501	677.098	80.001	20.007	100.251	20.085	4.006	0.526
1222.001	677.338	80.001	20.007	100.249	20.086	3.783	0.502
1222.501	677.622	80.001	20.007	100.241	20.085	3.935	0.510
1223.000	677.851	80.001	20.008	100.233	20.089	3.389	0.518
1223.500	678.122	80.000	20.007	100.226	20.089	3.376	0.506
1224.001	678.404	80.002	20.008	100.229	20.087	3.750	0.527
1224.501	678.673	80.003	20.007	100.238	20.087	3.628	0.552
1225.001	678.909	80.001	20.007	100.245	20.087	3.642	0.528
1225.501	679.139	80.000	20.007	100.251	20.087	3.625	0.486
1226.001	679.427	80.002	20.007	100.249	20.086	3.854	0.492
1226.500	679.662	80.002	20.007	100.241	20.089	3.365	0.521
1227.001	679.917	80.002	20.008	100.234	20.089	3.433	0.507
1227.501	680.231	80.001	20.007	100.227	20.085	3.973	0.529
1228.001	680.398	80.000	20.008	100.228	20.087	3.723	0.525
1228.500	680.709	80.002	20.007	100.235	20.088	3.514	0.480
1229.000	680.996	80.001	20.007	100.237	20.087	3.696	0.538
1229.500	681.207	80.001	20.007	100.236	20.088	3.514	0.548
1230.000	681.473	80.001	20.007	100.234	20.086	3.760	0.488
1230.501	681.676	80.002	20.007	100.223	20.087	3.639	0.473
1231.001	681.977	80.001	20.008	100.214	20.086	3.865	0.486
1231.500	682.200	80.002	20.007	100.211	20.087	3.690	0.514
1232.000	682.455	80.000	20.007	100.217	20.088	3.578	0.501
1232.500	682.694	80.001	20.007	100.227	20.089	3.284	0.486
1233.000	682.995	80.000	20.007	100.239	20.088	3.554	0.517
1233.500	683.200	80.001	20.008	100.245	20.089	3.281	0.523
1234.001	683.493	80.001	20.007	100.248	20.088	3.584	0.502
1234.501	683.712	80.000	20.008	100.243	20.088	3.551	0.505
1235.000	684.010	80.001	20.007	100.240	20.085	3.929	0.514
1235.500	684.263	80.000	20.007	100.241	20.084	4.104	0.534
1236.000	684.495	80.001	20.008	100.246	20.086	3.824	0.518
1236.500	684.754	80.000	20.007	100.252	20.087	3.726	0.488
1237.000	685.020	80.001	20.007	100.252	20.087	3.632	0.508
1237.500	685.206	80.001	20.007	100.247	20.086	3.787	0.489
1238.000	685.471	80.001	20.007	100.238	20.086	3.831	0.451
1238.500	685.731	80.001	20.008	100.230	20.089	3.376	0.488
1239.000	685.987	80.001	20.007	100.230	20.086	3.906	0.521
1239.500	686.235	80.001	20.007	100.236	20.086	3.828	0.510
1240.001	686.495	80.002	20.007	100.246	20.087	3.608	0.506
1240.501	686.703	80.001	20.007	100.255	20.087	3.729	0.489
1241.000	686.942	80.001	20.008	100.257	20.087	3.736	0.458
1241.500	687.250	80.001	20.008	100.252	20.087	3.642	0.497
1242.001	687.446	80.001	20.008	100.246	20.086	3.912	0.525
1242.501	687.719	80.001	20.007	100.246	20.086	3.838	0.486
1243.000	687.941	80.002	20.008	100.245	20.084	4.077	0.482
1243.500	688.232	80.001	20.007	100.251	20.087	3.645	0.504
1244.000	688.468	80.001	20.007	100.257	20.087	3.743	0.520
1244.500	688.744	80.001	20.008	100.258	20.086	3.854	0.519
1245.000	688.988	80.001	20.008	100.250	20.087	3.753	0.516
1245.501	689.245	80.001	20.007	100.243	20.085	3.979	0.511
1246.001	689.499	80.002	20.007	100.235	20.083	4.256	0.506
1246.501	689.751	80.000	20.008	100.235	20.084	4.098	0.509
1247.001	689.980	80.001	20.008	100.241	20.086	3.868	0.494
1247.501	690.227	80.001	20.007	100.250	20.087	3.656	0.479
1248.001	690.483	80.003	20.007	100.256	20.085	4.050	0.490
1248.500	690.761	80.001	20.008	100.258	20.083	4.242	0.519
1249.001	690.970	79.999	20.007	100.251	20.086	3.854	0.510
1249.501	691.212	80.000	20.008	100.242	20.085	4.023	0.469
1250.001	691.456	80.002	20.008	100.239	20.085	4.057	0.468
1250.500	691.708	80.001	20.008	100.239	20.085	4.010	0.491
1251.000	691.932	80.001	20.007	100.246	20.086	3.872	0.486
1251.500	692.198	80.001	20.007	100.254	20.087	3.720	0.483
1252.000	692.457	80.001	20.007	100.260	20.087	3.672	0.508
1252.501	692.667	80.001	20.007	100.254	20.086	3.763	0.497
1253.001	692.936	80.002	20.008	100.246	20.087	3.702	0.474
1253.500	693.171	80.001	20.008	100.238	20.088	3.490	0.491
1254.000	693.449	80.002	20.008	100.237	20.085	3.965	0.508
1254.500	693.695	80.001	20.008	100.240	20.087	3.665	0.518
1255.000	693.947	80.001	20.007	100.249	20.086	3.803	0.511
1255.500	694.193	80.001	20.007	100.257	20.087	3.749	0.499
1256.000	694.432	80.001	20.007	100.257	20.087	3.753	0.492
1256.500	694.692	80.001	20.007	100.249	20.087	3.665	0.492
1257.001	694.922	80.001	20.008	100.240	20.088	3.487	0.494
1257.501	695.159	80.001	20.008	100.233	20.088	3.578	0.479
1258.000	695.399	80.002	20.008	100.233	20.086	3.767	0.472
1258.501	695.655	80.000	20.007	100.241	20.085	3.926	0.487
1259.001	695.942	80.002	20.007	100.250	20.086	3.834	0.520
1259.500	696.165	80.001	20.007	100.257	20.085	3.915	0.526
1260.001	696.438	80.002	20.008	100.257	20.084	4.134	0.503
1260.501	696.686	80.001	20.008	100.249	20.084	4.103	0.508
1261.001	696.943	80.000	20.008	100.241	20.085	3.982	0.513
1261.501	697.198	80.001	20.008	100.232	20.088	3.558	0.509
1262.001	697.413	80.002	20.008	100.234	20.085	3.959	0.491
1262.500	697.706	80.002	20.007	100.241	20.085	4.027	0.489
1263.000	697.927	80.001	20.008	100.248	20.087	3.649	0.511
1263.500	698.170	80.001	20.007	100.256	20.087	3.669	0.489
1264.000	698.442	80.001	20.008	100.259	20.089	3.359	0.489
1264.500	698.680	80.001	20.008	100.251	20.090	3.190	0.512
1265.001	698.968	80.000	20.008	100.242	20.089	3.281	0.518
1265.501	699.233	80.001	20.007	100.235	20.086	3.764	0.540
1266.000	699.534	80.000	20.008	100.230	20.088	3.470	0.560
1266.501	699.742	80.001	20.007	100.229	20.088	3.558	0.537
1267.001	700.016	80.000	20.007	100.234	20.085	3.925	0.496
1267.500	700.232	80.002	20.007	100.237	20.088	3.483	0.486
1268.000	700.491	80.001	20.008	100.237	20.088	3.469	0.482
1268.500	700.776	80.001	20.008	100.234	20.085	3.969	0.509
1269.000	700.983	80.001	20.008	100.233	20.089	3.423	0.518
1269.500	701.296	80.000	20.008	100.232	20.090	3.237	0.506
1270.000	701.494	80.000	20.007	100.238	20.084	4.134	0.516
1270.500	701.730	80.001	20.007	100.245	20.087	3.659	0.472
1271.000	702.003	80.001	20.007	100.252	20.090	3.217	0.471
1271.500	702.243	80.001	20.007	100.254	20.089	3.298	0.511
1272.000	702.494	80.002	20.008	100.248	20.094	2.586	0.502
1272.500	702.732	80.000	20.008	100.239	20.091	3.069	0.490
1273.000	703.012	80.003	20.008	100.232	20.092	2.860	0.504
1273.500	703.261	80.000	20.008	100.229	20.093	2.741	0.524
1274.000	703.524	80.002	20.008	100.236	20.093	2.731	0.520
1274.500	703.718	80.001	20.007	100.246	20.093	2.690	0.485
1275.000	704.000	80.000	20.007	100.255	20.092	2.808	0.467
1275.501	704.227	80.001	20.008	100.256	20.093	2.761	0.492
1276.001	704.461	80.001	20.008	100.253	20.095	2.428	0.485
1276.501	704.713	80.002	20.008	100.249	20.092	2.883	0.474
1277.001	704.970	80.000	20.008	100.246	20.090	3.173	0.497
1277.501	705.204	80.002	20.008	100.246	20.092	2.930	0.500
1278.000	705.472	80.000	20.007	100.251	20.090	3.213	0.497
1278.500	705.684	80.001	20.008	100.257	20.089	3.307	0.491
1279.000	705.981	80.000	20.007	100.252	20.090	3.189	0.495
1279.500	706.254	80.001	20.008	100.245	20.092	2.954	0.539
1280.000	706.477	80.001	20.008	100.237	20.089	3.291	0.533
1280.500	706.740	80.001	20.008	100.230	20.090	3.261	0.492
1281.000	707.003	80.002	20.008	100.230	20.089	3.291	0.506
1281.500	707.249	80.000	20.007	100.237	20.087	3.726	0.517
1282.001	707.485	80.002	20.007	100.246	20.088	3.449	0.495
1282.501	707.733	80.001	20.007	100.251	20.088	3.547	0.483
1283.000	707.968	80.001	20.008	100.251	20.086	3.794	0.484
1283.500	708.212	80.002	20.008	100.244	20.086	3.794	0.482
1284.000	708.477	80.001	20.008	100.237	20.086	3.892	0.494
1284.500	708.720	80.002	20.008	100.238	20.085	3.952	0.508
1285.000	709.020	80.001	20.008	100.240	20.085	3.989	0.525
1285.500	709.237	80.003	20.007	100.244	20.083	4.373	0.530
1286.000	709.507	80.002	20.007	100.244	20.081	4.690	0.502
1286.500	709.743	80.000	20.008	100.242	20.082	4.457	0.497
1287.001	710.031	80.002	20.009	100.230	20.081	4.589	0.516
1287.501	710.300	80.002	20.009	100.223	20.083	4.377	0.540
1288.000	710.560	80.003	20.008	100.219	20.082	4.492	0.542
1288.501	710.829	80.001	20.008	100.226	20.084	4.158	0.529
1289.001	711.055	80.003	20.007	100.233	20.083	4.262	0.512
1289.501	711.335	80.002	20.008	100.235	20.082	4.502	0.501
1290.001	711.582	79.999	20.007	100.233	20.084	4.084	0.517
1290.501	711.819	80.001	20.008	100.232	20.084	4.206	0.506
1291.001	712.102	80.001	20.008	100.223	20.082	4.473	0.502
1291.501	712.337	80.001	20.008	100.219	20.081	4.597	0.518
1292.000	712.637	80.002	20.008	100.227	20.080	4.766	0.526
1292.500	712.837	80.002	20.007	100.236	20.084	4.138	0.517
1293.000	713.112	80.001	20.007	100.244	20.086	3.881	0.488
1293.501	713.352	80.001	20.008	100.248	20.087	3.648	0.496
1294.001	713.612	80.001	20.007	100.246	20.083	4.323	0.508
1294.501	713.889	80.002	20.008	100.240	20.083	4.316	0.518
1295.001	714.112	80.002	20.008	100.235	20.083	4.286	0.518
1295.501	714.386	80.001	20.008	100.237	20.085	3.946	0.498
1296.001	714.626	80.001	20.007	100.243	20.083	4.286	0.506
1296.501	714.881	80.001	20.007	100.250	20.083	4.353	0.505
1297.000	715.147	80.001	20.008	100.252	20.081	4.697	0.508
1297.500	715.385	80.000	20.008	100.248	20.083	4.279	0.513
1298.000	715.625	80.001	20.007	100.240	20.081	4.650	0.491
1298.500	715.873	80.001	20.008	100.232	20.084	4.158	0.483
1299.000	716.105	80.001	20.007	100.226	20.084	4.107	0.484
1299.500	716.378	80.002	20.008	100.232	20.083	4.276	0.493
1300.000	716.584	80.001	20.007	100.240	20.087	3.716	0.492
1300.500	716.845	80.001	20.007	100.249	20.087	3.746	0.473
1301.001	717.070	80.001	20.007	100.253	20.089	3.405	0.477
1301.501	717.304	80.000	20.007	100.252	20.088	3.563	0.473
1302.000	717.522	80.001	20.008	100.247	20.089	3.425	0.455
1302.500	717.799	80.002	20.008	100.247	20.090	3.190	0.473
1303.000	717.998	80.002	20.007	100.252	20.085	3.972	0.485
1303.500	718.295	80.000	20.007	100.261	20.085	4.043	0.486
1304.000	718.526	80.001	20.007	100.269	20.087	3.601	0.512
1304.500	718.763	80.000	20.007	100.271	20.085	4.056	0.498
1305.000	719.033	80.001	20.008	100.263	20.086	3.867	0.488
1305.500	719.274	80.001	20.008	100.251	20.089	3.375	0.509
1306.000	719.512	80.000	20.008	100.238	20.089	3.362	0.495
1306.501	719.771	80.002	20.008	100.234	20.088	3.517	0.488
1307.001	720.011	80.002	20.008	100.236	20.087	3.639	0.499
1307.500	720.267	80.000	20.007	100.244	20.086	3.774	0.497
1308.000	720.479	80.002	20.007	100.251	20.087	3.629	0.482
1308.500	720.757	80.001	20.008	100.254	20.086	3.800	0.479
1309.000	720.977	80.001	20.008	100.251	20.085	4.057	0.494
1309.500	721.185	80.001	20.007	100.244	20.088	3.460	0.462
1310.000	721.396	80.000	20.008	100.235	20.087	3.743	0.423
1310.501	721.668	80.001	20.007	100.233	20.086	3.831	0.451
1311.001	721.930	80.002	20.008	100.238	20.087	3.619	0.509
1311.500	722.153	80.000	20.007	100.245	20.087	3.659	0.510
1312.001	722.400	79.999	20.007	100.249	20.085	3.919	0.478
1312.501	722.676	80.002	20.007	100.250	20.085	3.986	0.496
1313.001	722.933	80.001	20.007	100.243	20.086	3.847	0.527
1313.501	723.179	80.000	20.008	100.230	20.082	4.552	0.518
1314.001	723.469	80.000	20.008	100.221	20.084	4.191	0.519
1314.500	723.724	80.002	20.008	100.220	20.084	4.151	0.541
1315.000	724.003	80.002	20.007	100.227	20.084	4.216	0.540
1315.500	724.247	80.000	20.008	100.235	20.083	4.338	0.529
1316.001	724.502	80.002	20.007	100.243	20.083	4.294	0.511
1316.501	724.778	80.000	20.007	100.245	20.082	4.482	0.515
1317.000	725.084	80.001	20.008	100.241	20.082	4.515	0.557
1317.500	725.294	80.002	20.008	100.231	20.080	4.758	0.549
1318.000	725.570	80.002	20.008	100.224	20.079	4.872	0.501
1318.500	725.802	80.001	20.008	100.227	20.082	4.407	0.497
1319.000	726.043	80.001	20.007	100.234	20.084	4.077	0.491
1319.501	726.333	80.001	20.008	100.243	20.083	4.320	0.502
1320.001	726.611	80.001	20.008	100.253	20.084	4.216	0.549
1320.500	726.860	80.000	20.007	100.260	20.083	4.300	0.547
1321.000	727.111	80.002	20.007	100.255	20.084	4.195	0.514
1321.500	727.459	80.001	20.008	100.247	20.087	3.740	0.550
1322.000	727.688	80.001	20.008	100.243	20.086	3.784	0.588
1322.500	727.935	80.001	20.007	100.242	20.089	3.387	0.526
1323.000	728.152	80.002	20.008	100.242	20.086	3.764	0.470
1323.500	728.453	80.001	20.008	100.248	20.088	3.549	0.491
1324.000	728.640	80.001	20.007	100.257	20.088	3.538	0.503
1324.500	728.945	79.999	20.008	100.260	20.089	3.305	0.490
1325.001	729.180	80.002	20.007	100.254	20.088	3.562	0.516
1325.501	729.451	80.002	20.008	100.247	20.087	3.653	0.523
1326.000	729.746	80.000	20.008	100.240	20.088	3.494	0.536
1326.500	729.957	80.001	20.008	100.236	20.088	3.518	0.536
1327.000	730.209	80.001	20.008	100.237	20.088	3.474	0.484
1327.500	730.434	80.000	20.008	100.250	20.088	3.575	0.470
1328.000	730.712	80.001	20.009	100.259	20.086	3.851	0.490
1328.500	730.969	80.001	20.008	100.267	20.088	3.510	0.519
1329.001	731.209	80.002	20.008	100.265	20.088	3.473	0.516
1329.501	731.455	80.001	20.008	100.255	20.085	4.057	0.491
1330.001	731.741	80.001	20.008	100.241	20.087	3.719	0.508
1330.500	731.965	80.002	20.008	100.233	20.082	4.434	0.521
1331.000	732.203	80.000	20.008	100.232	20.085	3.990	0.486
1331.501	732.475	80.000	20.007	100.238	20.083	4.283	0.486
1332.001	732.667	80.001	20.007	100.247	20.085	3.922	0.487
1332.501	732.961	80.002	20.007	100.253	20.083	4.239	0.475
1333.001	733.191	80.001	20.007	100.257	20.086	3.874	0.505
1333.500	733.433	79.999	20.007	100.258	20.087	3.746	0.498
1334.000	733.672	80.002	20.008	100.258	20.085	4.070	0.476
1334.500	733.935	79.999	20.008	100.258	20.085	4.039	0.491
1335.000	734.198	80.002	20.007	100.262	20.086	3.861	0.514
1335.500	734.475	80.001	20.007	100.272	20.085	4.037	0.533
1336.000	734.708	80.001	20.007	100.273	20.087	3.609	0.526
1336.500	734.976	80.001	20.007	100.274	20.088	3.443	0.506
1337.000	735.215	79.999	20.008	100.273	20.087	3.692	0.503
1337.500	735.499	80.002	20.008	100.269	20.088	3.537	0.515
1338.000	735.724	80.001	20.008	100.261	20.087	3.635	0.516
1338.501	735.979	80.000	20.007	100.261	20.088	3.460	0.494
1339.001	736.266	80.001	20.008	100.260	20.085	3.979	0.511
1339.500	736.535	80.001	20.007	100.261	20.084	4.202	0.549
1340.001	736.764	80.001	20.007	100.261	20.085	4.013	0.527
1340.501	737.007	80.001	20.007	100.261	20.088	3.453	0.485
1341.001	737.269	80.001	20.008	100.255	20.086	3.894	0.488
1341.501	737.593	80.000	20.007	100.247	20.085	3.924	0.545
1342.000	737.832	80.001	20.008	100.241	20.086	3.820	0.574
1342.500	738.097	80.002	20.008	100.241	20.086	3.814	0.534
1343.000	738.317	80.001	20.007	100.240	20.085	3.996	0.495
1343.501	738.572	80.000	20.007	100.247	20.084	4.212	0.480
1344.001	738.844	80.001	20.008	100.255	20.086	3.848	0.501
1344.501	739.096	80.001	20.007	100.261	20.084	4.117	0.526
1345.000	739.353	80.002	20.007	100.254	20.084	4.121	0.517
1345.500	739.582	80.001	20.007	100.247	20.083	4.381	0.497
1346.001	739.838	80.002	20.008	100.239	20.084	4.084	0.485
1346.501	740.089	80.002	20.008	100.231	20.083	4.297	0.496
1347.001	740.343	80.000	20.007	100.229	20.082	4.486	0.506
1347.500	740.586	80.003	20.007	100.235	20.082	4.459	0.501
1348.000	740.863	80.000	20.007	100.244	20.082	4.455	0.508
1348.500	741.099	80.002	20.007	100.251	20.084	4.165	0.516
1349.000	741.389	80.001	20.008	100.256	20.081	4.663	0.520
1349.500	741.636	80.001	20.007	100.250	20.083	4.336	0.532
1350.000	741.859	80.003	20.008	100.243	20.084	4.185	0.504
1350.500	742.113	80.001	20.008	100.240	20.080	4.768	0.473
1351.000	742.353	80.000	20.007	100.240	20.081	4.688	0.486
