Sample Weight (mg):	3
Heating Rate (C/s):	0.5
Combustor Temp (C):	900
N2 Flow Rate (cc/min):	80
O2 Flow Rate (cc/min):	20
Time (s)	Temperature (C)	N2 flow rate (cc/min)	O2 flow rate (cc/min)	Flow Rate (cc/min)	Oxygen (%)	HRR (W/g)	Heating rate (C/s)
0.000	88.300	80.002	20.009	100.517	20.081	2.359	-0.022
0.500	88.259	80.003	20.010	100.508	20.081	2.350	-0.030
1.000	88.273	80.002	20.010	100.501	20.081	2.401	-0.045
1.500	88.268	80.003	20.010	100.500	20.078	2.686	-0.009
2.000	88.204	80.002	20.010	100.506	20.076	2.952	-0.030
2.500	88.171	80.003	20.009	100.514	20.081	2.413	-0.083
3.000	88.139	80.002	20.010	100.524	20.079	2.610	-0.081
3.500	88.150	80.003	20.010	100.524	20.080	2.479	-0.043
4.000	88.107	80.003	20.010	100.511	20.080	2.507	-0.026
4.500	88.118	80.002	20.010	100.499	20.083	2.207	-0.032
5.000	88.086	80.003	20.010	100.492	20.081	2.385	-0.027
5.500	88.112	80.003	20.010	100.490	20.080	2.447	-0.014
6.000	88.072	80.003	20.010	100.497	20.083	2.167	-0.010
6.500	88.059	80.003	20.009	100.513	20.081	2.384	-0.034
7.000	88.065	80.003	20.009	100.526	20.083	2.194	-0.030
7.500	88.049	80.002	20.010	100.534	20.081	2.410	-0.009
8.000	88.028	80.004	20.009	100.532	20.081	2.366	-0.023
8.500	88.050	80.003	20.010	100.525	20.081	2.436	-0.018
9.000	88.046	80.002	20.010	100.514	20.082	2.264	0.010
9.500	88.029	80.004	20.010	100.506	20.083	2.213	-0.001
10.000	87.994	80.004	20.009	100.503	20.085	2.017	-0.036
10.500	88.047	80.002	20.010	100.508	20.082	2.269	-0.017
11.000	87.971	80.004	20.009	100.517	20.083	2.198	-0.003
11.500	87.986	80.002	20.010	100.523	20.082	2.293	-0.042
12.001	88.016	80.003	20.010	100.524	20.086	1.836	-0.008
12.501	88.015	80.004	20.010	100.518	20.084	2.054	0.037
13.000	87.990	80.003	20.010	100.508	20.085	2.004	0.002
13.500	88.012	80.004	20.010	100.504	20.083	2.232	-0.014
14.000	88.033	80.003	20.010	100.510	20.083	2.168	0.020
14.500	87.991	80.002	20.009	100.525	20.081	2.343	0.011
15.000	87.967	80.002	20.010	100.541	20.082	2.321	-0.044
15.500	88.021	80.003	20.009	100.552	20.084	2.100	-0.018
16.000	87.966	80.003	20.010	100.550	20.083	2.178	0.014
16.500	87.958	80.002	20.010	100.534	20.084	2.045	-0.032
17.000	87.950	80.004	20.010	100.517	20.084	2.067	-0.039
17.500	87.997	80.002	20.010	100.504	20.086	1.851	0.012
18.000	87.969	80.003	20.009	100.501	20.085	1.966	0.029
18.500	88.019	80.002	20.010	100.509	20.085	1.973	0.021
19.000	88.030	80.003	20.009	100.528	20.084	2.039	0.041
19.500	88.029	80.003	20.010	100.540	20.086	1.922	0.036
20.000	88.065	80.002	20.010	100.542	20.084	2.101	0.023
20.500	88.042	80.002	20.009	100.534	20.084	2.099	0.024
21.000	88.090	80.002	20.010	100.522	20.082	2.324	0.019
21.501	88.097	80.004	20.010	100.507	20.081	2.424	0.040
22.000	88.116	80.003	20.009	100.504	20.083	2.157	0.040
22.500	88.142	80.002	20.009	100.512	20.080	2.529	0.035
23.000	88.164	80.002	20.009	100.524	20.078	2.704	0.047
23.500	88.146	80.003	20.009	100.532	20.077	2.812	0.026
24.000	88.157	80.003	20.010	100.533	20.073	3.283	-0.001
24.500	88.144	80.003	20.011	100.526	20.075	3.013	-0.005
25.000	88.176	80.004	20.011	100.516	20.073	3.219	0.008
25.500	88.176	80.003	20.011	100.512	20.071	3.457	0.025
26.000	88.211	80.003	20.010	100.517	20.072	3.342	0.034
26.500	88.216	80.002	20.009	100.537	20.070	3.530	0.038
27.000	88.270	80.002	20.009	100.562	20.069	3.658	0.050
27.500	88.235	80.004	20.009	100.586	20.068	3.795	0.039
28.000	88.332	80.003	20.010	100.598	20.065	4.106	0.040
28.500	88.246	80.003	20.010	100.602	20.063	4.314	0.036
29.000	88.319	80.003	20.010	100.596	20.062	4.426	-0.001
29.500	88.329	80.002	20.009	100.591	20.059	4.718	0.035
30.000	88.400	80.004	20.010	100.593	20.059	4.657	0.082
30.501	88.413	80.003	20.010	100.605	20.061	4.449	0.083
31.000	88.485	80.003	20.010	100.621	20.059	4.696	0.085
31.500	88.464	80.004	20.010	100.636	20.057	4.924	0.068
32.000	88.508	80.004	20.010	100.640	20.056	5.019	0.036
32.501	88.531	80.005	20.009	100.637	20.058	4.836	0.045
33.001	88.496	80.003	20.011	100.629	20.056	5.053	0.028
33.500	88.633	80.003	20.010	100.626	20.052	5.425	0.045
34.000	88.688	80.004	20.010	100.631	20.053	5.363	0.147
34.500	88.670	80.003	20.010	100.645	20.054	5.218	0.115
35.000	88.724	80.004	20.010	100.663	20.050	5.613	0.037
35.500	88.785	80.004	20.009	100.679	20.049	5.717	0.075
36.000	88.817	80.004	20.011	100.683	20.049	5.788	0.104
36.500	88.848	80.003	20.011	100.679	20.045	6.149	0.078
37.000	88.839	80.004	20.010	100.675	20.045	6.148	0.042
37.500	88.950	80.004	20.010	100.673	20.046	6.099	0.062
38.000	88.987	80.004	20.010	100.678	20.044	6.305	0.125
38.500	89.007	80.003	20.009	100.692	20.044	6.296	0.102
39.000	89.060	80.002	20.010	100.701	20.043	6.388	0.065
39.500	89.218	80.004	20.009	100.702	20.041	6.609	0.142
40.000	89.239	80.003	20.010	100.693	20.041	6.554	0.195
40.500	89.346	80.002	20.010	100.682	20.041	6.544	0.154
41.000	89.323	80.004	20.010	100.672	20.040	6.684	0.106
41.500	89.415	80.002	20.009	100.677	20.041	6.578	0.076
42.000	89.450	80.004	20.010	100.689	20.039	6.804	0.098
42.500	89.526	80.003	20.010	100.701	20.039	6.841	0.119
43.001	89.611	80.003	20.011	100.708	20.038	6.938	0.136
43.501	89.701	80.004	20.010	100.710	20.037	7.011	0.169
44.001	89.681	80.002	20.011	100.704	20.037	6.978	0.123
44.500	89.776	80.004	20.011	100.701	20.035	7.238	0.072
45.000	89.838	80.003	20.010	100.705	20.038	6.944	0.116
45.500	89.935	80.003	20.009	100.713	20.039	6.783	0.158
46.000	89.971	80.002	20.010	100.718	20.042	6.530	0.146
46.501	90.093	80.003	20.009	100.719	20.041	6.616	0.145
47.001	90.193	80.003	20.011	100.709	20.040	6.675	0.190
47.501	90.265	80.003	20.010	100.690	20.041	6.640	0.197
48.001	90.379	80.003	20.010	100.674	20.041	6.614	0.179
48.500	90.470	80.003	20.010	100.665	20.040	6.657	0.195
49.000	90.527	80.001	20.010	100.669	20.042	6.479	0.177
49.500	90.666	80.003	20.009	100.685	20.041	6.636	0.172
50.000	90.734	80.002	20.009	100.709	20.040	6.693	0.202
50.500	90.795	80.003	20.009	100.725	20.040	6.688	0.168
51.000	90.893	80.002	20.011	100.730	20.038	6.886	0.144
51.501	90.989	80.001	20.010	100.725	20.037	6.981	0.177
52.001	91.072	80.004	20.009	100.721	20.039	6.806	0.187
52.500	91.187	80.002	20.010	100.715	20.039	6.802	0.188
53.000	91.286	80.002	20.009	100.716	20.036	7.089	0.206
53.501	91.404	80.002	20.009	100.730	20.036	7.088	0.216
54.001	91.436	80.003	20.009	100.745	20.035	7.230	0.183
54.500	91.595	80.002	20.009	100.751	20.035	7.224	0.170
55.000	91.682	80.003	20.010	100.752	20.036	7.147	0.218
55.501	91.826	80.002	20.010	100.746	20.036	7.138	0.239
56.001	91.939	80.002	20.010	100.732	20.036	7.094	0.244
56.500	92.040	80.002	20.010	100.729	20.035	7.206	0.235
57.000	92.151	80.004	20.009	100.731	20.034	7.290	0.213
57.500	92.279	80.001	20.009	100.744	20.031	7.668	0.226
58.000	92.381	80.002	20.010	100.757	20.031	7.610	0.234
58.500	92.473	80.003	20.010	100.765	20.030	7.732	0.212
59.000	92.570	80.002	20.010	100.761	20.030	7.726	0.192
59.500	92.686	80.002	20.009	100.751	20.031	7.625	0.201
60.000	92.798	80.003	20.010	100.742	20.030	7.737	0.220
60.500	92.947	80.001	20.010	100.742	20.029	7.890	0.245
61.000	93.093	80.003	20.010	100.754	20.031	7.662	0.278
61.500	93.244	80.001	20.009	100.773	20.030	7.725	0.296
62.000	93.368	80.002	20.010	100.785	20.028	7.982	0.286
62.500	93.515	80.003	20.010	100.789	20.028	7.952	0.273
63.000	93.631	80.003	20.011	100.781	20.029	7.889	0.267
63.500	93.761	80.001	20.010	100.762	20.027	8.013	0.254
64.000	93.908	80.002	20.010	100.746	20.028	8.005	0.262
64.500	94.054	80.001	20.009	100.742	20.030	7.766	0.285
65.000	94.231	80.003	20.010	100.745	20.028	8.000	0.308
65.500	94.363	80.003	20.010	100.754	20.025	8.313	0.316
66.001	94.490	80.003	20.010	100.764	20.026	8.184	0.284
66.501	94.634	80.003	20.010	100.762	20.026	8.210	0.265
67.001	94.752	80.002	20.010	100.754	20.025	8.242	0.267
67.501	94.927	80.002	20.010	100.743	20.026	8.183	0.278
68.001	95.056	80.003	20.011	100.743	20.026	8.138	0.298
68.500	95.230	80.003	20.010	100.745	20.022	8.556	0.303
69.000	95.396	80.001	20.010	100.753	20.024	8.405	0.322
69.500	95.545	80.002	20.010	100.761	20.023	8.439	0.328
70.000	95.671	80.002	20.010	100.764	20.024	8.361	0.295
70.501	95.811	80.001	20.009	100.756	20.026	8.206	0.270
71.001	96.011	80.004	20.010	100.748	20.025	8.222	0.303
71.500	96.122	80.002	20.009	100.748	20.024	8.388	0.325
72.000	96.318	80.003	20.009	100.757	20.022	8.555	0.309
72.500	96.476	80.000	20.009	100.770	20.025	8.309	0.331
73.000	96.610	80.002	20.009	100.785	20.022	8.610	0.323
73.500	96.782	80.002	20.009	100.793	20.024	8.414	0.300
74.000	96.903	80.002	20.009	100.791	20.022	8.553	0.300
74.500	97.125	80.002	20.009	100.782	20.023	8.478	0.318
75.000	97.304	80.002	20.009	100.774	20.023	8.435	0.372
75.500	97.497	80.002	20.009	100.767	20.022	8.613	0.386
76.001	97.598	80.002	20.009	100.773	20.022	8.627	0.333
76.501	97.808	80.002	20.009	100.782	20.022	8.534	0.303
77.001	97.979	80.002	20.009	100.787	20.020	8.748	0.346
77.501	98.161	80.003	20.009	100.786	20.023	8.443	0.367
78.001	98.319	80.002	20.009	100.779	20.022	8.629	0.346
78.500	98.516	80.003	20.010	100.764	20.021	8.638	0.347
79.001	98.717	80.003	20.010	100.753	20.023	8.513	0.376
79.501	98.921	80.002	20.009	100.751	20.024	8.390	0.402
80.000	99.078	80.003	20.009	100.760	20.023	8.442	0.383
80.500	99.263	80.002	20.009	100.775	20.022	8.605	0.352
81.001	99.453	80.003	20.009	100.784	20.022	8.565	0.359
81.501	99.568	80.001	20.010	100.786	20.023	8.502	0.340
82.001	99.763	80.002	20.009	100.779	20.021	8.662	0.308
82.501	99.971	80.003	20.009	100.764	20.022	8.583	0.356
83.000	100.187	80.003	20.009	100.755	20.019	8.876	0.414
83.500	100.366	80.001	20.010	100.753	20.019	8.905	0.410
84.000	100.548	80.004	20.009	100.755	20.022	8.586	0.378
84.500	100.752	80.002	20.009	100.762	20.020	8.762	0.373
85.000	100.950	80.002	20.009	100.770	20.022	8.573	0.394
85.501	101.130	80.003	20.009	100.767	20.021	8.721	0.391
86.001	101.321	80.002	20.010	100.760	20.019	8.903	0.375
86.501	101.485	80.004	20.009	100.754	20.018	8.951	0.363
87.000	101.732	80.004	20.009	100.752	20.017	9.067	0.383
87.500	101.893	80.002	20.009	100.756	20.016	9.219	0.410
88.001	102.105	80.004	20.009	100.767	20.018	8.988	0.391
88.501	102.321	80.003	20.009	100.780	20.020	8.750	0.401
89.000	102.477	80.002	20.009	100.785	20.021	8.701	0.400
89.500	102.710	80.004	20.010	100.780	20.020	8.769	0.380
90.000	102.944	80.003	20.009	100.770	20.020	8.770	0.428
90.501	103.130	80.003	20.009	100.758	20.020	8.767	0.443
91.001	103.341	80.003	20.010	100.755	20.020	8.759	0.408
91.500	103.554	80.001	20.009	100.762	20.018	9.002	0.411
92.001	103.723	80.002	20.009	100.776	20.019	8.892	0.403
92.501	103.947	80.003	20.009	100.787	20.020	8.746	0.387
93.000	104.153	80.003	20.009	100.790	20.021	8.648	0.411
93.500	104.369	80.004	20.009	100.787	20.022	8.623	0.426
94.000	104.614	80.002	20.009	100.779	20.022	8.570	0.442
94.501	104.793	80.003	20.010	100.773	20.019	8.848	0.443
95.001	105.051	80.002	20.009	100.776	20.020	8.810	0.431
95.501	105.295	80.003	20.010	100.784	20.019	8.921	0.469
96.000	105.450	80.003	20.009	100.794	20.018	8.987	0.450
96.500	105.706	80.002	20.009	100.797	20.019	8.902	0.405
97.000	105.920	80.004	20.009	100.796	20.019	8.886	0.440
97.500	106.149	80.002	20.009	100.783	20.020	8.835	0.457
98.000	106.369	80.003	20.010	100.771	20.018	9.017	0.446
98.500	106.569	80.001	20.009	100.768	20.017	9.144	0.435
99.000	106.800	80.004	20.009	100.776	20.017	9.058	0.425
99.500	107.038	80.001	20.009	100.791	20.019	8.875	0.450
100.001	107.268	80.001	20.009	100.805	20.018	9.020	0.468
100.501	107.530	80.003	20.009	100.814	20.016	9.201	0.480
101.001	107.719	80.003	20.009	100.809	20.019	8.921	0.472
101.500	107.952	80.003	20.009	100.800	20.017	9.114	0.437
102.000	108.140	80.002	20.009	100.790	20.016	9.186	0.421
102.501	108.373	80.002	20.009	100.789	20.017	9.127	0.421
103.001	108.617	80.003	20.009	100.800	20.016	9.221	0.449
103.500	108.869	80.003	20.009	100.814	20.014	9.421	0.486
104.000	109.130	80.002	20.008	100.821	20.017	9.152	0.504
104.501	109.304	80.003	20.009	100.815	20.017	9.151	0.474
105.001	109.604	80.003	20.010	100.799	20.013	9.481	0.455
105.500	109.860	80.002	20.009	100.778	20.016	9.231	0.515
106.000	110.117	80.003	20.009	100.764	20.016	9.183	0.535
106.501	110.366	80.002	20.009	100.758	20.018	8.993	0.510
107.001	110.604	80.003	20.009	100.767	20.018	9.055	0.497
107.500	110.868	80.004	20.010	100.782	20.014	9.465	0.494
108.000	111.088	80.001	20.009	100.795	20.016	9.256	0.493
108.500	111.354	80.003	20.010	100.799	20.018	9.022	0.485
109.001	111.599	80.003	20.010	100.796	20.018	9.048	0.498
109.501	111.811	80.002	20.009	100.789	20.020	8.777	0.484
110.001	112.088	80.004	20.009	100.781	20.018	8.997	0.473
110.501	112.334	80.003	20.009	100.780	20.019	8.930	0.506
111.001	112.622	80.003	20.009	100.786	20.016	9.177	0.529
111.501	112.806	80.003	20.009	100.795	20.017	9.155	0.503
112.000	113.041	80.002	20.010	100.801	20.016	9.165	0.446
112.500	113.327	80.003	20.009	100.805	20.016	9.201	0.470
113.000	113.593	80.003	20.009	100.798	20.017	9.109	0.536
113.500	113.788	80.001	20.010	100.788	20.017	9.107	0.506
114.000	114.104	80.003	20.010	100.779	20.016	9.221	0.486
114.500	114.324	80.003	20.009	100.782	20.014	9.374	0.524
115.001	114.578	80.001	20.010	100.789	20.016	9.202	0.506
115.501	114.880	80.003	20.009	100.801	20.014	9.396	0.515
116.001	115.126	80.002	20.010	100.812	20.015	9.293	0.552
116.501	115.362	80.002	20.010	100.815	20.017	9.066	0.515
117.001	115.663	80.004	20.010	100.809	20.017	9.064	0.510
117.501	115.900	80.003	20.010	100.803	20.017	9.124	0.537
118.001	116.183	80.003	20.010	100.798	20.019	8.923	0.529
118.501	116.429	80.001	20.010	100.796	20.019	8.948	0.525
119.000	116.687	80.002	20.010	100.803	20.020	8.826	0.517
119.500	116.928	80.002	20.010	100.814	20.016	9.207	0.501
120.001	117.243	80.002	20.010	100.818	20.018	9.039	0.527
120.501	117.480	80.003	20.011	100.813	20.018	9.003	0.554
121.000	117.766	80.002	20.011	100.805	20.018	9.003	0.537
121.501	118.048	80.002	20.010	100.795	20.018	8.971	0.545
122.001	118.263	80.002	20.010	100.783	20.019	8.934	0.533
122.501	118.581	80.002	20.009	100.780	20.019	8.871	0.515
123.000	118.856	80.002	20.010	100.788	20.018	8.958	0.563
123.500	119.107	80.003	20.009	100.803	20.021	8.709	0.559
124.000	119.378	80.002	20.010	100.813	20.016	9.219	0.524
124.500	119.650	80.003	20.010	100.812	20.021	8.735	0.532
125.000	119.909	80.002	20.010	100.804	20.019	8.907	0.537
125.500	120.233	80.002	20.010	100.792	20.018	8.965	0.557
126.000	120.486	80.002	20.010	100.778	20.018	8.986	0.580
126.500	120.791	80.002	20.010	100.776	20.018	9.051	0.568
127.000	120.990	80.003	20.010	100.783	20.016	9.169	0.531
127.500	121.274	80.002	20.010	100.791	20.017	9.115	0.493
128.000	121.564	80.002	20.010	100.795	20.014	9.405	0.528
128.500	121.814	80.002	20.010	100.791	20.017	9.081	0.557
129.000	122.116	80.002	20.010	100.776	20.016	9.229	0.546
129.500	122.429	80.003	20.011	100.768	20.019	8.935	0.583
130.000	122.672	80.002	20.009	100.761	20.017	9.139	0.585
130.500	122.926	80.003	20.009	100.764	20.013	9.573	0.527
131.000	123.251	80.002	20.009	100.774	20.013	9.481	0.539
131.500	123.516	80.001	20.009	100.784	20.013	9.482	0.585
132.000	123.777	80.003	20.009	100.782	20.016	9.259	0.558
132.500	124.083	80.003	20.009	100.775	20.015	9.259	0.547
133.000	124.385	80.002	20.009	100.761	20.015	9.309	0.587
133.500	124.656	80.002	20.009	100.753	20.015	9.346	0.590
134.000	124.922	80.002	20.009	100.752	20.016	9.234	0.555
134.500	125.181	80.003	20.009	100.762	20.013	9.470	0.531
135.000	125.508	80.001	20.008	100.776	20.018	9.048	0.556
135.500	125.816	80.003	20.009	100.791	20.011	9.719	0.611
136.000	126.055	80.003	20.009	100.790	20.015	9.362	0.591
136.500	126.318	80.002	20.009	100.781	20.017	9.126	0.525
137.000	126.617	80.003	20.010	100.766	20.015	9.280	0.532
137.500	126.946	80.001	20.009	100.752	20.016	9.169	0.595
138.000	127.202	80.002	20.008	100.744	20.015	9.304	0.607
138.500	127.498	80.003	20.009	100.748	20.015	9.325	0.569
139.000	127.742	80.002	20.009	100.757	20.015	9.266	0.546
139.500	128.021	80.003	20.010	100.764	20.019	8.844	0.531
140.000	128.289	80.002	20.009	100.771	20.015	9.359	0.535
140.500	128.577	80.003	20.009	100.771	20.015	9.276	0.552
141.001	128.906	80.002	20.010	100.763	20.017	9.138	0.587
141.500	129.204	80.002	20.010	100.756	20.017	9.141	0.622
142.000	129.444	80.001	20.010	100.755	20.016	9.227	0.582
142.500	129.761	80.004	20.010	100.755	20.016	9.254	0.548
143.000	130.060	80.003	20.009	100.758	20.016	9.173	0.587
143.500	130.356	80.002	20.010	100.766	20.018	9.011	0.606
144.000	130.582	80.003	20.010	100.770	20.017	9.058	0.558
144.500	130.916	80.004	20.010	100.758	20.017	9.097	0.541
145.000	131.228	80.003	20.011	100.741	20.016	9.209	0.603
145.500	131.535	80.003	20.011	100.722	20.017	9.104	0.633
146.000	131.804	80.004	20.010	100.709	20.016	9.176	0.597
146.501	132.032	80.001	20.010	100.704	20.015	9.292	0.536
147.000	132.369	80.003	20.010	100.716	20.017	9.062	0.531
147.500	132.664	80.003	20.010	100.729	20.017	9.059	0.599
148.000	132.926	80.003	20.010	100.738	20.018	8.991	0.594
148.500	133.265	80.001	20.010	100.740	20.015	9.303	0.579
149.000	133.579	80.003	20.010	100.733	20.013	9.541	0.627
149.500	133.817	80.002	20.010	100.719	20.010	9.821	0.602
150.000	134.108	80.002	20.010	100.707	20.016	9.188	0.541
150.500	134.412	80.002	20.010	100.704	20.015	9.307	0.562
151.000	134.673	80.004	20.010	100.707	20.016	9.197	0.580
151.500	134.933	80.001	20.010	100.715	20.012	9.604	0.543
152.000	135.238	80.004	20.009	100.725	20.016	9.246	0.543
152.500	135.547	80.001	20.010	100.731	20.016	9.253	0.589
153.000	135.803	80.001	20.010	100.727	20.013	9.561	0.590
153.500	136.112	80.002	20.010	100.716	20.013	9.487	0.565
154.000	136.409	80.003	20.010	100.700	20.013	9.539	0.585
154.500	136.699	80.003	20.011	100.688	20.013	9.518	0.596
155.000	137.006	80.001	20.010	100.686	20.016	9.165	0.592
155.500	137.295	80.003	20.010	100.692	20.014	9.396	0.597
156.001	137.554	80.001	20.009	100.702	20.018	9.033	0.572
156.500	137.858	80.002	20.010	100.717	20.014	9.432	0.556
157.000	138.124	80.002	20.010	100.722	20.016	9.251	0.567
157.500	138.385	80.002	20.010	100.718	20.013	9.478	0.548
158.000	138.705	80.002	20.011	100.705	20.012	9.649	0.554
158.500	138.997	80.002	20.010	100.691	20.013	9.475	0.597
159.000	139.295	80.003	20.009	100.685	20.013	9.517	0.601
159.500	139.616	80.002	20.010	100.690	20.013	9.486	0.605
160.000	139.885	80.002	20.010	100.698	20.013	9.555	0.604
160.500	140.181	80.003	20.010	100.711	20.011	9.758	0.578
161.000	140.458	80.004	20.010	100.723	20.008	10.048	0.569
161.500	140.741	80.002	20.010	100.721	20.012	9.590	0.566
162.000	141.014	80.004	20.010	100.707	20.013	9.467	0.558
162.500	141.351	80.003	20.010	100.697	20.012	9.640	0.583
163.000	141.645	80.003	20.010	100.690	20.013	9.520	0.621
163.500	141.908	80.003	20.010	100.690	20.013	9.489	0.594
164.000	142.241	80.003	20.010	100.699	20.014	9.428	0.576
164.500	142.501	80.002	20.010	100.714	20.014	9.434	0.594
165.000	142.717	80.002	20.010	100.723	20.010	9.803	0.535
165.500	143.015	80.002	20.010	100.731	20.013	9.472	0.496
166.000	143.314	80.004	20.010	100.725	20.014	9.394	0.556
166.500	143.629	80.002	20.010	100.716	20.013	9.559	0.605
167.000	143.956	80.002	20.011	100.704	20.012	9.668	0.628
167.500	144.228	80.003	20.010	100.694	20.013	9.499	0.621
168.000	144.472	80.004	20.010	100.688	20.013	9.488	0.558
168.500	144.809	80.002	20.010	100.689	20.013	9.509	0.549
169.000	145.047	80.003	20.010	100.697	20.012	9.622	0.578
169.500	145.350	80.003	20.009	100.701	20.013	9.515	0.557
170.000	145.626	80.003	20.010	100.702	20.013	9.548	0.560
170.500	145.978	80.003	20.010	100.693	20.011	9.697	0.604
171.000	146.238	80.004	20.010	100.682	20.010	9.785	0.620
171.500	146.525	80.003	20.010	100.668	20.010	9.826	0.580
172.000	146.832	80.003	20.010	100.664	20.013	9.545	0.570
172.500	147.066	80.002	20.010	100.665	20.010	9.787	0.567
173.000	147.396	80.003	20.010	100.671	20.010	9.825	0.553
173.500	147.602	80.002	20.009	100.680	20.009	9.928	0.550
174.000	147.927	80.002	20.010	100.687	20.009	9.913	0.533
174.500	148.264	80.003	20.010	100.684	20.009	9.942	0.596
175.000	148.500	80.002	20.010	100.672	20.008	10.019	0.617
175.500	148.768	80.003	20.010	100.658	20.007	10.183	0.539
176.000	149.080	80.002	20.010	100.648	20.009	9.939	0.542
176.500	149.300	80.002	20.010	100.644	20.006	10.211	0.556
177.001	149.593	80.003	20.010	100.654	20.006	10.293	0.523
177.500	149.895	80.003	20.010	100.674	20.007	10.113	0.554
178.000	150.190	80.002	20.009	100.692	20.006	10.197	0.595
178.500	150.489	80.002	20.010	100.702	20.005	10.399	0.595
179.000	150.749	80.003	20.010	100.701	20.005	10.359	0.577
179.500	151.068	80.003	20.010	100.688	20.004	10.424	0.569
180.000	151.357	80.003	20.010	100.671	20.006	10.268	0.593
180.501	151.632	80.002	20.010	100.663	20.003	10.584	0.586
181.000	151.936	80.004	20.010	100.662	20.007	10.147	0.572
181.500	152.190	80.001	20.010	100.666	20.004	10.438	0.568
182.000	152.488	80.003	20.009	100.677	20.004	10.434	0.555
182.500	152.739	80.002	20.010	100.684	20.001	10.773	0.550
183.000	153.042	80.003	20.010	100.683	20.004	10.477	0.552
183.500	153.296	80.003	20.010	100.675	20.001	10.752	0.556
184.000	153.592	80.002	20.010	100.667	20.004	10.418	0.553
184.501	153.828	80.002	20.010	100.657	20.002	10.673	0.541
185.000	154.204	80.002	20.010	100.653	20.000	10.878	0.572
185.500	154.429	80.004	20.010	100.660	20.001	10.783	0.606
186.000	154.725	80.001	20.010	100.670	19.999	10.931	0.561
186.500	154.992	80.003	20.010	100.681	19.999	11.025	0.542
187.000	155.297	80.004	20.010	100.687	19.997	11.227	0.568
187.500	155.544	80.003	20.010	100.685	19.993	11.576	0.563
188.000	155.840	80.004	20.010	100.678	19.993	11.565	0.547
188.500	156.109	80.002	20.011	100.668	19.991	11.822	0.553
189.000	156.406	80.003	20.011	100.657	19.990	11.882	0.565
189.500	156.653	80.003	20.010	100.654	19.991	11.858	0.556
190.000	156.987	80.001	20.010	100.661	19.987	12.222	0.563
190.500	157.248	80.002	20.010	100.668	19.988	12.170	0.588
191.000	157.529	80.003	20.010	100.674	19.985	12.455	0.568
191.500	157.856	80.003	20.010	100.673	19.987	12.192	0.575
192.000	158.102	80.003	20.010	100.671	19.984	12.522	0.590
192.500	158.383	80.002	20.009	100.662	19.984	12.552	0.550
193.001	158.633	80.003	20.010	100.655	19.984	12.501	0.529
193.500	158.906	80.004	20.009	100.650	19.981	12.899	0.527
194.000	159.189	80.002	20.009	100.657	19.983	12.683	0.540
194.500	159.490	80.003	20.010	100.665	19.980	12.964	0.570
195.000	159.717	80.003	20.009	100.675	19.980	12.981	0.556
195.500	160.075	80.002	20.009	100.681	19.979	13.063	0.557
196.000	160.335	80.003	20.010	100.678	19.977	13.272	0.602
196.500	160.637	80.003	20.009	100.664	19.975	13.469	0.590
197.000	160.925	80.003	20.009	100.648	19.976	13.416	0.576
197.500	161.188	80.003	20.010	100.631	19.975	13.484	0.570
198.000	161.455	80.002	20.009	100.624	19.977	13.308	0.540
198.500	161.785	80.003	20.009	100.628	19.976	13.380	0.563
199.000	162.020	80.002	20.009	100.644	19.973	13.720	0.581
199.501	162.314	80.002	20.011	100.657	19.974	13.605	0.548
200.001	162.576	80.002	20.009	100.665	19.971	13.890	0.543
200.500	162.874	80.003	20.010	100.661	19.973	13.654	0.558
201.000	163.133	80.002	20.010	100.654	19.970	14.007	0.558
201.500	163.406	80.003	20.010	100.645	19.971	13.920	0.544
202.000	163.654	80.002	20.009	100.642	19.968	14.266	0.527
202.500	164.005	80.002	20.009	100.648	19.967	14.286	0.560
203.000	164.234	80.003	20.010	100.661	19.968	14.241	0.589
203.500	164.535	80.002	20.010	100.667	19.966	14.468	0.555
204.000	164.737	80.002	20.010	100.667	19.965	14.509	0.517
204.500	165.021	80.003	20.010	100.665	19.965	14.560	0.495
205.000	165.255	80.003	20.010	100.654	19.965	14.586	0.502
205.500	165.564	80.002	20.010	100.641	19.966	14.469	0.531
206.000	165.833	80.003	20.010	100.638	19.964	14.607	0.560
206.500	166.116	80.002	20.010	100.641	19.965	14.514	0.565
207.000	166.401	80.003	20.010	100.651	19.962	14.858	0.560
207.501	166.621	80.002	20.009	100.663	19.961	14.930	0.536
208.000	166.941	80.002	20.010	100.675	19.959	15.135	0.522
208.500	167.208	80.002	20.010	100.676	19.961	14.915	0.564
209.000	167.458	80.002	20.011	100.665	19.958	15.276	0.552
209.500	167.762	80.002	20.011	100.649	19.958	15.243	0.535
210.000	167.982	80.002	20.011	100.636	19.956	15.447	0.539
210.501	168.345	80.003	20.010	100.633	19.957	15.418	0.553
211.001	168.616	80.002	20.010	100.640	19.954	15.672	0.608
211.500	168.888	80.002	20.010	100.651	19.954	15.705	0.588
212.000	169.182	80.001	20.010	100.659	19.954	15.640	0.555
212.500	169.447	80.004	20.010	100.664	19.954	15.644	0.563
213.000	169.670	80.001	20.010	100.655	19.954	15.703	0.524
213.500	169.957	80.001	20.010	100.646	19.953	15.824	0.499
214.000	170.267	80.002	20.009	100.644	19.952	15.930	0.554
214.500	170.475	80.002	20.010	100.650	19.954	15.724	0.558
215.000	170.733	80.002	20.011	100.658	19.956	15.505	0.492
215.500	171.031	80.002	20.010	100.672	19.954	15.650	0.511
216.000	171.315	80.002	20.010	100.681	19.952	15.908	0.569
216.500	171.621	80.003	20.010	100.681	19.955	15.557	0.586
217.000	171.857	80.002	20.010	100.668	19.954	15.670	0.565
217.500	172.118	80.002	20.010	100.658	19.953	15.767	0.519
218.000	172.373	80.002	20.010	100.652	19.954	15.712	0.507
218.500	172.669	80.002	20.010	100.654	19.955	15.597	0.533
219.000	172.942	80.003	20.009	100.662	19.954	15.691	0.560
219.501	173.225	80.002	20.010	100.676	19.952	15.927	0.563
220.001	173.461	80.002	20.010	100.680	19.952	15.938	0.537
220.501	173.731	80.002	20.010	100.673	19.953	15.807	0.512
221.000	174.037	80.002	20.010	100.658	19.954	15.663	0.541
221.500	174.327	80.003	20.010	100.648	19.952	15.928	0.586
222.000	174.586	80.002	20.011	100.639	19.952	15.910	0.572
222.500	174.839	80.002	20.010	100.638	19.952	15.910	0.531
223.000	175.094	80.004	20.011	100.644	19.950	16.138	0.511
223.500	175.365	80.002	20.010	100.652	19.951	15.979	0.517
224.001	175.599	80.003	20.010	100.654	19.954	15.696	0.515
224.500	175.924	80.002	20.010	100.653	19.950	16.070	0.531
225.000	176.193	80.004	20.010	100.643	19.954	15.705	0.576
225.500	176.405	80.002	20.011	100.630	19.954	15.696	0.538
226.000	176.730	80.003	20.010	100.621	19.954	15.678	0.510
226.500	176.943	80.001	20.010	100.618	19.957	15.425	0.538
227.000	177.223	80.002	20.010	100.620	19.956	15.512	0.515
227.500	177.524	80.002	20.010	100.631	19.956	15.472	0.537
228.000	177.750	80.002	20.010	100.644	19.958	15.309	0.554
228.500	178.039	80.002	20.010	100.651	19.956	15.439	0.521
229.000	178.316	80.002	20.010	100.646	19.959	15.119	0.540
229.500	178.571	80.001	20.011	100.634	19.959	15.190	0.549
230.000	178.856	80.002	20.011	100.624	19.960	15.035	0.536
230.500	179.121	80.001	20.011	100.624	19.958	15.215	0.545
231.000	179.430	80.003	20.010	100.626	19.962	14.800	0.562
231.500	179.658	80.002	20.010	100.637	19.962	14.870	0.555
232.000	179.957	80.002	20.010	100.649	19.962	14.849	0.532
232.500	180.209	80.001	20.011	100.656	19.964	14.610	0.539
233.000	180.438	80.003	20.011	100.656	19.963	14.716	0.516
233.500	180.739	80.003	20.010	100.654	19.967	14.343	0.505
234.000	180.973	80.003	20.011	100.649	19.963	14.764	0.532
234.500	181.252	80.002	20.010	100.648	19.967	14.330	0.524
235.000	181.481	80.004	20.010	100.649	19.970	13.982	0.511
235.500	181.770	80.003	20.010	100.648	19.975	13.469	0.513
236.000	182.035	80.002	20.010	100.649	19.973	13.736	0.536
236.500	182.341	80.004	20.010	100.651	19.971	13.883	0.562
237.000	182.599	80.001	20.011	100.647	19.975	13.450	0.567
237.501	182.858	80.004	20.010	100.640	19.974	13.646	0.540
238.001	183.071	80.003	20.010	100.637	19.975	13.512	0.495
238.500	183.388	80.002	20.010	100.636	19.976	13.373	0.501
239.000	183.687	80.002	20.010	100.635	19.978	13.160	0.572
239.501	183.934	80.003	20.010	100.639	19.979	13.045	0.581
240.000	184.197	80.002	20.010	100.646	19.982	12.798	0.528
240.500	184.432	80.002	20.010	100.646	19.983	12.658	0.504
241.000	184.716	80.003	20.010	100.638	19.983	12.685	0.508
241.500	185.026	80.002	20.010	100.631	19.984	12.604	0.556
242.000	185.290	80.004	20.010	100.622	19.985	12.398	0.585
242.500	185.582	80.004	20.010	100.612	19.987	12.264	0.565
243.000	185.824	80.002	20.011	100.608	19.985	12.488	0.544
243.500	186.078	80.003	20.010	100.611	19.990	11.958	0.515
244.000	186.350	80.002	20.010	100.619	19.991	11.811	0.511
244.500	186.619	80.001	20.010	100.628	19.990	11.912	0.534
245.000	186.882	80.003	20.010	100.635	19.992	11.743	0.537
245.500	187.160	80.003	20.009	100.635	19.992	11.676	0.536
246.001	187.450	80.003	20.009	100.631	19.995	11.403	0.554
246.500	187.680	80.003	20.009	100.621	19.995	11.418	0.544
247.000	187.923	80.003	20.009	100.613	19.998	11.087	0.496
247.500	188.206	80.003	20.009	100.612	19.998	11.107	0.499
248.000	188.472	80.003	20.009	100.620	19.996	11.318	0.538
248.500	188.760	80.002	20.009	100.633	19.999	10.936	0.552
249.000	189.036	80.002	20.010	100.646	20.002	10.631	0.559
249.500	189.300	80.003	20.009	100.655	20.001	10.792	0.552
250.000	189.532	80.003	20.009	100.658	20.001	10.726	0.518
250.500	189.839	80.003	20.009	100.653	20.000	10.855	0.518
251.000	190.116	80.002	20.010	100.641	20.001	10.724	0.562
251.500	190.400	80.004	20.009	100.629	20.002	10.657	0.573
252.000	190.597	80.002	20.010	100.622	20.003	10.567	0.521
252.500	190.878	80.004	20.009	100.622	20.007	10.180	0.479
253.000	191.142	80.003	20.009	100.630	20.009	9.928	0.511
253.500	191.372	80.002	20.009	100.644	20.009	9.953	0.519
254.000	191.621	80.003	20.009	100.660	20.009	9.965	0.486
254.500	191.895	80.002	20.009	100.669	20.010	9.800	0.501
255.000	192.129	80.002	20.009	100.668	20.010	9.856	0.516
255.500	192.416	80.002	20.009	100.657	20.010	9.833	0.515
256.000	192.654	80.003	20.009	100.644	20.010	9.799	0.523
256.500	192.922	80.003	20.009	100.629	20.012	9.617	0.515
257.000	193.175	80.003	20.009	100.625	20.010	9.787	0.514
257.500	193.471	80.003	20.008	100.634	20.012	9.622	0.535
258.000	193.738	80.002	20.009	100.649	20.012	9.585	0.556
258.500	194.008	80.002	20.008	100.664	20.016	9.170	0.550
259.000	194.216	80.003	20.010	100.672	20.017	9.092	0.508
259.500	194.472	80.003	20.010	100.669	20.014	9.413	0.471
260.000	194.716	80.003	20.009	100.655	20.016	9.199	0.482
260.500	195.051	80.002	20.009	100.640	20.018	8.995	0.540
261.000	195.281	80.004	20.009	100.627	20.021	8.712	0.572
261.501	195.549	80.004	20.009	100.626	20.021	8.715	0.531
262.000	195.773	80.003	20.009	100.634	20.021	8.623	0.495
262.500	196.018	80.003	20.009	100.647	20.019	8.898	0.480
263.000	196.270	80.002	20.009	100.656	20.023	8.429	0.483
263.500	196.572	80.004	20.009	100.662	20.022	8.590	0.526
264.000	196.860	80.003	20.010	100.657	20.022	8.525	0.573
264.500	197.085	80.004	20.010	100.647	20.021	8.632	0.552
265.000	197.363	80.003	20.010	100.638	20.026	8.183	0.508
265.500	197.601	80.004	20.009	100.636	20.024	8.395	0.509
266.000	197.827	80.002	20.009	100.637	20.023	8.498	0.490
266.500	198.079	80.002	20.009	100.646	20.021	8.670	0.471
267.000	198.303	80.003	20.009	100.654	20.026	8.125	0.477
267.500	198.592	80.004	20.009	100.657	20.027	8.055	0.495
268.000	198.834	80.003	20.009	100.650	20.026	8.172	0.522
268.500	199.083	80.003	20.010	100.637	20.026	8.104	0.511
269.000	199.366	80.003	20.009	100.624	20.022	8.537	0.512
269.500	199.638	80.003	20.009	100.617	20.022	8.542	0.544
270.000	199.848	80.004	20.009	100.613	20.024	8.322	0.518
270.500	200.125	80.003	20.009	100.622	20.025	8.290	0.485
271.000	200.318	80.001	20.009	100.633	20.025	8.264	0.479
271.500	200.595	80.003	20.009	100.639	20.026	8.151	0.470
272.000	200.871	80.003	20.009	100.638	20.025	8.311	0.511
272.500	201.095	80.003	20.010	100.634	20.028	7.969	0.527
273.000	201.332	80.002	20.009	100.622	20.025	8.240	0.481
273.500	201.646	80.004	20.009	100.615	20.027	8.006	0.506
274.000	201.815	80.003	20.009	100.613	20.026	8.192	0.517
274.500	202.153	80.002	20.009	100.621	20.024	8.400	0.495
275.000	202.417	80.005	20.009	100.630	20.023	8.449	0.554
275.500	202.570	80.002	20.009	100.641	20.025	8.249	0.509
276.000	202.859	80.003	20.010	100.642	20.022	8.537	0.430
276.500	203.118	80.003	20.009	100.639	20.024	8.340	0.495
277.000	203.382	80.004	20.010	100.622	20.021	8.709	0.535
277.500	203.654	80.004	20.011	100.610	20.024	8.398	0.529
278.000	203.945	80.000	20.009	100.608	20.021	8.641	0.550
278.500	204.164	80.004	20.009	100.627	20.022	8.614	0.536
279.000	204.426	80.003	20.012	100.589	20.024	8.364	0.495
279.500	204.672	80.004	20.010	100.562	20.023	8.466	0.494
280.000	204.911	80.004	20.008	100.547	20.021	8.625	0.496
280.500	205.136	80.002	20.009	100.527	20.024	8.323	0.475
281.000	205.441	80.005	20.008	100.497	20.023	8.472	0.497
281.500	205.643	80.002	20.009	100.527	20.024	8.346	0.518
282.000	205.832	80.004	20.009	100.554	20.025	8.285	0.449
282.500	206.097	80.003	20.008	100.568	20.023	8.463	0.423
283.000	206.421	80.005	20.009	100.577	20.024	8.337	0.522
283.500	206.701	80.003	20.013	100.567	20.028	7.891	0.596
284.000	206.940	80.002	20.009	100.599	20.028	7.912	0.561
284.500	207.186	80.002	20.007	100.654	20.028	7.969	0.502
285.000	207.489	80.002	20.008	100.689	20.028	7.989	0.517
285.500	207.632	80.004	20.009	100.701	20.029	7.838	0.497
286.000	207.929	80.003	20.009	100.716	20.027	8.041	0.443
286.500	208.244	80.002	20.009	100.685	20.028	7.973	0.526
287.000	208.442	80.003	20.009	100.636	20.025	8.301	0.563
287.500	208.768	80.004	20.008	100.612	20.026	8.163	0.518
288.000	208.912	80.003	20.009	100.612	20.029	7.852	0.497
288.500	209.258	80.001	20.008	100.626	20.029	7.850	0.480
289.000	209.538	80.002	20.010	100.637	20.028	7.953	0.558
289.500	209.787	80.003	20.008	100.638	20.025	8.289	0.577
290.000	209.990	80.004	20.010	100.627	20.029	7.876	0.490
290.500	210.167	80.003	20.010	100.610	20.028	7.937	0.416
291.000	210.483	80.003	20.009	100.589	20.030	7.706	0.437
291.500	210.715	80.004	20.010	100.577	20.029	7.818	0.521
292.000	211.002	80.003	20.009	100.576	20.031	7.672	0.533
292.500	211.275	80.002	20.009	100.585	20.029	7.851	0.539
293.000	211.484	80.004	20.009	100.601	20.031	7.671	0.521
293.500	211.734	80.003	20.009	100.620	20.029	7.837	0.470
294.000	212.001	80.003	20.010	100.627	20.031	7.626	0.488
294.500	212.253	80.003	20.010	100.621	20.030	7.747	0.518
295.000	212.522	80.004	20.010	100.609	20.030	7.725	0.520
295.500	212.802	80.004	20.009	100.601	20.030	7.726	0.535
296.000	213.025	80.004	20.010	100.597	20.028	7.938	0.526
296.500	213.335	80.004	20.009	100.607	20.029	7.850	0.518
297.000	213.545	80.003	20.009	100.623	20.029	7.819	0.526
297.500	213.760	80.003	20.009	100.638	20.028	7.904	0.472
298.000	214.037	80.003	20.010	100.645	20.028	7.955	0.459
298.500	214.301	80.003	20.008	100.641	20.031	7.641	0.517
299.000	214.539	80.004	20.010	100.625	20.031	7.616	0.522
299.500	214.812	80.004	20.009	100.608	20.031	7.660	0.506
300.000	215.020	80.002	20.009	100.591	20.029	7.833	0.496
300.500	215.318	80.003	20.010	100.580	20.030	7.739	0.493
301.000	215.538	80.004	20.008	100.581	20.034	7.319	0.512
301.500	215.777	80.003	20.009	100.593	20.031	7.662	0.488
302.000	216.050	80.002	20.009	100.604	20.030	7.711	0.486
302.500	216.296	80.005	20.009	100.611	20.028	7.888	0.516
303.000	216.553	80.002	20.009	100.612	20.031	7.650	0.510
303.500	216.800	80.004	20.009	100.604	20.030	7.765	0.503
304.000	217.076	80.005	20.009	100.592	20.029	7.860	0.514
304.500	217.361	80.003	20.009	100.581	20.029	7.875	0.543
305.000	217.572	80.003	20.009	100.576	20.031	7.599	0.528
305.500	217.771	80.004	20.009	100.580	20.029	7.844	0.453
306.000	218.130	80.004	20.009	100.590	20.028	7.904	0.484
306.500	218.344	80.005	20.010	100.598	20.030	7.752	0.565
307.000	218.636	80.004	20.010	100.604	20.028	7.929	0.540
307.500	218.831	80.004	20.009	100.608	20.029	7.882	0.497
308.000	219.162	80.002	20.009	100.600	20.027	8.002	0.506
308.500	219.391	80.004	20.009	100.590	20.025	8.300	0.543
309.000	219.627	80.003	20.009	100.584	20.027	8.058	0.513
309.500	219.905	80.003	20.009	100.586	20.028	7.973	0.490
310.000	220.161	80.002	20.009	100.589	20.028	7.948	0.524
310.500	220.362	80.004	20.009	100.598	20.028	7.961	0.496
311.000	220.619	80.003	20.009	100.606	20.025	8.235	0.457
311.500	220.887	80.004	20.009	100.606	20.027	8.053	0.491
312.000	221.186	80.003	20.009	100.598	20.027	8.089	0.546
312.500	221.409	80.004	20.011	100.590	20.028	7.988	0.544
313.000	221.650	80.004	20.009	100.575	20.027	8.081	0.493
313.500	221.864	80.004	20.011	100.559	20.029	7.822	0.460
314.000	222.136	80.004	20.009	100.556	20.027	8.064	0.470
314.500	222.374	80.003	20.009	100.558	20.029	7.827	0.498
315.000	222.658	80.003	20.009	100.562	20.029	7.812	0.516
315.500	222.911	80.003	20.009	100.569	20.030	7.753	0.529
316.000	223.140	80.003	20.009	100.577	20.030	7.749	0.510
316.500	223.372	80.002	20.008	100.580	20.025	8.235	0.472
317.001	223.701	80.003	20.009	100.577	20.029	7.819	0.511
317.500	223.878	80.004	20.009	100.573	20.031	7.674	0.533
318.000	224.166	80.004	20.009	100.570	20.032	7.496	0.486
318.500	224.398	80.002	20.009	100.568	20.033	7.465	0.492
319.000	224.653	80.003	20.009	100.572	20.033	7.367	0.503
319.500	224.969	80.003	20.009	100.579	20.033	7.418	0.529
320.000	225.189	80.003	20.010	100.588	20.032	7.516	0.554
320.500	225.447	80.004	20.009	100.600	20.032	7.522	0.507
321.000	225.720	80.001	20.008	100.610	20.034	7.293	0.505
321.500	225.917	80.005	20.010	100.610	20.034	7.315	0.501
322.000	226.210	80.002	20.010	100.595	20.035	7.257	0.480
322.500	226.453	80.003	20.009	100.580	20.036	7.105	0.513
323.000	226.741	80.003	20.009	100.572	20.032	7.540	0.534
323.500	226.934	80.003	20.009	100.563	20.032	7.568	0.506
324.001	227.163	80.003	20.009	100.568	20.030	7.717	0.451
324.500	227.365	80.004	20.009	100.583	20.031	7.676	0.426
325.000	227.657	80.003	20.010	100.598	20.032	7.529	0.463
325.500	227.912	80.003	20.009	100.603	20.033	7.410	0.521
326.000	228.248	80.004	20.009	100.602	20.033	7.429	0.569
326.500	228.496	80.003	20.009	100.595	20.032	7.493	0.588
327.000	228.694	80.003	20.009	100.586	20.034	7.280	0.515
327.500	228.946	80.003	20.009	100.583	20.036	7.072	0.448
328.000	229.188	80.003	20.009	100.586	20.037	6.962	0.472
328.500	229.465	80.004	20.009	100.592	20.036	7.118	0.506
329.000	229.717	80.003	20.009	100.597	20.036	7.077	0.524
329.500	229.937	80.004	20.009	100.596	20.034	7.312	0.501
330.000	230.204	80.002	20.009	100.591	20.035	7.181	0.480
330.500	230.483	80.004	20.009	100.579	20.035	7.193	0.517
331.000	230.672	80.003	20.009	100.563	20.033	7.426	0.507
331.500	230.990	80.003	20.009	100.551	20.032	7.498	0.488
332.000	231.282	80.003	20.009	100.547	20.034	7.281	0.559
332.500	231.478	80.001	20.009	100.549	20.033	7.381	0.549
333.000	231.677	80.003	20.009	100.563	20.037	6.969	0.441
333.500	231.995	80.003	20.009	100.579	20.034	7.279	0.456
334.000	232.305	80.003	20.009	100.589	20.033	7.384	0.572
334.500	232.559	80.002	20.008	100.591	20.036	7.066	0.596
335.000	232.786	80.002	20.009	100.581	20.037	7.043	0.523
335.500	233.029	80.003	20.010	100.565	20.035	7.188	0.476
336.000	233.285	80.003	20.009	100.553	20.035	7.172	0.485
336.500	233.520	80.003	20.009	100.549	20.035	7.167	0.495
337.001	233.821	80.002	20.009	100.558	20.034	7.287	0.513
337.501	234.034	80.002	20.009	100.574	20.036	7.153	0.525
338.000	234.250	80.002	20.009	100.584	20.035	7.203	0.471
338.500	234.541	80.003	20.009	100.587	20.035	7.175	0.468
339.000	234.737	80.003	20.010	100.583	20.034	7.274	0.498
339.501	234.975	80.003	20.009	100.572	20.035	7.190	0.460
340.000	235.237	80.004	20.010	100.562	20.037	6.946	0.466
340.500	235.505	80.003	20.009	100.562	20.036	7.125	0.514
341.000	235.696	80.004	20.009	100.569	20.038	6.909	0.494
341.500	236.003	80.002	20.009	100.584	20.037	7.006	0.479
342.000	236.249	80.004	20.009	100.595	20.036	7.100	0.526
342.500	236.502	80.003	20.009	100.604	20.039	6.767	0.526
343.000	236.742	80.003	20.010	100.603	20.037	7.001	0.496
343.500	237.030	80.004	20.009	100.588	20.036	7.083	0.511
344.000	237.271	80.002	20.009	100.571	20.039	6.785	0.528
344.501	237.536	80.002	20.009	100.556	20.037	6.983	0.517
345.000	237.762	80.004	20.009	100.547	20.037	6.980	0.499
345.500	238.043	80.002	20.009	100.553	20.039	6.834	0.499
346.001	238.307	80.002	20.010	100.571	20.042	6.504	0.526
346.500	238.500	80.002	20.009	100.587	20.040	6.706	0.501
347.000	238.745	80.003	20.009	100.599	20.043	6.326	0.448
347.500	238.989	80.002	20.010	100.600	20.042	6.424	0.463
348.000	239.249	80.004	20.010	100.592	20.040	6.696	0.497
348.500	239.502	80.003	20.009	100.580	20.046	6.096	0.509
349.001	239.776	80.002	20.009	100.571	20.042	6.515	0.520
349.500	240.017	80.004	20.009	100.565	20.043	6.355	0.521
350.000	240.261	80.002	20.009	100.567	20.043	6.350	0.500
350.500	240.507	80.003	20.009	100.575	20.041	6.609	0.487
351.001	240.769	80.003	20.009	100.576	20.041	6.533	0.499
351.501	240.982	80.003	20.010	100.577	20.040	6.624	0.492
352.001	241.210	80.002	20.009	100.578	20.040	6.698	0.458
352.500	241.444	80.003	20.009	100.576	20.040	6.654	0.451
353.000	241.732	80.004	20.009	100.567	20.039	6.839	0.492
353.500	242.001	80.003	20.009	100.563	20.040	6.636	0.540
354.000	242.211	80.003	20.010	100.563	20.040	6.715	0.519
354.500	242.491	80.002	20.009	100.568	20.040	6.698	0.485
355.001	242.727	80.004	20.009	100.576	20.037	7.032	0.503
355.501	243.006	80.003	20.010	100.588	20.041	6.581	0.516
356.000	243.268	80.003	20.009	100.595	20.041	6.628	0.528
356.500	243.535	80.004	20.009	100.597	20.039	6.784	0.535
357.000	243.801	80.004	20.010	100.592	20.042	6.429	0.531
357.500	244.030	80.004	20.009	100.583	20.038	6.844	0.514
358.000	244.272	80.003	20.010	100.570	20.037	6.949	0.483
358.500	244.571	80.004	20.009	100.565	20.037	7.008	0.506
359.000	244.783	80.003	20.011	100.564	20.039	6.791	0.526
359.500	245.048	80.003	20.010	100.566	20.037	6.957	0.494
360.000	245.317	80.003	20.010	100.575	20.038	6.920	0.506
360.500	245.536	80.003	20.010	100.589	20.035	7.186	0.511
361.001	245.801	80.003	20.010	100.593	20.033	7.421	0.486
361.500	246.084	80.001	20.006	100.612	20.033	7.370	0.516
362.000	246.374	80.005	20.014	100.595	20.035	7.209	0.561
362.500	246.570	80.003	20.011	100.538	20.037	7.020	0.529
363.000	246.829	80.003	20.009	100.498	20.034	7.271	0.470
363.500	247.083	80.002	20.009	100.484	20.033	7.438	0.484
364.000	247.329	80.003	20.008	100.461	20.038	6.928	0.506
364.500	247.587	80.004	20.009	100.475	20.039	6.798	0.501
365.000	247.781	80.004	20.010	100.518	20.040	6.733	0.478
365.500	248.060	80.003	20.011	100.562	20.038	6.902	0.463
366.001	248.341	80.003	20.008	100.608	20.039	6.809	0.517
366.501	248.535	80.003	20.008	100.648	20.038	6.916	0.518
367.000	248.825	80.004	20.009	100.669	20.038	6.884	0.479
367.500	249.044	80.003	20.009	100.685	20.037	7.025	0.496
368.000	249.298	80.003	20.009	100.682	20.038	6.916	0.491
368.500	249.555	80.003	20.009	100.654	20.038	6.939	0.492
369.000	249.762	80.003	20.009	100.626	20.036	7.096	0.487
369.500	250.014	80.001	20.008	100.612	20.037	7.005	0.461
370.000	250.315	80.003	20.009	100.603	20.039	6.806	0.506
370.500	250.550	80.003	20.009	100.592	20.039	6.742	0.545
371.000	250.766	80.003	20.009	100.578	20.035	7.161	0.494
371.500	251.041	80.001	20.009	100.567	20.039	6.809	0.471
372.001	251.277	80.003	20.009	100.558	20.034	7.332	0.501
372.500	251.526	80.001	20.009	100.558	20.036	7.141	0.498
373.000	251.760	80.003	20.009	100.564	20.032	7.518	0.485
373.500	251.947	80.002	20.009	100.577	20.033	7.399	0.452
374.000	252.268	80.003	20.009	100.585	20.035	7.225	0.464
374.500	252.489	80.002	20.009	100.588	20.035	7.230	0.525
375.000	252.735	80.002	20.008	100.586	20.032	7.498	0.505
375.500	252.943	80.002	20.009	100.574	20.033	7.398	0.461
376.000	253.209	80.002	20.009	100.557	20.031	7.651	0.464
376.500	253.429	80.002	20.009	100.549	20.030	7.761	0.480
377.000	253.688	80.003	20.009	100.551	20.029	7.854	0.483
377.501	253.936	80.002	20.009	100.561	20.032	7.519	0.493
378.000	254.202	80.002	20.009	100.577	20.027	8.070	0.511
378.500	254.406	80.003	20.009	100.589	20.027	8.000	0.492
379.000	254.668	80.001	20.009	100.590	20.029	7.877	0.468
379.501	254.876	80.003	20.009	100.578	20.022	8.561	0.468
380.000	255.150	80.002	20.009	100.563	20.026	8.162	0.476
380.500	255.391	80.003	20.009	100.547	20.023	8.428	0.499
381.000	255.625	80.002	20.010	100.542	20.027	8.089	0.495
381.500	255.897	80.002	20.009	100.548	20.026	8.142	0.490
382.000	256.143	80.002	20.010	100.563	20.024	8.371	0.512
382.500	256.351	80.003	20.010	100.579	20.028	7.963	0.486
383.000	256.609	80.001	20.009	100.588	20.027	8.043	0.459
383.500	256.875	80.002	20.010	100.587	20.024	8.372	0.495
384.000	257.124	80.002	20.010	100.576	20.024	8.314	0.520
384.500	257.354	80.002	20.009	100.560	20.022	8.547	0.497
385.000	257.588	80.003	20.009	100.545	20.022	8.577	0.472
385.500	257.866	80.001	20.010	100.542	20.020	8.805	0.488
386.000	258.120	80.003	20.010	100.552	20.019	8.909	0.522
386.501	258.401	80.002	20.010	100.565	20.021	8.705	0.533
387.000	258.619	80.002	20.010	100.573	20.018	8.975	0.517
387.500	258.845	80.003	20.011	100.581	20.020	8.783	0.472
388.000	259.114	80.003	20.011	100.582	20.019	8.924	0.469
388.500	259.345	80.003	20.010	100.570	20.019	8.877	0.497
389.000	259.564	80.001	20.010	100.558	20.016	9.141	0.475
389.500	259.883	80.002	20.009	100.559	20.018	9.030	0.494
390.000	260.094	80.001	20.010	100.558	20.015	9.268	0.534
390.501	260.336	80.003	20.009	100.566	20.019	8.853	0.491
391.000	260.655	80.002	20.010	100.579	20.013	9.521	0.507
391.500	260.844	80.002	20.010	100.592	20.016	9.176	0.535
392.000	261.087	80.001	20.010	100.592	20.016	9.221	0.470
392.500	261.318	80.003	20.010	100.583	20.011	9.709	0.453
393.000	261.547	80.003	20.010	100.564	20.013	9.523	0.467
393.500	261.891	80.002	20.010	100.550	20.011	9.757	0.517
394.000	262.067	80.003	20.010	100.541	20.009	9.884	0.546
394.500	262.351	80.001	20.010	100.541	20.010	9.865	0.490
395.000	262.634	80.002	20.010	100.550	20.013	9.542	0.514
395.500	262.839	80.001	20.010	100.563	20.009	9.901	0.528
396.000	263.058	80.002	20.010	100.568	20.012	9.597	0.456
396.500	263.314	80.002	20.010	100.565	20.010	9.816	0.450
397.000	263.608	80.002	20.010	100.557	20.007	10.166	0.513
397.501	263.820	80.002	20.010	100.546	20.007	10.104	0.528
398.000	264.127	80.003	20.010	100.538	20.008	9.988	0.512
398.500	264.371	80.001	20.009	100.538	20.004	10.415	0.535
399.000	264.590	80.003	20.009	100.545	20.006	10.279	0.507
399.500	264.857	80.002	20.010	100.553	20.006	10.248	0.475
400.000	265.062	80.001	20.010	100.565	20.007	10.113	0.480
400.500	265.349	80.002	20.010	100.572	20.003	10.581	0.482
401.000	265.581	80.002	20.010	100.566	20.000	10.885	0.505
401.500	265.815	80.003	20.010	100.558	20.002	10.701	0.493
402.000	266.102	80.003	20.011	100.546	20.003	10.502	0.494
402.500	266.363	80.002	20.009	100.537	20.002	10.656	0.534
403.000	266.627	80.003	20.011	100.530	20.000	10.894	0.536
403.500	266.869	80.001	20.009	100.532	19.999	10.973	0.516
404.000	267.094	80.001	20.010	100.541	19.999	10.944	0.487
404.500	267.356	80.002	20.009	100.556	19.998	11.024	0.477
405.000	267.625	80.003	20.010	100.566	19.997	11.142	0.509
405.500	267.901	80.002	20.010	100.568	19.997	11.176	0.538
406.000	268.114	80.003	20.010	100.565	19.994	11.530	0.517
406.500	268.343	80.001	20.010	100.557	19.994	11.456	0.466
407.000	268.593	80.004	20.010	100.543	19.993	11.585	0.461
407.500	268.876	80.001	20.009	100.533	19.994	11.491	0.506
408.000	269.085	80.002	20.010	100.530	19.991	11.778	0.512
408.500	269.323	80.002	20.010	100.538	19.989	12.026	0.470
409.001	269.585	80.001	20.010	100.546	19.989	12.062	0.473
409.501	269.780	80.002	20.010	100.553	19.984	12.536	0.479
410.000	270.099	80.003	20.010	100.562	19.982	12.721	0.486
410.500	270.344	80.003	20.010	100.563	19.982	12.749	0.539
411.000	270.577	80.002	20.011	100.549	19.980	12.970	0.521
411.500	270.807	80.001	20.009	100.534	19.982	12.791	0.470
412.000	271.128	80.003	20.009	100.524	19.976	13.358	0.507
412.500	271.369	80.003	20.010	100.516	19.979	13.013	0.557
413.000	271.555	80.002	20.010	100.520	19.977	13.223	0.494
413.500	271.805	80.004	20.010	100.533	19.976	13.345	0.431
414.000	272.139	80.002	20.010	100.549	19.974	13.606	0.510
414.500	272.349	80.003	20.010	100.558	19.974	13.555	0.565
415.000	272.628	80.002	20.011	100.558	19.974	13.575	0.517
415.500	272.900	80.002	20.010	100.554	19.975	13.528	0.520
416.000	273.166	80.003	20.010	100.546	19.972	13.831	0.545
416.500	273.326	80.002	20.010	100.539	19.970	14.046	0.482
417.000	273.534	80.003	20.009	100.542	19.970	13.945	0.397
417.500	273.887	80.003	20.010	100.550	19.972	13.800	0.464
418.000	274.080	80.002	20.009	100.558	19.971	13.872	0.553
418.500	274.408	80.002	20.010	100.564	19.970	13.980	0.533
419.000	274.603	80.004	20.010	100.562	19.969	14.117	0.522
419.500	274.775	80.002	20.010	100.553	19.968	14.262	0.445
420.000	275.131	80.004	20.010	100.543	19.965	14.524	0.448
420.500	275.475	80.003	20.010	100.534	19.963	14.692	0.614
421.000	275.635	80.002	20.010	100.529	19.963	14.748	0.602
421.500	275.825	80.003	20.010	100.533	19.962	14.809	0.427
422.000	276.029	80.003	20.010	100.543	19.960	15.088	0.372
422.500	276.465	80.003	20.009	100.554	19.962	14.800	0.517
423.000	276.655	80.003	20.010	100.561	19.959	15.147	0.633
423.500	276.938	80.003	20.010	100.560	19.961	14.952	0.550
424.000	277.153	80.003	20.010	100.557	19.959	15.140	0.486
424.500	277.380	80.003	20.011	100.544	19.958	15.273	0.470
425.000	277.474	80.003	20.010	100.536	19.959	15.187	0.381
425.500	277.872	80.002	20.010	100.530	19.953	15.804	0.406
426.001	278.030	80.002	20.010	100.530	19.953	15.764	0.524
426.500	278.294	80.003	20.009	100.538	19.953	15.792	0.489
427.000	278.619	80.002	20.009	100.550	19.950	16.083	0.505
427.500	278.778	80.002	20.009	100.555	19.948	16.328	0.536
428.000	278.904	80.001	20.010	100.555	19.948	16.307	0.384
428.500	279.381	80.004	20.010	100.550	19.945	16.567	0.444
429.000	279.586	80.002	20.010	100.536	19.943	16.775	0.642
429.500	279.822	80.003	20.010	100.521	19.944	16.674	0.562
430.000	280.214	80.004	20.010	100.513	19.945	16.572	0.535
430.500	280.381	80.002	20.010	100.515	19.942	16.918	0.594
431.000	280.625	80.002	20.009	100.526	19.941	17.020	0.485
431.500	280.935	80.002	20.010	100.543	19.940	17.169	0.482
432.000	281.020	80.003	20.010	100.558	19.938	17.302	0.474
432.500	281.406	80.004	20.010	100.565	19.938	17.313	0.433
433.000	281.646	80.002	20.010	100.561	19.935	17.652	0.549
433.500	281.882	80.003	20.009	100.549	19.937	17.463	0.551
434.000	282.252	80.003	20.010	100.535	19.932	17.954	0.540
434.500	282.456	80.002	20.009	100.529	19.935	17.648	0.590
435.000	282.705	80.002	20.009	100.531	19.933	17.815	0.514
435.500	282.948	80.003	20.010	100.542	19.932	17.975	0.473
436.000	283.191	80.004	20.009	100.556	19.933	17.922	0.489
436.500	283.384	80.003	20.009	100.568	19.927	18.478	0.461
437.000	283.681	80.003	20.009	100.568	19.926	18.575	0.463
437.500	283.915	80.002	20.009	100.559	19.929	18.337	0.511
438.000	284.189	80.003	20.009	100.545	19.924	18.823	0.520
438.501	284.476	80.003	20.009	100.537	19.923	18.932	0.535
439.000	284.688	80.004	20.009	100.534	19.923	18.927	0.530
439.500	284.980	80.002	20.009	100.541	19.923	18.954	0.502
440.000	285.301	80.003	20.009	100.553	19.920	19.257	0.558
440.500	285.528	80.003	20.010	100.566	19.919	19.326	0.580
441.000	285.781	80.003	20.010	100.569	19.920	19.210	0.514
441.501	285.980	80.003	20.009	100.563	19.918	19.404	0.466
442.000	286.305	80.001	20.010	100.554	19.917	19.550	0.488
442.500	286.535	80.003	20.009	100.543	19.917	19.570	0.540
443.000	286.721	80.003	20.010	100.529	19.914	19.858	0.486
443.500	287.056	80.002	20.009	100.527	19.915	19.712	0.468
444.000	287.280	80.001	20.010	100.529	19.915	19.734	0.540
444.500	287.523	80.004	20.010	100.533	19.912	20.031	0.513
445.000	287.798	80.002	20.009	100.533	19.912	20.061	0.493
445.500	288.042	80.004	20.009	100.537	19.912	20.090	0.519
446.000	288.298	80.003	20.009	100.530	19.914	19.855	0.509
446.500	288.589	80.002	20.010	100.521	19.911	20.192	0.523
447.000	288.797	80.003	20.010	100.513	19.910	20.226	0.523
447.500	289.027	80.003	20.010	100.514	19.909	20.371	0.469
448.000	289.348	80.003	20.009	100.525	19.907	20.553	0.494
448.500	289.590	80.003	20.009	100.541	19.911	20.125	0.557
449.000	289.806	80.003	20.009	100.556	19.907	20.580	0.511
449.500	290.111	80.003	20.010	100.562	19.908	20.463	0.490
450.000	290.341	80.002	20.009	100.561	19.906	20.687	0.529
450.500	290.607	80.002	20.009	100.551	19.905	20.842	0.515
451.000	290.841	80.002	20.010	100.541	19.903	21.009	0.497
451.500	291.160	80.002	20.009	100.532	19.904	20.859	0.526
452.000	291.395	80.002	20.009	100.529	19.903	20.977	0.553
452.500	291.603	80.006	20.009	100.530	19.900	21.349	0.499
453.000	291.861	80.002	20.009	100.532	19.901	21.269	0.455
453.500	292.101	80.002	20.009	100.533	19.900	21.315	0.482
454.000	292.330	80.003	20.009	100.532	19.898	21.581	0.483
454.501	292.610	80.003	20.009	100.527	19.896	21.759	0.489
455.001	292.864	80.003	20.010	100.518	19.898	21.526	0.522
455.501	293.092	80.003	20.009	100.518	19.895	21.860	0.508
456.000	293.347	80.002	20.009	100.520	19.894	21.915	0.482
456.500	293.580	80.002	20.009	100.531	19.894	21.978	0.485
457.000	293.866	80.003	20.009	100.542	19.894	21.989	0.504
457.500	294.140	80.003	20.010	100.550	19.891	22.233	0.540
458.000	294.342	80.003	20.010	100.543	19.892	22.143	0.518
458.500	294.605	80.004	20.009	100.533	19.889	22.455	0.471
459.000	294.858	80.002	20.009	100.518	19.890	22.401	0.491
459.500	295.108	80.003	20.009	100.511	19.889	22.478	0.510
460.000	295.381	80.001	20.009	100.518	19.890	22.418	0.513
460.500	295.567	80.003	20.009	100.535	19.889	22.515	0.491
461.000	295.882	80.002	20.010	100.558	19.889	22.525	0.481
461.500	296.089	80.002	20.010	100.573	19.886	22.739	0.512
462.000	296.401	80.002	20.010	100.576	19.887	22.719	0.520
462.500	296.644	80.003	20.010	100.566	19.885	22.840	0.537
463.000	296.906	80.002	20.010	100.547	19.884	22.946	0.530
463.500	297.165	80.002	20.009	100.527	19.887	22.703	0.513
464.000	297.448	80.003	20.010	100.520	19.885	22.873	0.532
464.500	297.680	80.001	20.009	100.524	19.884	22.948	0.529
465.000	297.921	80.002	20.010	100.537	19.883	23.143	0.494
465.500	298.180	80.002	20.009	100.553	19.882	23.160	0.487
466.000	298.379	80.003	20.010	100.561	19.881	23.356	0.479
466.500	298.671	80.003	20.010	100.560	19.881	23.312	0.474
467.000	298.943	80.002	20.010	100.553	19.880	23.370	0.527
467.500	299.176	80.003	20.009	100.546	19.878	23.673	0.535
468.000	299.407	80.003	20.010	100.542	19.878	23.600	0.485
468.500	299.663	80.003	20.010	100.546	19.877	23.751	0.475
469.000	299.862	80.002	20.010	100.553	19.876	23.873	0.471
469.500	300.171	80.003	20.010	100.559	19.873	24.159	0.481
470.000	300.370	80.001	20.010	100.559	19.871	24.312	0.508
470.500	300.629	80.002	20.009	100.554	19.870	24.438	0.483
471.000	300.938	80.003	20.010	100.545	19.870	24.483	0.512
471.500	301.141	80.002	20.010	100.537	19.868	24.695	0.540
472.000	301.398	80.002	20.010	100.533	19.866	24.910	0.486
472.500	301.687	80.002	20.010	100.539	19.867	24.779	0.503
473.001	301.922	80.003	20.010	100.548	19.862	25.272	0.535
473.500	302.173	80.004	20.009	100.557	19.862	25.330	0.505
474.000	302.381	80.000	20.010	100.562	19.859	25.579	0.473
474.501	302.654	80.003	20.011	100.561	19.859	25.636	0.470
475.000	302.883	80.003	20.009	100.552	19.860	25.495	0.491
475.500	303.150	80.003	20.010	100.538	19.856	25.931	0.499
476.000	303.397	80.002	20.010	100.531	19.854	26.167	0.505
476.500	303.623	80.001	20.010	100.530	19.855	25.996	0.493
477.000	303.926	80.003	20.009	100.538	19.852	26.358	0.501
477.500	304.121	80.002	20.009	100.548	19.849	26.651	0.513
478.000	304.429	80.002	20.009	100.562	19.849	26.689	0.500
478.500	304.627	80.002	20.010	100.569	19.844	27.148	0.504
479.000	304.890	80.002	20.010	100.563	19.842	27.435	0.484
479.500	305.156	80.002	20.009	100.555	19.842	27.331	0.496
480.000	305.394	80.004	20.009	100.550	19.838	27.824	0.517
480.500	305.659	80.003	20.010	100.549	19.837	27.850	0.503
481.000	305.874	80.003	20.010	100.551	19.835	28.062	0.491
481.500	306.111	80.002	20.010	100.562	19.833	28.361	0.466
482.000	306.395	80.004	20.010	100.570	19.827	28.925	0.487
482.500	306.642	80.000	20.010	100.575	19.826	29.008	0.527
483.000	306.919	80.003	20.010	100.570	19.827	28.927	0.528
483.500	307.099	80.003	20.011	100.561	19.824	29.214	0.491
484.000	307.396	80.002	20.010	100.546	19.819	29.807	0.467
484.500	307.626	80.003	20.010	100.537	19.817	29.988	0.501
485.000	307.885	80.002	20.010	100.530	19.816	30.139	0.508
485.500	308.136	80.003	20.009	100.536	19.811	30.569	0.500
486.000	308.358	80.002	20.009	100.544	19.810	30.680	0.492
486.500	308.621	80.001	20.010	100.555	19.806	31.156	0.479
487.000	308.850	80.003	20.010	100.561	19.803	31.505	0.488
487.500	309.122	80.003	20.011	100.560	19.801	31.693	0.496
488.000	309.316	80.002	20.010	100.547	19.798	32.007	0.483
488.500	309.580	80.002	20.010	100.531	19.793	32.515	0.462
489.000	309.881	80.003	20.010	100.522	19.788	33.028	0.512
489.500	310.117	80.003	20.010	100.518	19.785	33.346	0.551
490.000	310.313	80.002	20.009	100.526	19.782	33.602	0.485
490.500	310.591	80.003	20.009	100.540	19.778	34.113	0.453
491.000	310.852	80.002	20.010	100.549	19.775	34.336	0.506
491.500	311.095	80.003	20.011	100.545	19.769	34.964	0.521
492.000	311.342	80.003	20.010	100.536	19.764	35.529	0.497
492.500	311.606	80.002	20.010	100.521	19.761	35.817	0.501
493.001	311.860	80.002	20.010	100.512	19.757	36.202	0.515
493.500	312.057	80.002	20.010	100.511	19.753	36.672	0.484
494.000	312.364	80.002	20.010	100.519	19.751	36.837	0.478
494.500	312.584	80.002	20.010	100.531	19.748	37.142	0.515
495.000	312.826	80.003	20.010	100.540	19.744	37.633	0.494
495.500	313.083	80.003	20.011	100.537	19.738	38.241	0.480
496.000	313.366	80.004	20.010	100.531	19.736	38.442	0.520
496.500	313.617	80.004	20.009	100.522	19.732	38.852	0.537
497.000	313.848	80.003	20.010	100.505	19.726	39.480	0.508
497.500	314.066	80.003	20.010	100.495	19.724	39.673	0.465
498.000	314.309	80.002	20.010	100.498	19.719	40.242	0.455
498.500	314.577	80.002	20.009	100.504	19.717	40.451	0.486
499.000	314.848	80.003	20.010	100.512	19.711	41.038	0.525
499.500	315.077	80.002	20.010	100.524	19.706	41.599	0.519
500.000	315.300	80.003	20.010	100.532	19.701	42.074	0.476
500.500	315.586	80.002	20.010	100.525	19.697	42.540	0.480
501.000	315.818	80.003	20.010	100.518	19.691	43.107	0.514
501.500	316.051	80.003	20.011	100.510	19.683	43.964	0.492
502.000	316.268	80.002	20.010	100.504	19.682	44.098	0.457
502.501	316.546	80.003	20.010	100.505	19.676	44.764	0.473
503.001	316.805	80.002	20.009	100.513	19.669	45.420	0.516
503.500	317.058	80.001	20.010	100.521	19.663	46.069	0.524
504.000	317.317	80.002	20.010	100.527	19.659	46.490	0.512
504.500	317.574	80.002	20.010	100.527	19.653	47.159	0.514
505.000	317.825	80.003	20.010	100.519	19.646	47.839	0.512
505.500	318.058	80.004	20.010	100.504	19.641	48.330	0.497
506.000	318.306	80.003	20.010	100.487	19.636	48.829	0.483
506.500	318.539	80.001	20.009	100.480	19.632	49.340	0.481
507.000	318.806	80.003	20.010	100.479	19.627	49.824	0.490
507.500	319.008	80.003	20.010	100.480	19.620	50.587	0.484
508.000	319.246	80.002	20.010	100.486	19.611	51.522	0.455
508.500	319.560	80.002	20.010	100.494	19.606	51.974	0.496
509.000	319.792	80.002	20.010	100.494	19.600	52.651	0.549
509.500	320.001	80.004	20.011	100.486	19.595	53.124	0.494
510.000	320.291	80.003	20.010	100.477	19.589	53.789	0.470
510.500	320.590	80.002	20.010	100.475	19.585	54.167	0.544
511.000	320.809	80.003	20.009	100.479	19.578	54.902	0.554
511.500	321.044	80.003	20.009	100.487	19.570	55.830	0.486
512.000	321.338	80.002	20.010	100.498	19.565	56.317	0.491
512.500	321.554	80.003	20.010	100.508	19.559	56.956	0.519
513.000	321.799	80.002	20.010	100.508	19.551	57.782	0.485
513.500	322.066	80.002	20.010	100.497	19.545	58.355	0.487
514.000	322.301	80.002	20.010	100.487	19.535	59.412	0.507
514.500	322.608	80.002	20.010	100.482	19.529	60.032	0.522
515.000	322.861	80.003	20.010	100.480	19.524	60.622	0.551
515.500	323.071	80.003	20.009	100.491	19.515	61.490	0.512
516.000	323.348	80.002	20.010	100.502	19.508	62.302	0.475
516.500	323.578	80.002	20.010	100.505	19.501	63.032	0.497
517.000	323.832	80.002	20.011	100.499	19.493	63.851	0.495
517.500	324.116	80.002	20.010	100.485	19.487	64.440	0.511
518.000	324.330	80.003	20.010	100.462	19.479	65.276	0.518
518.500	324.635	80.002	20.009	100.449	19.473	65.901	0.508
519.000	324.823	80.003	20.009	100.441	19.468	66.463	0.506
519.500	325.109	80.003	20.008	100.442	19.458	67.522	0.483
520.000	325.386	80.002	20.009	100.449	19.454	67.921	0.519
520.500	325.612	80.002	20.009	100.456	19.444	68.903	0.533
521.000	325.854	80.004	20.009	100.459	19.436	69.764	0.485
521.500	326.085	80.001	20.009	100.458	19.429	70.488	0.470
522.000	326.349	80.002	20.009	100.455	19.421	71.386	0.484
522.500	326.587	80.002	20.009	100.452	19.413	72.140	0.498
523.000	326.884	80.002	20.009	100.452	19.406	72.958	0.519
523.500	327.090	80.002	20.009	100.458	19.399	73.653	0.519
524.000	327.319	80.002	20.009	100.466	19.394	74.188	0.468
524.500	327.582	80.002	20.008	100.475	19.385	75.080	0.463
525.000	327.816	80.003	20.009	100.485	19.377	75.982	0.495
525.500	328.116	80.003	20.010	100.487	19.369	76.819	0.516
526.000	328.371	80.002	20.010	100.480	19.361	77.647	0.544
526.500	328.628	80.003	20.010	100.466	19.353	78.427	0.533
527.000	328.896	80.002	20.010	100.457	19.347	79.068	0.519
527.500	329.133	80.002	20.010	100.452	19.337	80.051	0.515
528.000	329.408	80.003	20.009	100.457	19.332	80.583	0.508
528.500	329.632	80.002	20.009	100.466	19.324	81.450	0.505
529.000	329.903	80.001	20.010	100.478	19.317	82.236	0.497
529.500	330.146	80.002	20.010	100.480	19.308	83.112	0.505
530.000	330.346	80.003	20.010	100.476	19.304	83.620	0.478
530.500	330.623	80.001	20.010	100.466	19.293	84.689	0.460
531.000	330.874	80.003	20.010	100.458	19.283	85.753	0.503
531.500	331.105	80.002	20.010	100.451	19.275	86.535	0.505
532.000	331.379	80.002	20.010	100.450	19.268	87.280	0.493
532.500	331.581	80.002	20.010	100.452	19.258	88.338	0.490
533.000	331.856	80.002	20.009	100.462	19.254	88.751	0.476
533.500	332.096	80.003	20.010	100.469	19.244	89.846	0.496
534.000	332.389	80.002	20.009	100.476	19.238	90.461	0.524
534.500	332.630	80.003	20.009	100.476	19.230	91.335	0.534
535.000	332.867	80.002	20.010	100.471	19.221	92.296	0.506
535.500	333.134	80.002	20.010	100.458	19.212	93.204	0.491
536.000	333.370	80.002	20.010	100.450	19.204	94.024	0.504
536.500	333.635	80.003	20.010	100.444	19.198	94.644	0.502
537.000	333.876	80.002	20.010	100.448	19.193	95.188	0.503
537.500	334.090	80.004	20.010	100.460	19.185	95.997	0.480
538.000	334.333	80.002	20.010	100.467	19.178	96.773	0.456
538.500	334.549	80.003	20.010	100.467	19.168	97.782	0.458
539.000	334.822	80.002	20.010	100.461	19.159	98.746	0.474
539.500	335.093	80.002	20.010	100.449	19.150	99.559	0.517
540.000	335.320	80.003	20.010	100.436	19.141	100.553	0.521
540.500	335.564	80.002	20.010	100.434	19.133	101.366	0.485
541.000	335.794	80.003	20.010	100.436	19.126	101.952	0.473
541.500	336.014	80.001	20.009	100.450	19.120	102.730	0.462
542.000	336.273	80.003	20.010	100.466	19.112	103.640	0.464
542.500	336.528	80.001	20.010	100.473	19.104	104.492	0.496
543.000	336.790	80.003	20.010	100.473	19.097	105.283	0.515
543.500	337.050	80.003	20.011	100.463	19.090	106.126	0.519
544.000	337.313	80.003	20.011	100.448	19.082	106.939	0.522
544.500	337.524	80.003	20.010	100.433	19.075	107.586	0.499
545.000	337.788	80.002	20.009	100.431	19.070	108.100	0.475
545.500	338.020	80.002	20.009	100.437	19.058	109.292	0.486
546.000	338.259	80.002	20.010	100.453	19.051	109.980	0.483
546.500	338.510	80.002	20.010	100.468	19.045	110.613	0.481
547.000	338.722	80.002	20.010	100.481	19.039	111.234	0.477
547.500	338.962	80.003	20.010	100.483	19.031	112.115	0.457
548.000	339.220	80.003	20.010	100.476	19.021	113.185	0.475
548.500	339.489	80.002	20.010	100.463	19.015	113.797	0.512
549.000	339.744	80.002	20.010	100.452	19.010	114.318	0.526
549.500	339.960	80.002	20.011	100.445	19.001	115.261	0.497
550.000	340.167	80.001	20.010	100.448	18.993	116.076	0.446
550.500	340.416	80.005	20.010	100.458	18.987	116.750	0.439
551.000	340.675	79.999	20.006	100.475	18.980	117.461	0.482
551.500	340.931	80.005	20.017	100.509	18.974	118.077	0.512
552.000	341.164	80.002	20.012	100.454	18.969	118.655	0.502
552.500	341.416	80.003	20.009	100.410	18.962	119.306	0.487
553.000	341.670	80.003	20.009	100.378	18.956	119.959	0.496
553.500	341.924	80.005	20.007	100.353	18.952	120.400	0.507
554.000	342.138	80.003	20.014	100.285	18.947	120.883	0.487
554.500	342.417	80.002	20.010	100.356	18.940	121.683	0.480
555.000	342.640	80.002	20.007	100.455	18.933	122.348	0.498
555.501	342.882	80.002	20.008	100.532	18.927	123.004	0.484
556.000	343.154	80.002	20.009	100.576	18.921	123.657	0.490
556.500	343.373	80.003	20.010	100.623	18.914	124.330	0.503
557.000	343.612	80.003	20.010	100.608	18.908	125.011	0.474
557.500	343.878	80.003	20.010	100.547	18.903	125.433	0.481
558.000	344.063	80.002	20.010	100.497	18.900	125.841	0.478
558.500	344.325	80.003	20.010	100.476	18.892	126.666	0.449
559.000	344.615	80.004	20.009	100.473	18.884	127.466	0.499
559.500	344.861	80.002	20.010	100.479	18.880	127.896	0.544
560.000	345.091	80.002	20.010	100.483	18.875	128.480	0.506
560.500	345.306	80.003	20.010	100.481	18.869	129.062	0.461
561.000	345.580	80.003	20.010	100.471	18.864	129.593	0.468
561.500	345.841	80.003	20.010	100.461	18.858	130.203	0.512
562.000	346.008	80.002	20.011	100.449	18.852	130.795	0.481
562.500	346.301	80.003	20.010	100.450	18.849	131.149	0.444
563.000	346.543	80.002	20.009	100.461	18.844	131.691	0.497
563.500	346.770	80.003	20.009	100.479	18.840	132.210	0.502
564.000	347.022	80.003	20.009	100.492	18.834	132.817	0.474
564.500	347.271	80.002	20.009	100.505	18.829	133.324	0.490
565.000	347.503	80.002	20.009	100.503	18.823	133.954	0.491
565.500	347.789	80.002	20.010	100.492	18.821	134.176	0.500
566.000	347.991	80.003	20.010	100.479	18.815	134.861	0.504
566.500	348.238	80.003	20.010	100.475	18.807	135.657	0.469
567.000	348.473	80.002	20.009	100.482	18.806	135.768	0.465
567.500	348.740	80.002	20.009	100.497	18.801	136.295	0.492
568.000	348.977	80.001	20.009	100.510	18.794	137.026	0.503
568.500	349.256	80.002	20.009	100.515	18.790	137.505	0.510
569.001	349.502	80.003	20.009	100.510	18.785	138.060	0.521
569.500	349.724	80.002	20.010	100.494	18.779	138.636	0.497
570.000	349.995	80.003	20.010	100.479	18.777	138.813	0.480
570.500	350.182	80.002	20.009	100.469	18.775	139.077	0.475
571.000	350.460	80.001	20.009	100.468	18.769	139.618	0.462
571.501	350.717	80.004	20.009	100.476	18.766	140.042	0.500
572.000	350.942	80.001	20.009	100.491	18.762	140.463	0.508
572.500	351.196	80.003	20.009	100.501	18.759	140.785	0.481
573.000	351.463	80.002	20.010	100.504	18.755	141.154	0.500
573.500	351.705	80.003	20.010	100.499	18.748	141.837	0.515
574.000	351.959	80.002	20.010	100.498	18.746	142.057	0.503
574.500	352.208	80.002	20.010	100.492	18.742	142.434	0.499
575.000	352.419	80.001	20.010	100.495	18.736	143.049	0.481
575.500	352.703	80.002	20.010	100.505	18.731	143.611	0.477
576.000	352.914	80.002	20.010	100.525	18.723	144.417	0.495
576.500	353.143	80.002	20.010	100.545	18.714	145.390	0.468
577.000	353.364	80.002	20.009	100.568	18.708	146.065	0.445
577.500	353.658	80.002	20.009	100.583	18.702	146.700	0.483
578.000	353.883	80.003	20.010	100.590	18.692	147.624	0.517
578.500	354.149	80.002	20.010	100.584	18.683	148.557	0.505
579.000	354.305	80.001	20.010	100.581	18.675	149.360	0.457
579.500	354.591	80.002	20.010	100.582	18.664	150.502	0.433
580.000	354.857	80.002	20.009	100.588	18.653	151.718	0.497
580.500	355.097	80.001	20.009	100.602	18.644	152.628	0.529
581.000	355.345	80.004	20.009	100.623	18.632	153.902	0.496
581.500	355.586	80.002	20.010	100.633	18.626	154.534	0.488
582.000	355.823	80.002	20.010	100.630	18.616	155.642	0.484
582.500	356.065	80.001	20.010	100.619	18.608	156.360	0.479
583.000	356.330	80.002	20.010	100.612	18.603	156.895	0.493
583.500	356.529	80.003	20.010	100.605	18.596	157.520	0.485
584.000	356.803	80.001	20.009	100.607	18.591	158.060	0.468
584.500	357.046	80.002	20.009	100.615	18.584	158.723	0.495
585.000	357.283	80.003	20.009	100.627	18.577	159.446	0.499
585.500	357.483	80.004	20.009	100.625	18.566	160.605	0.459
586.000	357.766	80.002	20.009	100.613	18.559	161.426	0.460
586.500	358.014	80.001	20.010	100.593	18.549	162.543	0.508
587.000	358.284	80.004	20.009	100.571	18.542	163.357	0.524
587.500	358.496	80.001	20.009	100.550	18.531	164.426	0.500
588.000	358.708	80.001	20.010	100.544	18.524	165.175	0.453
588.500	358.991	80.003	20.009	100.559	18.517	165.893	0.459
589.000	359.206	80.002	20.009	100.578	18.505	167.108	0.497
589.500	359.394	80.003	20.009	100.587	18.496	167.998	0.451
590.000	359.716	80.001	20.010	100.596	18.486	169.101	0.456
590.500	359.963	80.002	20.010	100.591	18.476	170.210	0.540
591.000	360.195	80.003	20.010	100.570	18.466	171.196	0.524
591.500	360.453	80.002	20.009	100.543	18.462	171.614	0.485
592.000	360.688	80.003	20.009	100.526	18.459	171.921	0.491
592.500	360.914	80.003	20.010	100.519	18.459	171.970	0.477
593.000	361.173	80.001	20.009	100.530	18.462	171.690	0.473
593.500	361.399	80.002	20.009	100.547	18.466	171.342	0.485
594.000	361.671	80.003	20.010	100.560	18.467	171.187	0.491
594.501	361.918	80.002	20.010	100.568	18.469	171.014	0.509
595.000	362.185	80.003	20.010	100.559	18.471	170.768	0.516
595.500	362.399	80.002	20.009	100.537	18.470	170.915	0.497
596.000	362.623	80.002	20.009	100.506	18.460	171.961	0.460
596.500	362.842	80.002	20.010	100.477	18.457	172.324	0.440
597.000	363.088	80.002	20.009	100.457	18.452	172.885	0.453
597.500	363.361	80.004	20.009	100.444	18.449	173.247	0.492
598.000	363.602	80.001	20.009	100.436	18.449	173.286	0.517
598.501	363.838	80.002	20.011	100.443	18.449	173.274	0.495
599.000	364.126	80.001	20.009	100.483	18.454	172.821	0.500
599.500	364.343	80.003	20.009	100.521	18.461	172.143	0.515
600.000	364.652	80.003	20.009	100.539	18.466	171.626	0.516
600.500	364.881	80.002	20.010	100.538	18.477	170.513	0.532
601.000	365.136	80.004	20.009	100.531	18.486	169.550	0.511
601.500	365.356	80.003	20.010	100.507	18.495	168.612	0.479
602.000	365.608	80.004	20.009	100.489	18.500	168.055	0.474
602.500	365.819	80.003	20.009	100.495	18.508	167.206	0.468
603.000	366.081	80.003	20.009	100.515	18.515	166.472	0.468
603.500	366.337	80.004	20.009	100.531	18.523	165.701	0.495
604.000	366.573	80.003	20.009	100.531	18.527	165.357	0.505
604.500	366.876	80.002	20.010	100.525	18.535	164.516	0.516
605.000	367.069	80.002	20.011	100.525	18.539	164.042	0.517
605.500	367.370	80.002	20.010	100.540	18.544	163.449	0.495
606.000	367.551	80.002	20.009	100.558	18.551	162.591	0.488
606.500	367.775	80.002	20.009	100.569	18.558	161.831	0.443
607.000	368.054	80.003	20.010	100.575	18.564	161.180	0.454
607.500	368.302	80.003	20.009	100.575	18.570	160.614	0.515
608.000	368.580	80.003	20.010	100.571	18.577	159.903	0.527
608.500	368.851	80.002	20.010	100.574	18.583	159.358	0.537
609.000	369.121	80.002	20.009	100.592	18.585	159.234	0.545
609.500	369.416	80.002	20.009	100.616	18.594	158.377	0.553
610.000	369.678	80.003	20.010	100.637	18.599	157.843	0.561
610.500	369.948	80.004	20.010	100.656	18.606	157.132	0.544
611.000	370.188	80.002	20.010	100.675	18.612	156.425	0.521
611.500	370.485	80.002	20.010	100.699	18.616	155.885	0.524
612.000	370.703	80.002	20.010	100.730	18.621	155.423	0.526
612.500	370.996	80.002	20.009	100.757	18.623	155.143	0.513
613.000	371.226	80.003	20.011	100.770	18.627	154.790	0.517
613.500	371.480	80.002	20.009	100.769	18.631	154.292	0.503
614.000	371.765	80.002	20.011	100.758	18.635	153.911	0.511
614.500	371.985	80.003	20.010	100.743	18.640	153.422	0.522
615.000	372.256	80.003	20.009	100.738	18.642	153.157	0.498
615.500	372.494	80.003	20.009	100.742	18.648	152.499	0.500
616.000	372.738	80.002	20.010	100.753	18.649	152.363	0.496
616.500	373.010	80.004	20.011	100.771	18.651	152.187	0.499
617.000	373.227	80.001	20.006	100.798	18.656	151.661	0.502
617.500	373.544	80.004	20.014	100.811	18.662	151.060	0.511
618.000	373.749	80.002	20.011	100.763	18.666	150.690	0.528
618.500	374.013	80.003	20.009	100.724	18.672	149.988	0.496
619.000	374.278	80.004	20.009	100.694	18.674	149.820	0.499
619.500	374.542	80.003	20.008	100.663	18.678	149.327	0.529
620.000	374.752	80.004	20.008	100.645	18.685	148.566	0.502
620.500	374.990	80.002	20.013	100.670	18.690	148.100	0.461
621.000	375.240	80.002	20.011	100.713	18.693	147.752	0.468
621.500	375.500	80.002	20.007	100.779	18.700	147.096	0.499
622.000	375.758	80.003	20.007	100.832	18.702	146.822	0.514
622.500	376.015	80.002	20.009	100.859	18.709	146.186	0.516
623.000	376.298	80.002	20.010	100.886	18.712	145.812	0.527
623.500	376.522	80.002	20.009	100.872	18.717	145.260	0.524
624.000	376.738	80.002	20.009	100.821	18.720	144.924	0.473
624.500	376.976	80.002	20.010	100.773	18.727	144.200	0.447
625.000	377.220	80.003	20.009	100.750	18.730	143.846	0.468
625.500	377.492	80.003	20.010	100.745	18.734	143.464	0.499
626.000	377.807	80.003	20.010	100.752	18.740	142.843	0.551
626.500	378.068	80.003	20.010	100.755	18.744	142.495	0.582
627.000	378.339	80.003	20.009	100.754	18.748	142.091	0.554
627.500	378.602	80.003	20.010	100.744	18.753	141.483	0.533
628.000	378.851	80.004	20.009	100.729	18.759	140.817	0.523
628.500	379.072	80.002	20.010	100.714	18.768	139.919	0.491
629.000	379.356	80.002	20.009	100.708	18.773	139.429	0.487
629.500	379.627	80.002	20.009	100.710	18.777	138.975	0.530
630.000	379.880	80.004	20.009	100.723	18.785	138.141	0.540
630.500	380.160	80.002	20.009	100.735	18.788	137.803	0.528
631.000	380.409	80.003	20.010	100.742	18.798	136.786	0.531
631.500	380.699	80.002	20.009	100.743	18.805	136.082	0.534
632.000	380.902	80.002	20.010	100.738	18.811	135.428	0.516
632.500	381.146	80.003	20.010	100.721	18.819	134.582	0.470
633.000	381.425	80.003	20.010	100.710	18.825	133.942	0.485
633.501	381.679	80.003	20.010	100.709	18.832	133.218	0.528
634.000	381.955	80.002	20.010	100.713	18.844	132.026	0.532
634.500	382.156	80.002	20.009	100.723	18.849	131.484	0.504
635.000	382.426	80.003	20.009	100.733	18.857	130.602	0.474
635.500	382.641	80.002	20.010	100.738	18.864	129.936	0.478
636.000	382.899	80.002	20.009	100.732	18.871	129.177	0.478
636.500	383.186	80.003	20.009	100.719	18.882	128.011	0.509
637.001	383.471	80.003	20.010	100.696	18.891	127.005	0.559
637.500	383.669	80.002	20.009	100.689	18.898	126.281	0.528
638.000	383.934	80.003	20.008	100.695	18.908	125.270	0.473
638.500	384.176	80.000	20.010	100.710	18.915	124.538	0.485
639.000	384.438	80.002	20.010	100.721	18.924	123.593	0.505
639.500	384.679	80.002	20.010	100.736	18.934	122.542	0.504
640.000	384.938	80.002	20.009	100.736	18.942	121.750	0.501
640.500	385.145	80.001	20.008	100.724	18.951	120.762	0.483
641.000	385.437	80.002	20.010	100.707	18.960	119.833	0.483
641.500	385.657	80.003	20.010	100.699	18.967	119.148	0.506
642.000	385.935	80.001	20.009	100.698	18.980	117.814	0.505
642.500	386.165	80.003	20.008	100.706	18.986	117.184	0.503
643.000	386.441	80.002	20.008	100.716	18.999	115.765	0.507
643.500	386.678	80.002	20.009	100.726	19.009	114.728	0.510
644.000	386.924	80.001	20.010	100.732	19.017	113.893	0.498
644.500	387.167	80.003	20.009	100.727	19.026	112.945	0.486
645.000	387.422	80.003	20.009	100.718	19.037	111.786	0.494
645.500	387.699	80.003	20.010	100.710	19.049	110.570	0.515
646.000	387.963	80.004	20.009	100.707	19.058	109.589	0.537
646.500	388.166	80.002	20.010	100.711	19.069	108.472	0.504
647.000	388.457	80.002	20.009	100.725	19.079	107.411	0.481
647.500	388.706	80.003	20.010	100.741	19.088	106.483	0.517
648.000	388.975	80.002	20.009	100.746	19.100	105.242	0.529
648.500	389.228	80.003	20.010	100.747	19.109	104.299	0.520
649.000	389.433	80.003	20.009	100.743	19.118	103.314	0.490
649.500	389.742	80.003	20.011	100.727	19.128	102.313	0.486
650.000	389.998	80.004	20.010	100.714	19.141	100.975	0.540
650.500	390.246	80.001	20.009	100.716	19.145	100.461	0.534
651.000	390.512	80.003	20.009	100.724	19.161	98.886	0.509
651.500	390.706	80.001	20.009	100.733	19.172	97.734	0.487
652.000	390.982	80.003	20.010	100.749	19.184	96.490	0.465
652.500	391.245	80.002	20.010	100.760	19.193	95.464	0.504
653.000	391.522	80.003	20.010	100.759	19.203	94.438	0.540
653.500	391.740	80.003	20.010	100.751	19.213	93.337	0.518
654.000	391.983	80.002	20.009	100.753	19.224	92.175	0.478
654.500	392.267	80.003	20.009	100.755	19.237	90.806	0.493
655.000	392.455	80.002	20.010	100.756	19.248	89.708	0.499
655.501	392.689	80.004	20.009	100.763	19.258	88.691	0.448
656.001	393.034	80.002	20.010	100.771	19.267	87.756	0.501
656.500	393.193	80.002	20.009	100.771	19.278	86.526	0.541
657.000	393.516	80.003	20.009	100.769	19.289	85.395	0.493
657.500	393.718	80.003	20.008	100.769	19.300	84.210	0.504
658.000	393.933	80.003	20.009	100.762	19.314	82.825	0.471
658.500	394.194	80.003	20.010	100.758	19.325	81.657	0.446
659.001	394.479	80.003	20.009	100.760	19.333	80.831	0.511
659.501	394.691	80.002	20.009	100.767	19.343	79.711	0.521
660.000	394.898	80.003	20.009	100.773	19.354	78.594	0.457
660.500	395.165	80.003	20.009	100.788	19.363	77.624	0.446
661.000	395.407	80.003	20.009	100.799	19.375	76.380	0.492
661.500	395.617	80.001	20.009	100.805	19.386	75.308	0.481
662.001	395.918	80.002	20.009	100.799	19.396	74.246	0.482
662.500	396.191	80.004	20.009	100.794	19.407	73.073	0.542
663.000	396.433	80.002	20.009	100.788	19.417	72.015	0.544
663.500	396.658	80.001	20.009	100.788	19.426	71.027	0.491
664.000	396.921	80.003	20.009	100.792	19.438	69.762	0.478
664.500	397.151	80.003	20.008	100.799	19.449	68.672	0.490
665.000	397.418	80.002	20.010	100.805	19.458	67.711	0.494
665.500	397.637	80.004	20.009	100.804	19.468	66.653	0.492
666.000	397.842	80.003	20.009	100.795	19.478	65.585	0.456
666.500	398.072	80.003	20.009	100.780	19.486	64.726	0.430
667.000	398.341	80.003	20.010	100.769	19.497	63.623	0.467
667.500	398.619	80.003	20.009	100.764	19.505	62.707	0.523
668.000	398.810	80.002	20.009	100.772	19.515	61.751	0.508
668.500	399.088	80.003	20.009	100.781	19.524	60.764	0.469
669.000	399.358	80.003	20.009	100.791	19.532	59.931	0.509
669.500	399.586	80.003	20.009	100.795	19.542	58.929	0.524
670.000	399.823	80.000	20.009	100.793	19.554	57.673	0.481
670.500	400.115	80.004	20.009	100.785	19.558	57.194	0.496
671.000	400.377	80.003	20.009	100.777	19.570	56.008	0.541
671.500	400.606	80.003	20.009	100.771	19.577	55.203	0.522
672.000	400.847	80.002	20.009	100.770	19.589	53.965	0.481
672.501	401.055	80.004	20.009	100.777	19.601	52.744	0.460
673.001	401.360	80.003	20.008	100.785	19.608	52.007	0.481
673.500	401.582	80.003	20.009	100.793	19.614	51.346	0.520
674.000	401.883	80.004	20.009	100.800	19.621	50.635	0.525
674.501	402.089	80.003	20.008	100.806	19.631	49.570	0.515
675.000	402.361	80.003	20.009	100.802	19.640	48.657	0.492
675.500	402.625	80.004	20.009	100.794	19.648	47.791	0.507
676.000	402.833	80.003	20.010	100.783	19.654	47.150	0.504
676.500	403.092	80.002	20.010	100.777	19.665	45.971	0.469
677.000	403.365	80.003	20.009	100.773	19.674	45.077	0.499
677.501	403.581	80.002	20.009	100.779	19.680	44.425	0.511
678.000	403.856	80.002	20.009	100.782	19.688	43.616	0.490
678.500	404.076	80.003	20.008	100.784	19.698	42.584	0.493
679.000	404.336	80.003	20.009	100.776	19.707	41.597	0.488
679.500	404.580	80.004	20.009	100.763	19.715	40.712	0.492
680.000	404.769	80.002	20.009	100.748	19.721	40.084	0.468
680.500	405.079	80.002	20.008	100.746	19.731	39.098	0.466
681.000	405.305	80.002	20.009	100.748	19.737	38.432	0.517
681.500	405.546	80.004	20.009	100.763	19.743	37.792	0.502
682.000	405.760	80.001	20.009	100.781	19.751	37.020	0.461
682.500	406.023	80.003	20.009	100.798	19.758	36.215	0.466
683.000	406.334	80.004	20.008	100.806	19.765	35.453	0.525
683.500	406.478	80.002	20.009	100.808	19.774	34.551	0.515
684.000	406.751	80.002	20.009	100.799	19.781	33.836	0.436
684.500	407.020	80.003	20.009	100.789	19.790	32.902	0.480
685.000	407.282	80.003	20.009	100.782	19.796	32.248	0.536
685.500	407.533	80.002	20.009	100.780	19.803	31.513	0.522
686.000	407.788	80.002	20.009	100.782	19.808	31.006	0.509
686.500	408.006	80.002	20.009	100.783	19.815	30.274	0.489
687.000	408.268	80.003	20.008	100.785	19.823	29.405	0.477
687.500	408.526	80.004	20.009	100.776	19.828	28.934	0.500
688.000	408.815	80.003	20.009	100.757	19.832	28.496	0.533
688.500	409.077	80.003	20.009	100.742	19.836	28.036	0.549
689.000	409.295	80.002	20.009	100.734	19.843	27.304	0.515
689.500	409.521	80.003	20.008	100.732	19.851	26.458	0.462
690.000	409.768	80.002	20.008	100.739	19.856	25.909	0.458
690.500	409.997	80.003	20.009	100.751	19.861	25.460	0.474
691.000	410.266	80.001	20.008	100.759	19.867	24.850	0.487
691.500	410.490	80.002	20.009	100.759	19.870	24.524	0.496
692.000	410.786	80.003	20.009	100.749	19.879	23.544	0.506
692.500	411.027	80.003	20.009	100.733	19.881	23.331	0.529
693.000	411.288	80.002	20.009	100.726	19.888	22.651	0.519
693.500	411.547	80.003	20.009	100.728	19.891	22.306	0.511
694.000	411.771	80.002	20.009	100.734	19.896	21.751	0.502
694.500	412.057	80.002	20.009	100.745	19.901	21.253	0.496
695.000	412.278	80.002	20.010	100.754	19.907	20.629	0.508
695.500	412.531	80.003	20.010	100.752	19.910	20.338	0.490
696.000	412.778	80.005	20.011	100.737	19.912	20.057	0.487
696.500	413.052	80.002	20.010	100.723	19.917	19.527	0.511
697.001	413.282	80.004	20.010	100.716	19.924	18.809	0.513
697.501	413.523	80.005	20.010	100.716	19.926	18.629	0.487
698.000	413.774	80.004	20.010	100.725	19.929	18.290	0.481
698.500	414.029	80.006	20.010	100.733	19.933	17.920	0.499
699.000	414.289	80.004	20.010	100.740	19.936	17.572	0.511
699.500	414.515	80.005	20.011	100.734	19.940	17.150	0.501
700.000	414.785	80.002	20.011	100.722	19.945	16.577	0.491
700.500	415.037	80.002	20.009	100.700	19.946	16.474	0.509
701.000	415.280	80.003	20.010	100.688	19.951	15.954	0.509
701.501	415.544	80.003	20.009	100.680	19.957	15.370	0.501
702.000	415.784	80.003	20.009	100.681	19.961	14.956	0.506
702.500	416.075	80.001	20.009	100.688	19.960	15.030	0.517
703.000	416.290	80.004	20.010	100.695	19.966	14.429	0.518
703.500	416.571	80.003	20.010	100.696	19.970	13.990	0.501
704.000	416.781	80.001	20.010	100.688	19.972	13.783	0.493
704.500	417.013	80.003	20.010	100.677	19.977	13.283	0.466
705.000	417.262	80.003	20.009	100.668	19.979	13.029	0.461
705.500	417.547	80.003	20.009	100.667	19.980	12.925	0.508
706.000	417.798	80.004	20.011	100.664	19.985	12.440	0.535
706.500	418.049	80.003	20.011	100.663	19.988	12.126	0.519
707.000	418.280	80.004	20.011	100.663	19.989	11.984	0.492
707.500	418.511	80.004	20.009	100.654	19.991	11.837	0.472
708.000	418.743	80.003	20.010	100.638	19.995	11.387	0.463
708.500	419.031	80.002	20.010	100.632	19.997	11.134	0.492
709.000	419.254	80.002	20.009	100.631	20.002	10.654	0.515
709.500	419.507	80.003	20.010	100.638	20.003	10.537	0.493
710.001	419.747	80.003	20.009	100.652	20.006	10.198	0.485
710.500	420.042	80.002	20.009	100.661	20.008	10.034	0.514
711.000	420.271	80.004	20.010	100.660	20.013	9.555	0.529
711.500	420.480	80.002	20.010	100.653	20.014	9.428	0.481
712.000	420.703	80.003	20.009	100.639	20.015	9.264	0.435
712.500	420.976	80.002	20.010	100.627	20.018	8.995	0.463
713.000	421.272	80.003	20.010	100.627	20.022	8.571	0.533
713.500	421.495	80.003	20.009	100.633	20.024	8.386	0.544
714.000	421.729	80.002	20.008	100.643	20.024	8.333	0.487
714.500	421.965	80.003	20.009	100.646	20.026	8.110	0.463
715.000	422.195	80.002	20.009	100.642	20.029	7.828	0.468
715.500	422.482	80.003	20.009	100.633	20.029	7.843	0.492
716.000	422.736	80.003	20.009	100.621	20.033	7.467	0.529
716.500	422.955	80.002	20.009	100.610	20.032	7.514	0.507
717.000	423.200	80.003	20.009	100.607	20.034	7.285	0.469
717.500	423.463	80.003	20.008	100.615	20.038	6.900	0.486
718.000	423.728	80.003	20.009	100.623	20.038	6.896	0.518
718.500	423.966	80.003	20.008	100.633	20.040	6.721	0.515
719.000	424.211	80.003	20.008	100.633	20.042	6.494	0.493
719.500	424.436	80.002	20.009	100.632	20.044	6.270	0.476
720.000	424.727	80.004	20.009	100.624	20.044	6.243	0.493
720.500	424.946	80.003	20.009	100.616	20.047	5.965	0.513
721.000	425.195	80.003	20.009	100.612	20.048	5.855	0.489
721.500	425.443	80.003	20.008	100.617	20.046	6.004	0.482
722.000	425.711	80.004	20.009	100.619	20.050	5.606	0.506
722.500	425.977	80.001	20.009	100.619	20.052	5.413	0.525
723.001	426.197	80.004	20.009	100.617	20.049	5.729	0.510
723.500	426.441	80.003	20.009	100.608	20.052	5.399	0.476
724.000	426.679	80.002	20.009	100.596	20.055	5.124	0.473
724.500	426.952	80.003	20.009	100.588	20.054	5.264	0.496
725.000	427.238	80.003	20.009	100.586	20.058	4.833	0.535
725.500	427.456	80.003	20.009	100.589	20.059	4.679	0.532
726.000	427.729	80.003	20.008	100.597	20.062	4.349	0.498
726.500	427.998	80.004	20.009	100.605	20.063	4.309	0.516
727.000	428.217	80.003	20.009	100.606	20.066	3.937	0.515
727.500	428.480	80.002	20.009	100.601	20.068	3.714	0.486
728.000	428.776	80.003	20.009	100.593	20.066	3.948	0.521
728.500	429.026	80.003	20.009	100.587	20.069	3.659	0.552
729.000	429.247	80.003	20.009	100.584	20.070	3.573	0.509
729.500	429.524	80.003	20.009	100.589	20.067	3.810	0.484
730.000	429.764	80.002	20.008	100.598	20.070	3.567	0.507
730.500	430.039	80.003	20.008	100.605	20.068	3.754	0.516
731.000	430.291	80.003	20.009	100.606	20.073	3.250	0.521
731.500	430.481	80.003	20.009	100.597	20.072	3.316	0.485
732.000	430.727	80.003	20.009	100.581	20.074	3.173	0.440
732.500	431.024	80.002	20.009	100.567	20.073	3.209	0.490
733.000	431.280	80.002	20.010	100.560	20.073	3.220	0.548
733.500	431.541	80.004	20.009	100.561	20.076	2.931	0.535
734.000	431.747	80.003	20.009	100.571	20.079	2.641	0.492
734.500	432.010	80.002	20.009	100.584	20.079	2.612	0.468
735.000	432.302	80.004	20.009	100.588	20.081	2.444	0.512
735.500	432.536	80.003	20.009	100.580	20.079	2.559	0.540
736.000	432.767	80.003	20.010	100.568	20.081	2.358	0.495
736.500	433.034	80.002	20.009	100.555	20.079	2.654	0.481
737.000	433.270	80.002	20.008	100.550	20.078	2.694	0.501
737.500	433.542	80.002	20.009	100.552	20.080	2.502	0.506
738.000	433.819	80.002	20.009	100.559	20.079	2.641	0.528
738.500	434.039	80.002	20.009	100.563	20.081	2.426	0.523
739.000	434.252	80.003	20.009	100.561	20.081	2.366	0.465
739.500	434.486	80.001	20.009	100.550	20.084	2.121	0.440
740.000	434.730	80.003	20.009	100.538	20.084	2.040	0.462
740.500	434.993	80.003	20.010	100.530	20.085	1.954	0.493
741.000	435.265	80.001	20.009	100.531	20.084	2.064	0.521
741.500	435.546	80.003	20.009	100.539	20.085	1.956	0.544
742.000	435.822	80.003	20.009	100.549	20.087	1.717	0.555
742.500	436.026	80.003	20.009	100.556	20.088	1.646	0.518
743.000	436.321	80.004	20.009	100.549	20.087	1.798	0.489
743.500	436.566	80.003	20.009	100.541	20.085	2.019	0.520
744.000	436.811	80.002	20.009	100.533	20.089	1.602	0.515
744.500	437.061	80.002	20.009	100.529	20.087	1.781	0.492
745.000	437.325	80.003	20.009	100.536	20.085	1.958	0.504
745.500	437.554	80.004	20.009	100.550	20.087	1.817	0.504
746.000	437.809	80.003	20.008	100.562	20.087	1.801	0.488
746.500	438.036	80.002	20.009	100.564	20.087	1.748	0.483
747.000	438.336	80.002	20.009	100.561	20.088	1.710	0.505
747.500	438.546	80.003	20.009	100.550	20.089	1.531	0.519
748.000	438.797	80.002	20.010	100.541	20.090	1.440	0.486
748.500	439.068	80.002	20.009	100.539	20.093	1.173	0.491
749.000	439.298	80.003	20.009	100.544	20.091	1.319	0.511
749.500	439.553	80.003	20.009	100.551	20.094	1.074	0.493
750.000	439.848	80.003	20.009	100.558	20.090	1.505	0.518
750.500	440.082	80.002	20.010	100.560	20.092	1.248	0.539
751.000	440.368	80.003	20.009	100.553	20.092	1.286	0.524
751.500	440.583	80.003	20.009	100.545	20.092	1.217	0.511
752.000	440.882	80.003	20.009	100.537	20.091	1.316	0.507
752.500	441.097	80.002	20.009	100.538	20.092	1.294	0.514
753.000	441.277	80.003	20.009	100.546	20.089	1.544	0.455
753.500	441.557	80.002	20.009	100.555	20.093	1.175	0.427
754.001	441.793	80.002	20.010	100.556	20.091	1.381	0.488
754.500	442.006	80.003	20.009	100.556	20.093	1.175	0.483
755.000	442.281	80.002	20.009	100.547	20.092	1.284	0.469
755.501	442.548	80.003	20.009	100.531	20.093	1.138	0.515
756.000	442.800	80.001	20.009	100.523	20.093	1.146	0.530
756.500	443.084	80.002	20.008	100.528	20.094	1.063	0.528
757.000	443.316	80.003	20.009	100.536	20.094	1.074	0.526
757.500	443.571	80.002	20.009	100.548	20.094	0.990	0.502
758.000	443.788	80.003	20.009	100.561	20.094	1.001	0.480
758.500	444.042	80.002	20.008	100.561	20.092	1.202	0.472
759.001	444.308	80.003	20.009	100.553	20.094	1.018	0.495
759.500	444.522	80.003	20.009	100.537	20.094	0.992	0.500
760.000	444.768	80.002	20.009	100.522	20.095	0.928	0.470
760.500	445.034	80.002	20.008	100.516	20.094	1.060	0.486
761.000	445.226	80.001	20.009	100.519	20.093	1.087	0.485
761.500	445.498	80.002	20.009	100.529	20.095	0.901	0.461
762.000	445.752	80.002	20.009	100.540	20.095	0.912	0.495
762.500	445.995	80.004	20.010	100.546	20.093	1.153	0.511
763.000	446.210	80.002	20.009	100.538	20.098	0.641	0.478
763.500	446.494	80.002	20.009	100.527	20.095	0.886	0.479
764.001	446.784	80.003	20.009	100.510	20.096	0.786	0.536
764.500	447.000	80.001	20.009	100.502	20.098	0.656	0.540
765.000	447.303	80.003	20.009	100.503	20.096	0.835	0.512
765.500	447.503	80.003	20.009	100.511	20.094	1.085	0.511
766.000	447.734	80.002	20.009	100.519	20.095	0.890	0.467
766.500	447.996	80.003	20.009	100.527	20.095	0.888	0.462
767.000	448.238	80.002	20.008	100.531	20.095	0.932	0.499
767.500	448.474	80.003	20.009	100.530	20.095	0.972	0.491
768.000	448.746	80.003	20.010	100.522	20.095	0.954	0.493
768.500	448.960	80.003	20.009	100.516	20.095	0.965	0.497
769.000	449.209	80.002	20.009	100.515	20.096	0.831	0.474
769.500	449.442	80.004	20.009	100.518	20.097	0.738	0.473
770.000	449.726	80.003	20.009	100.521	20.095	0.906	0.499
770.500	449.970	80.003	20.009	100.529	20.097	0.727	0.523
771.000	450.208	80.003	20.009	100.529	20.096	0.837	0.505
771.501	450.452	80.002	20.009	100.523	20.095	0.879	0.482
772.000	450.719	80.003	20.009	100.513	20.096	0.773	0.496
772.500	450.971	80.003	20.009	100.508	20.097	0.718	0.515
773.000	451.188	80.003	20.009	100.507	20.098	0.596	0.494
773.500	451.433	80.003	20.009	100.515	20.098	0.658	0.465
774.000	451.674	80.002	20.009	100.524	20.099	0.550	0.474
774.500	451.942	80.002	20.009	100.534	20.097	0.687	0.498
775.000	452.164	80.003	20.009	100.535	20.098	0.643	0.499
775.500	452.423	80.003	20.010	100.527	20.098	0.610	0.485
776.001	452.697	80.002	20.009	100.518	20.097	0.674	0.507
776.501	452.867	80.003	20.009	100.510	20.100	0.440	0.489
777.000	453.186	80.002	20.009	100.506	20.098	0.592	0.467
777.500	453.428	80.002	20.009	100.508	20.099	0.563	0.526
778.000	453.682	80.004	20.009	100.515	20.099	0.521	0.528
778.500	453.928	80.003	20.010	100.521	20.099	0.554	0.497
779.000	454.144	80.002	20.009	100.521	20.100	0.440	0.481
779.500	454.399	80.003	20.009	100.515	20.101	0.307	0.467
780.000	454.698	80.002	20.008	100.507	20.102	0.186	0.512
780.500	454.898	80.003	20.010	100.502	20.100	0.398	0.526
781.000	455.138	80.002	20.009	100.504	20.098	0.586	0.469
781.500	455.378	80.002	20.009	100.513	20.099	0.513	0.460
782.000	455.611	80.003	20.010	100.520	20.099	0.508	0.477
782.500	455.834	80.002	20.010	100.526	20.099	0.504	0.465
783.000	456.070	80.002	20.009	100.523	20.098	0.632	0.458
783.500	456.351	80.003	20.009	100.511	20.095	0.965	0.488
784.000	456.621	80.002	20.010	100.497	20.095	0.932	0.534
784.500	456.821	80.003	20.009	100.490	20.096	0.844	0.510
785.001	457.118	80.001	20.009	100.486	20.097	0.747	0.483
785.500	457.404	80.003	20.009	100.493	20.096	0.807	0.540
786.000	457.632	80.003	20.009	100.501	20.097	0.736	0.549
786.500	457.872	80.002	20.009	100.505	20.098	0.632	0.491
787.000	458.101	80.003	20.010	100.505	20.099	0.532	0.469
787.500	458.354	80.003	20.010	100.502	20.099	0.552	0.475
788.000	458.628	80.002	20.009	100.501	20.098	0.623	0.505
788.500	458.861	80.003	20.010	100.513	20.099	0.477	0.518
789.000	459.151	80.002	20.009	100.527	20.097	0.674	0.515
789.500	459.414	80.002	20.009	100.535	20.100	0.378	0.537
790.000	459.641	80.003	20.009	100.540	20.098	0.605	0.521
790.500	459.862	80.002	20.010	100.534	20.101	0.345	0.469
791.000	460.100	80.002	20.010	100.519	20.100	0.369	0.453
791.500	460.353	80.004	20.010	100.504	20.099	0.535	0.475
792.000	460.602	80.003	20.010	100.502	20.101	0.338	0.497
792.500	460.893	80.001	20.010	100.508	20.101	0.325	0.521
793.000	461.146	80.003	20.010	100.525	20.097	0.745	0.542
793.500	461.377	80.002	20.010	100.541	20.094	0.999	0.514
794.000	461.610	80.005	20.011	100.549	20.097	0.753	0.475
794.500	461.883	80.001	20.010	100.544	20.096	0.789	0.485
795.001	462.081	80.002	20.009	100.533	20.099	0.495	0.488
795.500	462.368	80.002	20.010	100.517	20.098	0.632	0.478
796.000	462.619	80.003	20.009	100.510	20.097	0.713	0.511
796.500	462.868	80.003	20.010	100.510	20.097	0.736	0.519
797.000	463.102	80.003	20.010	100.520	20.098	0.610	0.492
797.500	463.369	80.002	20.010	100.534	20.097	0.700	0.492
798.000	463.582	80.001	20.010	100.545	20.096	0.870	0.491
798.500	463.827	80.003	20.009	100.544	20.099	0.488	0.469
799.000	464.097	80.003	20.010	100.537	20.100	0.380	0.486
799.500	464.315	80.002	20.010	100.526	20.100	0.413	0.502
800.000	464.573	80.003	20.010	100.516	20.097	0.707	0.482
800.500	464.774	80.002	20.009	100.515	20.097	0.720	0.467
801.000	465.062	80.003	20.010	100.521	20.096	0.818	0.474
801.500	465.281	80.003	20.009	100.536	20.098	0.612	0.498
802.000	465.533	80.002	20.011	100.544	20.098	0.577	0.489
802.500	465.823	80.004	20.010	100.541	20.098	0.647	0.506
803.000	466.071	80.005	20.011	100.532	20.098	0.652	0.540
803.500	466.300	80.002	20.010	100.521	20.096	0.793	0.508
804.000	466.542	80.003	20.010	100.513	20.097	0.689	0.474
804.500	466.785	80.001	20.010	100.512	20.098	0.572	0.478
805.000	467.025	80.002	20.010	100.519	20.095	0.961	0.484
805.500	467.305	80.002	20.010	100.526	20.098	0.577	0.502
806.000	467.575	80.003	20.009	100.534	20.096	0.806	0.535
806.500	467.791	80.003	20.009	100.534	20.099	0.561	0.518
807.001	468.037	80.002	20.009	100.529	20.098	0.616	0.475
807.500	468.315	80.002	20.009	100.520	20.097	0.711	0.493
808.000	468.551	80.003	20.009	100.515	20.099	0.499	0.519
808.500	468.806	80.001	20.009	100.514	20.097	0.729	0.502
809.000	469.043	80.002	20.009	100.514	20.097	0.711	0.491
809.500	469.276	80.004	20.009	100.520	20.097	0.687	0.481
810.000	469.513	80.004	20.009	100.528	20.099	0.486	0.470
810.500	469.762	80.001	20.009	100.532	20.097	0.749	0.479
811.000	469.995	80.002	20.009	100.531	20.096	0.846	0.484
811.500	470.279	80.004	20.009	100.526	20.097	0.749	0.500
812.000	470.455	80.002	20.009	100.523	20.096	0.787	0.489
812.500	470.768	80.003	20.009	100.523	20.096	0.773	0.475
813.000	471.017	80.001	20.009	100.529	20.097	0.727	0.526
813.500	471.258	80.003	20.009	100.533	20.098	0.630	0.526
814.000	471.516	80.002	20.008	100.538	20.097	0.729	0.494
814.500	471.756	80.004	20.009	100.538	20.099	0.512	0.499
815.000	472.000	80.001	20.009	100.530	20.101	0.311	0.491
815.500	472.270	80.003	20.010	100.517	20.101	0.256	0.499
816.000	472.530	80.003	20.009	100.509	20.099	0.513	0.522
816.500	472.766	80.003	20.009	100.509	20.098	0.658	0.513
817.000	472.998	80.001	20.009	100.512	20.097	0.718	0.482
817.500	473.248	80.001	20.009	100.520	20.099	0.561	0.476
818.000	473.490	80.004	20.009	100.523	20.098	0.601	0.487
818.500	473.740	80.002	20.009	100.522	20.097	0.727	0.492
819.000	473.989	80.002	20.009	100.515	20.097	0.749	0.495
819.500	474.233	80.003	20.009	100.506	20.097	0.738	0.496
820.000	474.465	80.002	20.009	100.498	20.097	0.722	0.485
820.501	474.726	80.003	20.009	100.499	20.098	0.603	0.485
821.000	474.948	80.002	20.009	100.505	20.096	0.811	0.488
821.500	475.226	80.003	20.009	100.512	20.097	0.700	0.491
822.000	475.422	80.003	20.009	100.518	20.099	0.559	0.487
822.500	475.731	80.002	20.009	100.524	20.098	0.603	0.490
823.000	475.987	80.003	20.009	100.524	20.100	0.424	0.534
823.500	476.157	80.003	20.009	100.518	20.099	0.497	0.495
824.000	476.430	80.002	20.009	100.516	20.101	0.327	0.435
824.500	476.718	80.002	20.009	100.522	20.100	0.457	0.502
825.000	476.930	80.002	20.009	100.529	20.101	0.305	0.530
825.501	477.180	80.000	20.009	100.532	20.103	0.057	0.481
826.001	477.446	80.003	20.009	100.540	20.100	0.455	0.490
826.501	477.639	80.003	20.009	100.534	20.102	0.146	0.488
827.001	477.887	80.001	20.009	100.522	20.100	0.375	0.450
827.501	478.136	80.002	20.009	100.510	20.101	0.305	0.469
828.000	478.423	80.002	20.009	100.511	20.101	0.316	0.516
828.500	478.637	80.002	20.009	100.512	20.099	0.488	0.519
829.000	478.907	80.002	20.009	100.520	20.101	0.307	0.492
829.500	479.173	80.001	20.009	100.526	20.099	0.473	0.510
830.000	479.402	80.004	20.009	100.528	20.101	0.285	0.516
830.500	479.688	80.003	20.010	100.520	20.102	0.148	0.505
831.000	479.896	80.002	20.010	100.510	20.103	0.133	0.504
831.500	480.185	80.002	20.009	100.502	20.105	-0.075	0.496
832.000	480.395	80.003	20.009	100.498	20.100	0.418	0.498
832.500	480.655	80.003	20.009	100.501	20.101	0.318	0.484
833.000	480.905	80.002	20.009	100.509	20.103	0.077	0.490
833.500	481.095	80.003	20.009	100.517	20.101	0.292	0.475
834.000	481.352	80.002	20.009	100.519	20.101	0.265	0.443
834.500	481.604	80.003	20.008	100.517	20.103	0.139	0.478
835.000	481.867	80.002	20.009	100.510	20.101	0.303	0.512
835.500	482.134	80.004	20.010	100.502	20.104	-0.029	0.522
836.000	482.392	80.002	20.009	100.500	20.102	0.166	0.527
836.501	482.614	80.002	20.009	100.506	20.101	0.300	0.503
837.001	482.856	80.001	20.008	100.514	20.104	0.035	0.472
837.500	483.077	80.003	20.009	100.521	20.102	0.188	0.464
838.000	483.348	80.003	20.009	100.521	20.105	-0.091	0.477
838.500	483.620	80.001	20.009	100.516	20.101	0.351	0.517
839.000	483.874	80.003	20.009	100.507	20.102	0.155	0.535
839.500	484.174	80.003	20.009	100.500	20.104	-0.029	0.540
840.000	484.418	80.003	20.009	100.498	20.104	-0.042	0.549
840.500	484.674	80.003	20.009	100.506	20.104	0.002	0.522
841.000	484.912	80.000	20.009	100.514	20.102	0.146	0.497
841.500	485.151	80.003	20.008	100.522	20.103	0.099	0.486
842.000	485.425	80.003	20.009	100.524	20.102	0.230	0.494
842.500	485.691	80.003	20.009	100.518	20.102	0.208	0.526
843.000	485.920	80.003	20.009	100.510	20.100	0.360	0.518
843.500	486.125	80.001	20.009	100.507	20.102	0.243	0.465
844.000	486.401	80.003	20.009	100.509	20.100	0.440	0.458
844.500	486.640	80.002	20.008	100.523	20.102	0.243	0.498
845.000	486.920	80.002	20.009	100.536	20.105	-0.104	0.517
845.500	487.176	80.003	20.009	100.544	20.103	0.075	0.528
846.000	487.425	80.003	20.009	100.547	20.103	0.102	0.521
846.500	487.691	80.002	20.010	100.539	20.103	0.049	0.510
847.000	487.928	80.003	20.010	100.524	20.104	0.009	0.509
847.500	488.198	80.003	20.009	100.516	20.103	0.075	0.505
848.000	488.458	80.003	20.010	100.516	20.105	-0.064	0.519
848.500	488.666	80.001	20.009	100.516	20.105	-0.075	0.499
849.000	488.974	80.003	20.009	100.521	20.103	0.057	0.492
849.500	489.183	80.002	20.010	100.527	20.103	0.102	0.516
850.000	489.420	80.003	20.010	100.522	20.104	-0.018	0.481
850.500	489.670	80.003	20.009	100.514	20.106	-0.181	0.466
851.000	489.913	80.003	20.010	100.507	20.106	-0.232	0.490
851.500	490.170	80.003	20.009	100.504	20.107	-0.285	0.497
852.000	490.470	80.003	20.010	100.507	20.106	-0.261	0.529
852.500	490.680	80.002	20.009	100.522	20.104	-0.055	0.533
853.000	490.964	80.002	20.009	100.535	20.105	-0.104	0.502
853.500	491.200	80.002	20.009	100.541	20.102	0.161	0.507
854.000	491.454	80.003	20.010	100.536	20.103	0.108	0.505
854.500	491.662	80.003	20.010	100.527	20.105	-0.093	0.476
855.000	491.894	80.002	20.010	100.516	20.103	0.068	0.451
855.500	492.174	80.002	20.010	100.512	20.103	0.102	0.476
856.000	492.455	80.003	20.009	100.518	20.105	-0.113	0.536
856.500	492.672	80.002	20.009	100.527	20.105	-0.099	0.530
857.000	492.888	80.003	20.010	100.534	20.105	-0.150	0.465
857.500	493.174	80.001	20.009	100.539	20.104	0.022	0.467
858.000	493.407	80.003	20.010	100.537	20.103	0.106	0.510
858.500	493.590	80.002	20.010	100.528	20.105	-0.097	0.467
859.000	493.838	80.003	20.010	100.524	20.105	-0.150	0.423
859.500	494.080	80.002	20.010	100.526	20.104	-0.060	0.460
860.000	494.312	80.002	20.010	100.532	20.104	0.002	0.482
860.500	494.587	80.002	20.010	100.536	20.105	-0.097	0.491
861.000	494.870	80.003	20.010	100.543	20.105	-0.086	0.532
861.500	495.121	80.002	20.010	100.544	20.103	0.042	0.546
862.000	495.353	80.003	20.011	100.536	20.104	0.018	0.509
862.500	495.584	80.002	20.010	100.523	20.103	0.102	0.473
863.000	495.864	80.002	20.009	100.517	20.102	0.230	0.487
863.500	496.100	80.003	20.010	100.519	20.101	0.267	0.513
864.000	496.331	80.002	20.010	100.524	20.103	0.121	0.491
864.500	496.576	80.002	20.010	100.535	20.103	0.057	0.471
865.000	496.846	80.002	20.010	100.545	20.102	0.150	0.496
865.500	497.061	80.003	20.010	100.540	20.103	0.097	0.500
866.000	497.330	80.002	20.010	100.525	20.102	0.247	0.484
866.500	497.560	80.002	20.009	100.507	20.101	0.314	0.491
867.000	497.858	80.003	20.010	100.492	20.098	0.586	0.514
867.500	498.077	80.003	20.009	100.487	20.099	0.548	0.523
868.000	498.307	80.001	20.010	100.494	20.100	0.382	0.483
868.500	498.524	80.002	20.010	100.507	20.098	0.647	0.447
869.000	498.768	80.002	20.009	100.519	20.100	0.446	0.454
869.500	498.999	80.004	20.009	100.523	20.101	0.312	0.468
870.000	499.260	80.002	20.010	100.514	20.104	0.035	0.484
870.500	499.473	80.003	20.010	100.499	20.102	0.177	0.483
871.000	499.733	80.002	20.011	100.497	20.103	0.088	0.473
871.500	499.973	80.003	20.010	100.508	20.106	-0.267	0.487
872.000	500.247	80.004	20.010	100.524	20.106	-0.228	0.507
872.500	500.467	80.002	20.009	100.541	20.106	-0.172	0.504
873.000	500.708	80.003	20.010	100.553	20.106	-0.254	0.478
873.500	500.954	80.004	20.010	100.546	20.103	0.124	0.474
874.000	501.198	80.003	20.010	100.529	20.104	0.011	0.488
874.500	501.459	80.002	20.010	100.519	20.102	0.228	0.497
875.000	501.692	80.001	20.010	100.514	20.104	-0.022	0.499
875.500	501.934	80.002	20.009	100.519	20.101	0.265	0.484
876.000	502.189	80.002	20.010	100.526	20.103	0.115	0.486
876.500	502.411	80.002	20.009	100.526	20.105	-0.168	0.487
877.000	502.608	80.003	20.009	100.513	20.106	-0.197	0.449
877.500	502.848	80.002	20.009	100.495	20.104	0.018	0.428
878.000	503.110	80.003	20.010	100.488	20.104	0.040	0.469
878.500	503.350	80.003	20.009	100.493	20.103	0.073	0.502
879.000	503.551	80.002	20.009	100.509	20.102	0.188	0.472
879.500	503.844	80.004	20.009	100.527	20.106	-0.177	0.468
880.001	504.056	80.002	20.010	100.543	20.103	0.046	0.500
880.500	504.257	80.004	20.010	100.548	20.103	0.086	0.459
881.000	504.515	80.002	20.010	100.543	20.103	0.117	0.436
881.500	504.749	80.002	20.010	100.535	20.104	0.020	0.475
882.000	505.008	80.001	20.010	100.532	20.102	0.230	0.492
882.500	505.233	80.003	20.010	100.532	20.103	0.068	0.488
883.000	505.435	80.002	20.010	100.532	20.102	0.166	0.455
883.501	505.656	80.002	20.009	100.532	20.103	0.144	0.425
884.000	505.919	80.002	20.010	100.525	20.102	0.214	0.454
884.500	506.143	80.003	20.011	100.516	20.102	0.232	0.486
885.000	506.350	80.001	20.010	100.511	20.106	-0.192	0.459
885.500	506.607	80.002	20.010	100.511	20.106	-0.201	0.448
886.000	506.810	80.002	20.010	100.512	20.105	-0.161	0.462
886.500	507.068	80.003	20.010	100.518	20.104	0.022	0.460
887.000	507.313	80.002	20.009	100.527	20.105	-0.093	0.481
887.500	507.571	80.002	20.010	100.528	20.104	0.004	0.503
888.000	507.812	80.002	20.009	100.520	20.104	-0.053	0.501
888.500	508.033	80.004	20.010	100.518	20.105	-0.093	0.480
889.000	508.233	80.001	20.009	100.518	20.105	-0.121	0.441
889.500	508.490	80.003	20.009	100.522	20.103	0.068	0.439
890.000	508.718	80.002	20.010	100.530	20.105	-0.073	0.471
890.500	508.949	80.003	20.010	100.537	20.105	-0.077	0.472
891.000	509.205	80.002	20.010	100.531	20.104	-0.029	0.473
891.500	509.382	80.004	20.011	100.523	20.103	0.046	0.460
892.000	509.687	80.002	20.010	100.511	20.103	0.093	0.457
892.500	509.934	80.002	20.010	100.507	20.103	0.128	0.517
893.000	510.194	80.003	20.010	100.508	20.106	-0.190	0.530
893.500	510.360	80.002	20.010	100.516	20.102	0.241	0.466
894.000	510.622	80.002	20.010	100.525	20.103	0.088	0.427
894.500	510.874	80.002	20.010	100.532	20.102	0.194	0.471
895.000	511.084	80.003	20.010	100.532	20.103	0.060	0.488
895.500	511.329	80.002	20.010	100.525	20.102	0.210	0.459
896.000	511.558	80.004	20.010	100.518	20.100	0.440	0.465
896.500	511.791	80.002	20.010	100.517	20.103	0.139	0.468
897.000	512.014	80.002	20.010	100.517	20.099	0.464	0.459
897.500	512.255	80.002	20.010	100.518	20.100	0.429	0.460
898.000	512.487	80.003	20.010	100.522	20.100	0.384	0.468
898.500	512.717	80.003	20.011	100.522	20.100	0.376	0.468
899.000	512.964	80.002	20.010	100.515	20.102	0.243	0.470
899.500	513.173	80.003	20.010	100.507	20.101	0.281	0.466
900.000	513.426	80.003	20.010	100.508	20.100	0.384	0.459
900.500	513.703	80.003	20.009	100.511	20.102	0.161	0.496
901.001	513.917	80.002	20.009	100.518	20.101	0.318	0.511
901.500	514.132	80.002	20.010	100.521	20.102	0.203	0.460
902.000	514.382	80.004	20.010	100.519	20.103	0.046	0.447
902.500	514.604	80.002	20.010	100.512	20.102	0.168	0.469
903.001	514.874	80.001	20.010	100.511	20.103	0.141	0.482
903.500	515.134	80.003	20.009	100.512	20.101	0.276	0.511
904.000	515.320	80.002	20.009	100.518	20.103	0.084	0.488
904.500	515.591	80.003	20.010	100.525	20.104	-0.046	0.451
905.000	515.831	80.003	20.010	100.525	20.102	0.183	0.484
905.500	516.078	80.003	20.010	100.518	20.102	0.223	0.499
906.000	516.320	80.003	20.010	100.509	20.105	-0.144	0.488
906.500	516.556	80.003	20.010	100.504	20.103	0.097	0.484
907.000	516.776	80.003	20.010	100.505	20.102	0.163	0.467
907.500	517.041	80.002	20.010	100.520	20.103	0.124	0.471
908.000	517.309	80.003	20.009	100.536	20.103	0.139	0.509
908.500	517.540	80.003	20.010	100.549	20.102	0.152	0.516
909.000	517.792	80.002	20.010	100.552	20.103	0.104	0.491
909.500	518.015	80.003	20.009	100.546	20.103	0.071	0.479
910.000	518.245	80.002	20.009	100.530	20.104	0.007	0.464
910.500	518.480	80.002	20.010	100.520	20.103	0.088	0.459
911.000	518.701	80.002	20.009	100.515	20.103	0.126	0.461
911.500	518.989	80.002	20.009	100.516	20.101	0.263	0.483
912.000	519.225	80.003	20.008	100.521	20.103	0.115	0.517
912.500	519.470	80.001	20.009	100.524	20.101	0.274	0.503
913.000	519.673	80.002	20.009	100.517	20.102	0.192	0.464
913.500	519.961	80.003	20.009	100.510	20.103	0.121	0.470
914.000	520.192	80.003	20.009	100.504	20.100	0.378	0.505
914.500	520.435	80.002	20.009	100.505	20.102	0.175	0.496
915.000	520.691	80.003	20.008	100.511	20.103	0.115	0.487
915.500	520.953	80.002	20.009	100.521	20.101	0.252	0.509
916.000	521.176	80.003	20.009	100.529	20.103	0.115	0.502
916.500	521.444	80.003	20.010	100.532	20.102	0.232	0.488
917.000	521.705	80.003	20.009	100.524	20.105	-0.080	0.510
917.500	521.918	80.003	20.009	100.516	20.102	0.234	0.501
918.001	522.192	80.003	20.010	100.509	20.102	0.205	0.480
918.500	522.453	80.001	20.009	100.508	20.100	0.407	0.511
919.000	522.708	80.003	20.009	100.514	20.102	0.241	0.525
919.500	522.932	80.001	20.009	100.521	20.104	0.035	0.497
920.000	523.175	80.003	20.010	100.526	20.104	0.020	0.473
920.500	523.428	80.002	20.009	100.522	20.104	0.004	0.482
921.000	523.661	80.001	20.009	100.515	20.101	0.322	0.491
921.500	523.866	80.002	20.009	100.507	20.105	-0.139	0.461
922.000	524.131	80.004	20.009	100.507	20.103	0.088	0.454
922.500	524.357	80.003	20.009	100.509	20.102	0.208	0.481
923.000	524.612	80.001	20.009	100.519	20.101	0.272	0.486
923.500	524.842	80.002	20.009	100.528	20.102	0.155	0.483
924.000	525.081	80.003	20.009	100.533	20.104	-0.013	0.477
924.500	525.337	80.003	20.009	100.525	20.104	0.011	0.482
925.000	525.591	80.002	20.010	100.517	20.103	0.057	0.502
925.500	525.870	80.003	20.010	100.513	20.104	0.004	0.522
926.000	526.061	80.002	20.009	100.513	20.102	0.170	0.501
926.500	526.355	80.002	20.010	100.515	20.102	0.208	0.477
927.000	526.568	80.003	20.009	100.522	20.102	0.168	0.496
927.500	526.808	80.002	20.009	100.529	20.103	0.106	0.481
928.000	527.023	80.002	20.009	100.526	20.103	0.097	0.454
928.501	527.322	80.003	20.009	100.518	20.104	0.033	0.484
929.000	527.564	80.003	20.009	100.515	20.102	0.232	0.528
929.500	527.787	80.003	20.009	100.517	20.101	0.272	0.503
930.000	528.001	80.001	20.010	100.518	20.103	0.071	0.451
930.500	528.286	80.004	20.009	100.529	20.103	0.099	0.468
931.000	528.526	80.001	20.009	100.544	20.102	0.170	0.512
931.500	528.808	80.003	20.009	100.548	20.103	0.102	0.523
932.000	529.048	80.003	20.010	100.544	20.103	0.068	0.522
932.500	529.317	80.003	20.009	100.537	20.101	0.294	0.516
933.000	529.555	80.002	20.009	100.524	20.103	0.106	0.508
933.500	529.813	80.003	20.009	100.509	20.104	-0.051	0.501
934.001	530.054	80.002	20.009	100.507	20.102	0.228	0.497
934.501	530.296	80.002	20.009	100.511	20.102	0.221	0.491
935.000	530.572	80.002	20.009	100.518	20.102	0.181	0.501
935.500	530.824	80.003	20.009	100.525	20.103	0.068	0.523
936.001	531.047	80.002	20.009	100.525	20.104	-0.004	0.502
936.500	531.344	80.002	20.009	100.517	20.102	0.188	0.497
937.000	531.568	80.003	20.009	100.510	20.102	0.199	0.521
937.500	531.819	80.002	20.009	100.509	20.100	0.356	0.498
938.000	532.083	80.002	20.009	100.509	20.102	0.161	0.495
938.500	532.317	80.002	20.008	100.517	20.105	-0.086	0.506
939.000	532.606	80.003	20.009	100.520	20.103	0.108	0.511
939.500	532.818	80.002	20.009	100.518	20.104	0.038	0.512
940.000	533.078	80.002	20.009	100.510	20.105	-0.122	0.486
940.500	533.319	80.003	20.009	100.502	20.106	-0.261	0.486
941.000	533.586	80.002	20.009	100.499	20.104	0.022	0.504
941.500	533.874	80.003	20.009	100.504	20.105	-0.104	0.531
942.000	534.122	80.003	20.008	100.513	20.107	-0.276	0.546
942.500	534.376	80.002	20.008	100.523	20.103	0.068	0.519
943.001	534.619	80.003	20.010	100.525	20.103	0.102	0.499
943.501	534.871	80.002	20.009	100.520	20.105	-0.155	0.496
944.000	535.108	80.003	20.009	100.511	20.106	-0.247	0.492
944.500	535.390	80.003	20.009	100.502	20.105	-0.161	0.504
945.000	535.606	80.003	20.009	100.499	20.105	-0.126	0.509
945.500	535.845	80.004	20.008	100.508	20.106	-0.219	0.477
946.000	536.158	80.003	20.009	100.519	20.104	-0.033	0.503
946.500	536.404	80.003	20.009	100.524	20.099	0.477	0.555
947.000	536.630	80.004	20.009	100.527	20.103	0.139	0.515
947.500	536.878	80.002	20.009	100.520	20.102	0.197	0.473
948.000	537.160	80.003	20.009	100.512	20.104	-0.013	0.502
948.500	537.437	80.002	20.008	100.510	20.103	0.071	0.545
949.000	537.693	80.002	20.009	100.513	20.101	0.259	0.546
949.500	537.918	80.003	20.009	100.521	20.102	0.159	0.507
950.000	538.146	80.003	20.009	100.529	20.103	0.122	0.467
950.500	538.380	80.003	20.009	100.530	20.104	0.018	0.458
951.000	538.714	80.003	20.009	100.521	20.102	0.152	0.515
951.500	538.936	80.003	20.009	100.513	20.106	-0.194	0.562
952.000	539.231	80.003	20.009	100.512	20.102	0.192	0.537
952.500	539.464	80.004	20.009	100.517	20.105	-0.157	0.523
953.000	539.726	80.004	20.009	100.527	20.106	-0.245	0.511
953.500	539.965	80.003	20.009	100.536	20.105	-0.102	0.498
954.001	540.182	80.003	20.009	100.539	20.104	0.007	0.479
954.500	540.473	80.003	20.009	100.532	20.104	-0.038	0.482
955.000	540.713	80.003	20.009	100.519	20.103	0.110	0.519
955.500	541.006	80.004	20.009	100.508	20.104	0.002	0.531
956.000	541.295	80.004	20.009	100.508	20.104	-0.057	0.557
956.500	541.515	80.003	20.009	100.517	20.103	0.080	0.546
957.000	541.795	80.003	20.008	100.528	20.102	0.148	0.504
957.500	542.063	80.003	20.009	100.535	20.103	0.091	0.524
958.000	542.306	80.003	20.009	100.536	20.103	0.110	0.529
958.500	542.570	80.003	20.009	100.526	20.102	0.194	0.509
959.000	542.797	80.003	20.009	100.519	20.103	0.073	0.499
959.501	543.105	80.002	20.009	100.516	20.104	0.004	0.513
960.000	543.321	80.004	20.009	100.519	20.104	0.007	0.530
960.500	543.575	80.002	20.009	100.530	20.103	0.084	0.497
961.000	543.846	80.003	20.008	100.540	20.105	-0.130	0.497
961.500	544.063	80.004	20.009	100.542	20.103	0.053	0.507
962.000	544.330	80.003	20.009	100.540	20.102	0.148	0.486
962.500	544.582	80.003	20.009	100.537	20.103	0.086	0.501
963.000	544.796	80.003	20.009	100.532	20.105	-0.077	0.492
963.500	545.061	80.003	20.009	100.534	20.105	-0.106	0.472
964.000	545.336	80.002	20.009	100.535	20.106	-0.214	0.509
964.500	545.605	80.004	20.008	100.535	20.106	-0.239	0.542
965.000	545.823	80.003	20.009	100.527	20.104	0.020	0.515
965.500	546.090	80.003	20.009	100.517	20.104	-0.007	0.486
966.000	546.370	80.003	20.009	100.507	20.104	0.033	0.516
966.500	546.622	80.002	20.009	100.505	20.104	-0.011	0.539
967.000	546.836	80.004	20.009	100.508	20.107	-0.287	0.499
967.500	547.077	80.002	20.008	100.521	20.106	-0.190	0.460
968.000	547.404	80.003	20.009	100.530	20.105	-0.146	0.511
968.500	547.655	80.003	20.009	100.538	20.102	0.148	0.573
969.000	547.906	80.004	20.009	100.538	20.107	-0.276	0.540
969.500	548.165	80.003	20.009	100.535	20.106	-0.172	0.506
970.000	548.374	80.004	20.009	100.530	20.106	-0.272	0.489
970.500	548.631	80.002	20.009	100.533	20.106	-0.206	0.467
971.000	548.850	80.003	20.009	100.541	20.104	0.015	0.471
971.501	549.127	80.003	20.009	100.548	20.105	-0.075	0.486
972.000	549.372	80.003	20.009	100.550	20.105	-0.071	0.509
972.500	549.611	80.003	20.010	100.544	20.107	-0.329	0.503
973.000	549.858	80.004	20.010	100.532	20.104	-0.062	0.485
973.500	550.097	80.003	20.009	100.521	20.105	-0.108	0.486
974.000	550.343	80.003	20.009	100.516	20.106	-0.243	0.486
974.500	550.607	80.003	20.009	100.522	20.106	-0.261	0.497
975.000	550.853	80.003	20.009	100.533	20.103	0.108	0.510
975.500	551.127	80.003	20.008	100.540	20.105	-0.086	0.515
976.001	551.363	80.004	20.010	100.537	20.105	-0.095	0.515
976.500	551.604	80.003	20.010	100.529	20.103	0.064	0.494
977.000	551.843	80.002	20.009	100.520	20.106	-0.210	0.479
977.500	552.085	80.003	20.009	100.517	20.103	0.133	0.480
978.000	552.316	80.003	20.009	100.521	20.105	-0.108	0.477
978.500	552.573	80.003	20.009	100.527	20.104	-0.004	0.481
979.000	552.847	80.002	20.010	100.535	20.101	0.254	0.510
979.500	553.066	80.003	20.010	100.538	20.104	0.022	0.512
980.000	553.308	80.003	20.009	100.529	20.102	0.216	0.477
980.500	553.585	80.001	20.009	100.520	20.104	-0.007	0.490
981.000	553.840	80.003	20.009	100.521	20.102	0.188	0.525
981.500	554.087	80.002	20.009	100.528	20.101	0.287	0.517
982.000	554.328	80.002	20.009	100.531	20.105	-0.141	0.495
982.500	554.546	80.004	20.008	100.543	20.103	0.068	0.474
983.000	554.827	80.001	20.008	100.550	20.105	-0.128	0.479
983.500	555.083	80.003	20.009	100.547	20.105	-0.080	0.518
984.000	555.360	80.003	20.009	100.536	20.103	0.055	0.535
984.500	555.591	80.002	20.008	100.531	20.105	-0.097	0.521
985.000	555.826	80.002	20.009	100.526	20.107	-0.376	0.487
985.500	556.103	80.002	20.009	100.525	20.107	-0.281	0.489
986.000	556.370	80.003	20.009	100.530	20.106	-0.208	0.528
986.500	556.608	80.003	20.008	100.535	20.105	-0.104	0.524
987.000	556.849	80.002	20.009	100.538	20.105	-0.166	0.492
987.500	557.098	80.002	20.009	100.532	20.105	-0.069	0.485
988.000	557.318	80.001	20.009	100.531	20.105	-0.124	0.479
988.500	557.614	80.003	20.009	100.528	20.101	0.287	0.492
989.000	557.861	80.003	20.009	100.527	20.100	0.382	0.529
989.500	558.150	80.001	20.009	100.528	20.104	-0.007	0.540
990.000	558.387	80.003	20.009	100.535	20.101	0.281	0.531
990.500	558.627	80.002	20.009	100.529	20.102	0.232	0.502
991.000	558.850	80.002	20.010	100.521	20.102	0.194	0.470
991.500	559.082	80.002	20.009	100.515	20.102	0.203	0.459
992.000	559.350	80.003	20.009	100.513	20.103	0.091	0.477
992.500	559.594	80.002	20.008	100.514	20.101	0.307	0.507
993.000	559.870	80.002	20.008	100.521	20.100	0.376	0.516
993.500	560.076	80.003	20.008	100.527	20.102	0.203	0.501
994.000	560.351	80.003	20.009	100.524	20.102	0.236	0.481
994.500	560.571	80.003	20.009	100.516	20.098	0.663	0.487
995.000	560.856	80.003	20.009	100.508	20.101	0.353	0.500
995.500	561.121	80.003	20.009	100.509	20.102	0.223	0.528
996.000	561.355	80.003	20.009	100.518	20.099	0.515	0.525
996.500	561.594	80.002	20.009	100.535	20.100	0.440	0.486
997.000	561.843	80.002	20.009	100.551	20.102	0.194	0.480
997.500	562.087	80.004	20.009	100.559	20.103	0.053	0.490
998.000	562.354	80.003	20.009	100.557	20.104	0.004	0.502
998.500	562.612	80.002	20.009	100.551	20.102	0.219	0.518
999.000	562.876	80.002	20.009	100.545	20.102	0.245	0.523
999.500	563.172	80.004	20.009	100.544	20.102	0.170	0.541
1000.000	563.356	80.001	20.009	100.546	20.104	-0.004	0.520
1000.500	563.659	80.002	20.009	100.546	20.104	-0.020	0.484
1001.000	563.923	80.004	20.009	100.539	20.104	-0.057	0.527
1001.500	564.169	80.003	20.010	100.526	20.104	0.007	0.539
1002.000	564.395	80.003	20.009	100.514	20.101	0.314	0.491
1002.500	564.653	80.003	20.009	100.511	20.105	-0.080	0.478
1003.000	564.907	80.004	20.009	100.515	20.105	-0.166	0.498
1003.500	565.132	80.003	20.009	100.530	20.105	-0.082	0.496
1004.000	565.356	80.002	20.008	100.544	20.104	0.020	0.464
1004.500	565.619	80.003	20.009	100.548	20.108	-0.400	0.468
1005.000	565.846	80.004	20.009	100.541	20.105	-0.166	0.488
1005.500	566.121	80.004	20.009	100.533	20.105	-0.157	0.496
1006.000	566.393	80.003	20.010	100.524	20.107	-0.331	0.524
1006.500	566.603	80.002	20.009	100.519	20.104	0.029	0.515
1007.000	566.849	80.002	20.009	100.521	20.102	0.148	0.469
1007.500	567.115	80.003	20.009	100.527	20.101	0.285	0.484
1008.000	567.367	80.003	20.009	100.528	20.103	0.097	0.515
1008.500	567.563	80.003	20.009	100.524	20.101	0.320	0.483
1009.000	567.840	80.003	20.009	100.515	20.102	0.170	0.460
1009.500	568.074	80.002	20.009	100.515	20.104	0.018	0.492
1010.000	568.311	80.002	20.009	100.516	20.105	-0.093	0.491
1010.500	568.570	80.002	20.009	100.523	20.106	-0.247	0.484
1011.000	568.836	80.004	20.009	100.528	20.103	0.066	0.510
1011.500	569.077	80.002	20.008	100.535	20.105	-0.161	0.516
1012.000	569.328	80.003	20.009	100.528	20.105	-0.086	0.499
1012.500	569.560	80.002	20.010	100.522	20.101	0.281	0.487
1013.000	569.823	80.003	20.009	100.521	20.101	0.336	0.489
1013.500	570.066	80.002	20.009	100.520	20.102	0.172	0.500
1014.000	570.373	80.002	20.008	100.523	20.103	0.133	0.528
1014.500	570.618	80.003	20.009	100.530	20.103	0.082	0.551
1015.000	570.877	80.004	20.009	100.531	20.103	0.110	0.528
1015.500	571.088	80.003	20.009	100.523	20.103	0.064	0.487
1016.000	571.391	80.003	20.009	100.516	20.103	0.073	0.492
1016.500	571.620	80.003	20.009	100.513	20.101	0.331	0.523
1017.000	571.862	80.002	20.009	100.513	20.101	0.351	0.501
1017.500	572.143	80.003	20.008	100.517	20.102	0.175	0.497
1018.000	572.380	80.002	20.009	100.526	20.103	0.137	0.521
1018.501	572.644	80.004	20.008	100.533	20.099	0.482	0.509
1019.000	572.907	80.003	20.010	100.525	20.101	0.327	0.514
1019.500	573.091	80.003	20.009	100.518	20.100	0.411	0.487
1020.000	573.374	80.002	20.009	100.516	20.101	0.349	0.457
1020.501	573.627	80.003	20.009	100.515	20.101	0.323	0.502
1021.001	573.915	80.003	20.008	100.520	20.100	0.418	0.539
1021.500	574.130	80.004	20.009	100.531	20.098	0.601	0.522
1022.000	574.364	80.003	20.009	100.538	20.097	0.689	0.476
1022.501	574.615	80.003	20.009	100.538	20.097	0.669	0.467
1023.001	574.885	80.003	20.010	100.531	20.099	0.526	0.503
1023.500	575.088	80.002	20.009	100.527	20.097	0.700	0.496
1024.001	575.352	80.003	20.009	100.524	20.096	0.795	0.470
1024.501	575.581	80.003	20.009	100.531	20.097	0.669	0.480
1025.000	575.841	80.002	20.009	100.539	20.096	0.780	0.491
1025.501	576.129	80.002	20.009	100.546	20.096	0.831	0.518
1026.001	576.368	80.003	20.009	100.545	20.097	0.762	0.538
1026.500	576.586	80.003	20.009	100.535	20.099	0.495	0.492
1027.000	576.898	80.003	20.009	100.523	20.100	0.404	0.494
1027.500	577.167	80.003	20.009	100.515	20.098	0.605	0.556
1028.001	577.372	80.003	20.009	100.518	20.099	0.495	0.527
1028.501	577.666	80.002	20.008	100.528	20.098	0.583	0.486
1029.000	577.844	80.002	20.009	100.540	20.098	0.599	0.486
1029.500	578.112	80.003	20.009	100.546	20.099	0.530	0.459
1030.000	578.333	80.003	20.009	100.546	20.098	0.592	0.468
1030.500	578.624	80.003	20.008	100.543	20.100	0.393	0.500
1031.001	578.842	80.004	20.009	100.535	20.101	0.347	0.511
1031.501	579.139	80.003	20.009	100.533	20.101	0.334	0.512
1032.000	579.384	80.003	20.009	100.542	20.100	0.409	0.529
1032.500	579.638	80.004	20.009	100.546	20.101	0.256	0.521
1033.000	579.862	80.002	20.009	100.546	20.098	0.614	0.488
1033.500	580.140	80.003	20.009	100.543	20.100	0.415	0.489
1034.000	580.393	80.004	20.009	100.537	20.098	0.574	0.517
1034.500	580.595	80.002	20.009	100.528	20.098	0.621	0.493
1035.001	580.857	80.003	20.009	100.529	20.096	0.855	0.460
1035.501	581.116	80.004	20.008	100.537	20.100	0.398	0.493
1036.000	581.373	80.002	20.009	100.543	20.097	0.727	0.518
1036.500	581.619	80.002	20.009	100.545	20.098	0.566	0.509
1037.000	581.842	80.003	20.009	100.540	20.098	0.627	0.486
1037.500	582.077	80.003	20.009	100.534	20.097	0.749	0.464
1038.001	582.311	80.002	20.009	100.526	20.099	0.504	0.464
1038.501	582.552	80.001	20.008	100.526	20.100	0.380	0.472
1039.000	582.840	80.003	20.008	100.530	20.097	0.683	0.502
1039.500	583.072	80.002	20.008	100.535	20.096	0.828	0.524
1040.000	583.302	80.002	20.009	100.532	20.096	0.868	0.491
1040.501	583.594	80.003	20.009	100.525	20.098	0.656	0.492
1041.001	583.805	80.000	20.009	100.514	20.097	0.718	0.512
1041.500	584.086	80.004	20.008	100.512	20.098	0.590	0.498
1042.000	584.332	80.002	20.009	100.513	20.098	0.590	0.510
1042.500	584.617	80.002	20.008	100.519	20.098	0.570	0.529
1043.000	584.861	80.003	20.009	100.527	20.099	0.471	0.530
1043.500	585.107	80.003	20.009	100.534	20.099	0.486	0.509
1044.000	585.336	80.001	20.008	100.533	20.099	0.510	0.482
1044.500	585.581	80.003	20.009	100.529	20.098	0.628	0.475
1045.001	585.787	80.002	20.009	100.528	20.100	0.360	0.462
1045.501	586.066	80.002	20.008	100.529	20.100	0.453	0.468
1046.000	586.310	80.003	20.008	100.530	20.099	0.533	0.504
1046.500	586.588	80.002	20.008	100.534	20.099	0.546	0.522
1047.000	586.832	80.001	20.009	100.533	20.097	0.738	0.522
1047.500	587.123	80.003	20.009	100.526	20.097	0.707	0.528
1048.000	587.297	80.002	20.009	100.520	20.098	0.665	0.500
1048.500	587.555	80.003	20.009	100.519	20.100	0.451	0.449
1049.000	587.830	80.003	20.008	100.521	20.099	0.508	0.483
1049.500	588.071	80.002	20.008	100.525	20.097	0.696	0.525
1050.001	588.321	80.004	20.009	100.533	20.098	0.619	0.503
1050.501	588.535	80.002	20.009	100.530	20.096	0.846	0.477
1051.000	588.760	80.002	20.009	100.522	20.096	0.833	0.451
1051.500	589.032	80.002	20.008	100.519	20.099	0.501	0.468
1052.001	589.274	80.001	20.009	100.519	20.099	0.543	0.506
1052.501	589.458	80.003	20.008	100.523	20.100	0.451	0.471
1053.001	589.711	80.002	20.008	100.534	20.099	0.506	0.432
1053.501	589.946	80.002	20.008	100.540	20.100	0.371	0.463
1054.000	590.219	80.002	20.009	100.535	20.099	0.519	0.498
1054.500	590.476	80.003	20.009	100.525	20.097	0.694	0.519
1055.000	590.741	80.003	20.009	100.519	20.098	0.639	0.526
1055.500	590.977	80.002	20.008	100.520	20.098	0.632	0.511
1056.000	591.161	80.001	20.009	100.529	20.098	0.634	0.460
1056.501	591.449	80.003	20.008	100.543	20.099	0.502	0.446
1057.001	591.678	80.003	20.008	100.553	20.099	0.486	0.495
1057.500	591.915	80.002	20.009	100.555	20.097	0.700	0.492
1058.000	592.161	80.002	20.009	100.550	20.098	0.630	0.475
1058.500	592.396	80.002	20.008	100.544	20.099	0.462	0.482
1059.001	592.662	80.003	20.009	100.545	20.100	0.393	0.491
1059.501	592.896	80.003	20.008	100.551	20.102	0.203	0.501
1060.001	593.135	80.002	20.009	100.555	20.099	0.537	0.487
1060.501	593.400	80.003	20.009	100.551	20.101	0.342	0.489
1061.000	593.653	80.002	20.009	100.549	20.100	0.455	0.511
1061.500	593.883	80.003	20.009	100.540	20.099	0.541	0.500
1062.001	594.138	80.002	20.008	100.533	20.098	0.632	0.484
1062.501	594.386	80.004	20.009	100.529	20.100	0.420	0.494
1063.000	594.601	80.001	20.008	100.531	20.099	0.510	0.483
1063.500	594.850	80.003	20.008	100.530	20.098	0.658	0.464
1064.000	595.092	80.002	20.009	100.522	20.099	0.495	0.478
1064.500	595.376	80.003	20.009	100.513	20.100	0.426	0.508
1065.000	595.597	80.001	20.009	100.506	20.098	0.636	0.515
1065.500	595.873	80.002	20.009	100.506	20.099	0.493	0.501
1066.000	596.113	80.003	20.008	100.513	20.100	0.433	0.507
1066.501	596.331	80.002	20.008	100.528	20.101	0.309	0.487
1067.001	596.601	80.002	20.008	100.536	20.097	0.711	0.473
1067.500	596.838	80.002	20.009	100.542	20.098	0.665	0.497
1068.000	597.110	80.001	20.009	100.542	20.097	0.718	0.508
1068.501	597.343	80.003	20.009	100.536	20.098	0.654	0.508
1069.001	597.601	80.002	20.009	100.535	20.098	0.619	0.498
1069.500	597.877	80.001	20.009	100.544	20.098	0.661	0.512
1070.000	598.111	80.002	20.009	100.548	20.097	0.700	0.522
1070.500	598.324	80.004	20.009	100.547	20.095	0.955	0.479
1071.000	598.606	80.003	20.008	100.546	20.095	0.891	0.471
1071.500	598.848	80.003	20.010	100.533	20.096	0.851	0.510
1072.001	599.111	80.003	20.010	100.518	20.097	0.747	0.515
1072.501	599.375	80.002	20.009	100.515	20.099	0.482	0.516
1073.000	599.619	80.002	20.009	100.518	20.100	0.356	0.517
1073.500	599.848	80.003	20.010	100.522	20.099	0.530	0.490
1074.001	600.131	80.003	20.010	100.530	20.099	0.526	0.492
1074.501	600.353	80.003	20.009	100.536	20.101	0.329	0.509
1075.001	600.616	80.002	20.010	100.536	20.101	0.261	0.495
1075.501	600.885	80.004	20.009	100.534	20.101	0.343	0.508
1076.001	601.126	80.002	20.010	100.534	20.101	0.347	0.521
1076.501	601.367	80.003	20.010	100.542	20.100	0.415	0.496
1077.001	601.626	80.004	20.009	100.548	20.099	0.477	0.491
1077.500	601.838	80.002	20.009	100.550	20.102	0.217	0.486
1078.000	602.078	80.004	20.010	100.548	20.102	0.241	0.462
1078.500	602.331	80.003	20.011	100.542	20.101	0.259	0.473
1079.000	602.574	80.003	20.009	100.535	20.099	0.504	0.494
1079.500	602.811	80.003	20.009	100.533	20.102	0.205	0.487
1080.001	603.069	80.003	20.009	100.539	20.100	0.444	0.488
1080.501	603.292	80.001	20.009	100.543	20.103	0.102	0.488
1081.001	603.598	80.003	20.010	100.546	20.102	0.214	0.505
1081.501	603.813	80.003	20.010	100.546	20.102	0.168	0.525
1082.000	604.062	80.003	20.010	100.543	20.101	0.351	0.492
1082.500	604.292	80.003	20.009	100.535	20.099	0.521	0.472
1083.000	604.551	80.002	20.009	100.537	20.101	0.331	0.484
1083.501	604.802	80.003	20.009	100.543	20.103	0.124	0.500
1084.001	605.038	80.002	20.009	100.549	20.101	0.307	0.499
1084.501	605.285	80.003	20.009	100.549	20.100	0.424	0.485
1085.001	605.553	80.003	20.009	100.549	20.098	0.592	0.499
1085.500	605.816	80.004	20.009	100.543	20.099	0.486	0.523
1086.000	606.042	80.002	20.010	100.538	20.100	0.378	0.510
1086.500	606.279	80.003	20.009	100.539	20.099	0.486	0.476
1087.000	606.503	80.002	20.009	100.545	20.100	0.437	0.462
1087.501	606.773	80.003	20.010	100.552	20.099	0.557	0.478
1088.001	607.042	80.003	20.009	100.558	20.098	0.574	0.517
1088.500	607.268	80.002	20.009	100.557	20.098	0.661	0.517
1089.000	607.539	80.002	20.009	100.549	20.098	0.583	0.496
1089.500	607.783	80.003	20.010	100.543	20.101	0.316	0.506
1090.000	608.059	80.002	20.009	100.542	20.097	0.694	0.517
1090.501	608.303	80.003	20.009	100.547	20.098	0.621	0.520
1091.001	608.593	80.003	20.009	100.550	20.099	0.488	0.527
1091.501	608.806	80.002	20.009	100.551	20.100	0.457	0.518
1092.001	609.043	80.003	20.010	100.550	20.098	0.625	0.477
1092.500	609.270	80.002	20.010	100.541	20.096	0.851	0.457
1093.001	609.506	80.002	20.010	100.531	20.097	0.718	0.463
1093.501	609.768	80.003	20.009	100.527	20.099	0.493	0.480
1094.000	610.046	80.001	20.010	100.528	20.097	0.720	0.519
1094.500	610.253	80.002	20.009	100.530	20.096	0.837	0.513
1095.000	610.525	80.002	20.009	100.538	20.096	0.831	0.482
1095.500	610.756	80.003	20.010	100.540	20.095	0.879	0.491
1096.000	611.009	80.001	20.010	100.540	20.099	0.517	0.493
1096.500	611.257	80.002	20.010	100.539	20.099	0.462	0.493
1097.000	611.491	80.003	20.010	100.544	20.100	0.440	0.492
1097.501	611.774	80.002	20.010	100.547	20.101	0.349	0.500
1098.001	611.977	80.002	20.010	100.555	20.098	0.566	0.501
1098.501	612.242	80.003	20.010	100.556	20.099	0.519	0.476
1099.001	612.464	80.003	20.010	100.555	20.099	0.493	0.477
1099.500	612.714	80.003	20.010	100.549	20.100	0.378	0.480
1100.000	612.967	80.002	20.010	100.541	20.096	0.811	0.488
1100.501	613.202	80.003	20.010	100.535	20.094	1.008	0.495
1101.001	613.460	80.002	20.010	100.542	20.093	1.107	0.490
1101.500	613.703	80.002	20.010	100.550	20.096	0.851	0.497
1102.000	613.901	80.002	20.009	100.553	20.097	0.683	0.472
1102.500	614.161	80.002	20.010	100.553	20.096	0.818	0.450
1103.000	614.387	80.002	20.010	100.550	20.096	0.824	0.472
1103.500	614.660	80.002	20.010	100.542	20.095	0.941	0.493
1104.001	614.901	80.004	20.010	100.534	20.092	1.198	0.507
1104.501	615.163	80.002	20.010	100.533	20.093	1.087	0.509
1105.001	615.418	80.002	20.009	100.539	20.092	1.273	0.510
1105.500	615.657	80.003	20.009	100.542	20.096	0.864	0.505
1106.001	615.904	80.003	20.009	100.541	20.094	1.065	0.490
1106.501	616.122	80.003	20.009	100.539	20.095	0.926	0.475
1107.000	616.422	80.003	20.009	100.535	20.096	0.849	0.492
1107.501	616.660	80.003	20.009	100.529	20.094	1.083	0.528
1108.001	616.900	80.003	20.009	100.530	20.095	0.937	0.507
1108.501	617.149	80.002	20.009	100.539	20.096	0.868	0.484
1109.001	617.374	80.002	20.009	100.550	20.097	0.736	0.482
1109.500	617.653	80.003	20.009	100.558	20.095	0.886	0.489
1110.001	617.866	80.002	20.009	100.558	20.095	0.979	0.498
1110.501	618.069	80.003	20.009	100.555	20.096	0.809	0.454
1111.000	618.366	80.004	20.009	100.548	20.097	0.747	0.458
1111.501	618.605	80.002	20.009	100.545	20.097	0.698	0.518
1112.001	618.864	80.003	20.009	100.544	20.099	0.530	0.517
1112.500	619.157	80.003	20.009	100.550	20.098	0.665	0.525
1113.000	619.422	80.002	20.009	100.552	20.101	0.283	0.555
1113.501	619.640	80.003	20.009	100.550	20.098	0.585	0.520
1114.001	619.906	80.004	20.009	100.537	20.099	0.493	0.483
1114.500	620.133	80.004	20.009	100.532	20.100	0.451	0.489
1115.000	620.362	80.003	20.009	100.533	20.098	0.612	0.475
1115.501	620.623	80.004	20.009	100.538	20.098	0.599	0.473
1116.001	620.842	80.002	20.008	100.544	20.100	0.367	0.485
1116.500	621.071	80.003	20.009	100.553	20.100	0.376	0.464
1117.001	621.308	80.003	20.009	100.552	20.099	0.502	0.457
1117.501	621.552	80.003	20.009	100.543	20.100	0.457	0.473
1118.001	621.791	80.003	20.009	100.536	20.100	0.457	0.482
1118.500	622.045	80.003	20.009	100.535	20.100	0.371	0.488
1119.000	622.314	80.003	20.009	100.540	20.101	0.318	0.508
1119.501	622.532	80.003	20.009	100.548	20.099	0.537	0.505
1120.001	622.766	80.001	20.009	100.555	20.099	0.482	0.470
1120.500	623.009	80.004	20.009	100.555	20.102	0.175	0.465
1121.000	623.272	80.004	20.009	100.551	20.101	0.347	0.492
1121.500	623.549	80.002	20.009	100.539	20.099	0.466	0.523
1122.000	623.737	80.003	20.009	100.529	20.099	0.513	0.502
1122.500	624.054	80.003	20.008	100.527	20.101	0.301	0.485
1123.000	624.324	80.003	20.009	100.529	20.099	0.477	0.546
1123.501	624.535	80.003	20.009	100.530	20.098	0.570	0.534
1124.001	624.786	80.002	20.009	100.533	20.098	0.583	0.471
1124.501	625.072	80.003	20.009	100.527	20.104	-0.007	0.499
1125.000	625.334	80.003	20.009	100.517	20.100	0.380	0.542
1125.500	625.597	80.002	20.009	100.513	20.100	0.398	0.536
1126.000	625.845	80.003	20.009	100.513	20.100	0.422	0.518
1126.500	626.102	80.002	20.009	100.516	20.103	0.113	0.508
1127.000	626.337	80.002	20.009	100.528	20.098	0.568	0.499
1127.500	626.631	80.003	20.009	100.536	20.101	0.265	0.510
1128.001	626.878	80.002	20.010	100.538	20.099	0.466	0.535
1128.501	627.121	80.002	20.009	100.538	20.100	0.407	0.516
1129.000	627.416	80.003	20.009	100.535	20.097	0.705	0.514
1129.500	627.657	80.003	20.010	100.528	20.100	0.373	0.537
1130.000	627.894	80.003	20.009	100.530	20.098	0.590	0.507
1130.500	628.163	80.002	20.009	100.538	20.097	0.736	0.492
1131.000	628.428	80.003	20.009	100.546	20.099	0.515	0.520
1131.500	628.650	80.002	20.009	100.551	20.099	0.495	0.511
1132.000	628.919	80.003	20.009	100.554	20.098	0.628	0.489
1132.500	629.188	80.002	20.009	100.548	20.099	0.539	0.514
1133.000	629.434	80.003	20.009	100.534	20.098	0.647	0.527
1133.500	629.677	80.003	20.009	100.525	20.100	0.440	0.502
1134.000	629.914	80.002	20.009	100.528	20.099	0.541	0.484
1134.500	630.162	80.003	20.008	100.537	20.100	0.411	0.482
1135.000	630.425	80.001	20.009	100.545	20.099	0.469	0.498
1135.500	630.663	80.003	20.009	100.551	20.097	0.694	0.506
1136.000	630.903	80.003	20.010	100.552	20.100	0.416	0.489
1136.500	631.205	80.003	20.009	100.544	20.096	0.789	0.510
1137.000	631.398	80.002	20.010	100.536	20.094	1.081	0.519
1137.501	631.677	80.003	20.009	100.538	20.096	0.791	0.483
1138.001	631.915	80.002	20.010	100.545	20.096	0.802	0.494
1138.500	632.157	80.002	20.010	100.547	20.094	0.992	0.499
1139.000	632.393	80.002	20.009	100.549	20.097	0.689	0.479
1139.500	632.666	80.003	20.010	100.549	20.098	0.667	0.493
1140.000	632.884	80.002	20.010	100.542	20.099	0.460	0.500
1140.500	633.113	80.002	20.010	100.534	20.099	0.473	0.469
1141.000	633.384	80.002	20.009	100.536	20.098	0.632	0.474
1141.500	633.675	80.002	20.009	100.543	20.097	0.714	0.531
1142.001	633.953	80.002	20.009	100.550	20.099	0.504	0.566
1142.501	634.222	80.001	20.009	100.554	20.096	0.813	0.559
1143.000	634.459	80.003	20.009	100.554	20.098	0.632	0.527
1143.500	634.692	80.002	20.010	100.549	20.097	0.696	0.488
1144.001	634.936	80.002	20.009	100.542	20.100	0.433	0.473
1144.501	635.226	80.002	20.009	100.538	20.096	0.789	0.505
1145.001	635.414	80.001	20.008	100.542	20.095	0.928	0.506
1145.501	635.680	80.002	20.009	100.550	20.095	0.948	0.466
1146.000	635.930	80.003	20.009	100.554	20.096	0.780	0.485
1146.500	636.179	80.003	20.009	100.561	20.096	0.804	0.508
1147.000	636.434	80.002	20.010	100.565	20.097	0.756	0.502
1147.500	636.713	80.003	20.009	100.563	20.095	0.913	0.519
1148.000	636.929	80.003	20.010	100.563	20.095	0.963	0.514
1148.500	637.217	80.002	20.009	100.566	20.095	0.968	0.500
1149.000	637.500	80.001	20.010	100.567	20.093	1.102	0.538
1149.500	637.752	80.002	20.009	100.568	20.092	1.270	0.553
1150.000	638.005	80.002	20.009	100.564	20.094	0.988	0.520
1150.500	638.252	80.001	20.010	100.556	20.094	1.074	0.503
1151.000	638.523	80.003	20.009	100.548	20.093	1.134	0.509
1151.500	638.788	80.002	20.009	100.539	20.093	1.184	0.527
1152.000	639.073	80.003	20.009	100.532	20.092	1.295	0.543
1152.501	639.290	80.002	20.010	100.531	20.092	1.233	0.526
1153.001	639.534	80.002	20.008	100.532	20.093	1.138	0.481
1153.500	639.794	80.002	20.010	100.533	20.092	1.279	0.482
1154.001	640.042	80.002	20.009	100.533	20.093	1.140	0.506
1154.501	640.309	80.002	20.009	100.533	20.091	1.357	0.512
1155.000	640.559	80.002	20.010	100.532	20.095	0.901	0.516
1155.501	640.776	80.004	20.009	100.532	20.095	0.968	0.492
1156.001	641.133	80.002	20.009	100.536	20.094	1.060	0.520
1156.501	641.408	80.002	20.009	100.538	20.095	0.981	0.603
1157.001	641.616	80.001	20.009	100.539	20.091	1.345	0.557
1157.500	641.912	80.004	20.009	100.540	20.094	1.043	0.494
1158.000	642.143	80.002	20.009	100.537	20.092	1.295	0.516
1158.500	642.380	80.003	20.010	100.533	20.093	1.145	0.497
1159.000	642.632	80.002	20.010	100.536	20.092	1.193	0.478
1159.501	642.941	80.003	20.009	100.544	20.092	1.200	0.525
1160.001	643.149	80.002	20.009	100.548	20.090	1.445	0.539
1160.501	643.390	80.003	20.010	100.550	20.092	1.242	0.483
1161.001	643.660	80.002	20.009	100.546	20.092	1.259	0.480
1161.501	643.893	80.003	20.010	100.534	20.091	1.308	0.507
1162.000	644.159	80.003	20.009	100.525	20.092	1.231	0.501
1162.500	644.442	80.001	20.009	100.524	20.093	1.182	0.524
1163.000	644.647	80.001	20.009	100.531	20.093	1.131	0.519
1163.500	644.923	80.003	20.009	100.542	20.092	1.228	0.484
1164.000	645.156	80.002	20.009	100.548	20.094	1.030	0.495
1164.500	645.354	80.003	20.010	100.550	20.093	1.094	0.470
1165.000	645.626	80.002	20.010	100.547	20.095	0.972	0.450
1165.500	645.891	80.002	20.010	100.539	20.093	1.147	0.504
1166.001	646.127	80.003	20.010	100.534	20.092	1.220	0.519
1166.501	646.390	80.003	20.010	100.533	20.093	1.162	0.500
1167.000	646.623	80.001	20.009	100.533	20.094	1.078	0.497
1167.501	646.882	80.002	20.010	100.534	20.093	1.149	0.495
1168.001	647.162	80.002	20.009	100.532	20.092	1.253	0.516
1168.501	647.370	80.002	20.009	100.524	20.094	1.023	0.513
1169.001	647.676	80.001	20.010	100.517	20.095	0.882	0.501
1169.501	647.869	80.002	20.009	100.516	20.095	0.924	0.507
1170.001	648.241	80.001	20.009	100.520	20.096	0.831	0.532
1170.500	648.386	80.002	20.009	100.529	20.096	0.780	0.540
1171.000	648.710	80.003	20.010	100.537	20.095	0.917	0.493
1171.501	648.878	80.002	20.009	100.544	20.095	0.932	0.481
1172.001	649.247	80.002	20.009	100.540	20.094	1.001	0.514
1172.500	649.357	80.003	20.010	100.530	20.093	1.154	0.508
1173.000	649.666	80.002	20.008	100.525	20.094	1.010	0.449
1173.501	649.876	80.001	20.009	100.531	20.094	1.028	0.469
1174.001	650.168	80.002	20.008	100.540	20.096	0.868	0.511
1174.501	650.421	80.003	20.009	100.546	20.094	1.050	0.524
1175.001	650.686	80.002	20.009	100.552	20.097	0.749	0.532
1175.501	650.865	80.002	20.009	100.551	20.097	0.747	0.481
1176.000	651.134	80.002	20.009	100.543	20.095	0.977	0.446
1176.500	651.390	80.001	20.009	100.536	20.095	0.974	0.486
1177.000	651.650	80.003	20.010	100.540	20.096	0.795	0.521
1177.501	651.872	80.002	20.009	100.548	20.094	1.032	0.499
1178.001	652.118	80.002	20.009	100.555	20.094	1.038	0.474
1178.500	652.412	80.002	20.010	100.561	20.094	0.996	0.504
1179.000	652.651	80.001	20.009	100.561	20.097	0.676	0.537
1179.500	652.903	80.003	20.009	100.553	20.096	0.839	0.512
1180.000	653.221	80.002	20.009	100.546	20.096	0.826	0.530
1180.500	653.422	80.001	20.009	100.538	20.094	0.988	0.544
1181.000	653.730	80.002	20.010	100.540	20.096	0.818	0.514
1181.500	653.968	80.004	20.010	100.548	20.097	0.751	0.527
1182.000	654.177	80.000	20.010	100.559	20.095	0.895	0.496
1182.500	654.429	80.006	20.010	100.566	20.094	0.994	0.454
1183.001	654.688	80.002	20.011	100.565	20.093	1.122	0.486
1183.501	654.952	80.003	20.011	100.557	20.095	0.897	0.517
1184.001	655.198	80.003	20.011	100.549	20.093	1.091	0.517
1184.501	655.461	80.003	20.010	100.543	20.094	1.034	0.510
1185.000	655.739	80.002	20.010	100.543	20.092	1.251	0.525
1185.500	656.017	80.002	20.009	100.551	20.095	0.959	0.548
1186.000	656.251	80.002	20.010	100.557	20.094	1.034	0.534
1186.500	656.520	80.003	20.010	100.555	20.094	1.036	0.507
1187.000	656.760	80.003	20.010	100.551	20.092	1.220	0.506
1187.500	657.025	80.003	20.010	100.543	20.092	1.231	0.507
1188.001	657.223	80.002	20.010	100.536	20.095	0.884	0.484
1188.501	657.507	80.003	20.010	100.536	20.092	1.237	0.473
1189.001	657.766	80.003	20.009	100.545	20.092	1.262	0.513
1189.500	658.051	80.002	20.010	100.547	20.093	1.100	0.543
1190.001	658.269	80.002	20.010	100.544	20.094	1.040	0.524
1190.501	658.510	80.003	20.010	100.536	20.092	1.290	0.481
1191.001	658.770	80.002	20.009	100.522	20.092	1.213	0.480
1191.501	659.074	80.002	20.010	100.507	20.091	1.301	0.532
1192.001	659.273	80.002	20.009	100.504	20.092	1.195	0.534
1192.501	659.544	80.002	20.009	100.510	20.093	1.189	0.487
1193.000	659.815	80.002	20.009	100.525	20.093	1.160	0.506
1193.500	659.984	80.002	20.009	100.534	20.094	1.016	0.491
1194.000	660.272	80.002	20.009	100.539	20.091	1.374	0.448
1194.501	660.535	80.004	20.009	100.532	20.093	1.160	0.504
1195.001	660.771	80.001	20.009	100.522	20.092	1.268	0.525
1195.501	661.056	80.003	20.009	100.510	20.091	1.339	0.510
1196.001	661.331	80.003	20.009	100.509	20.089	1.609	0.540
1196.501	661.574	80.001	20.009	100.518	20.089	1.540	0.539
1197.001	661.823	80.002	20.008	100.534	20.091	1.335	0.505
1197.501	662.055	80.003	20.009	100.548	20.089	1.566	0.486
1198.000	662.336	80.001	20.009	100.553	20.092	1.288	0.497
1198.500	662.540	80.003	20.009	100.552	20.090	1.432	0.499
1199.000	662.775	80.002	20.009	100.545	20.091	1.359	0.462
1199.500	663.036	80.002	20.009	100.541	20.092	1.224	0.468
1200.001	663.307	80.003	20.009	100.542	20.092	1.268	0.514
1200.501	663.527	80.003	20.008	100.549	20.092	1.282	0.511
1201.000	663.782	80.002	20.009	100.554	20.092	1.228	0.483
1201.500	664.019	80.003	20.009	100.553	20.093	1.089	0.484
1202.001	664.286	80.003	20.009	100.540	20.094	1.049	0.498
1202.501	664.534	80.003	20.009	100.526	20.094	1.085	0.509
1203.001	664.768	80.003	20.009	100.513	20.095	0.964	0.498
1203.500	665.017	80.003	20.009	100.509	20.096	0.787	0.483
1204.001	665.291	80.002	20.009	100.517	20.093	1.087	0.503
1204.501	665.529	80.003	20.009	100.532	20.093	1.125	0.517
1205.000	665.787	80.001	20.008	100.542	20.095	0.959	0.504
1205.500	666.065	80.003	20.009	100.545	20.097	0.749	0.516
1206.000	666.310	80.003	20.009	100.537	20.096	0.815	0.530
1206.500	666.545	80.002	20.009	100.529	20.093	1.131	0.501
1207.001	666.782	80.002	20.009	100.522	20.092	1.204	0.476
1207.501	667.028	80.003	20.009	100.523	20.093	1.120	0.478
1208.001	667.300	80.002	20.009	100.532	20.096	0.804	0.501
1208.501	667.565	80.002	20.008	100.547	20.094	1.039	0.527
1209.001	667.804	80.002	20.009	100.551	20.093	1.180	0.520
1209.501	668.085	80.002	20.009	100.549	20.093	1.171	0.512
1210.000	668.304	80.002	20.009	100.544	20.093	1.160	0.510
1210.500	668.546	80.002	20.009	100.535	20.092	1.224	0.480
1211.000	668.812	80.003	20.009	100.529	20.093	1.132	0.485
1211.500	669.052	80.002	20.009	100.535	20.094	1.043	0.507
1212.000	669.278	80.003	20.009	100.546	20.095	0.964	0.486
1212.500	669.552	80.003	20.008	100.552	20.096	0.822	0.483
1213.000	669.802	80.002	20.009	100.553	20.096	0.795	0.512
1213.500	670.026	80.002	20.009	100.548	20.094	1.005	0.499
1214.001	670.307	80.003	20.009	100.538	20.096	0.815	0.490
1214.501	670.549	80.002	20.009	100.532	20.097	0.743	0.514
1215.000	670.799	80.002	20.009	100.536	20.094	1.017	0.507
1215.501	671.061	80.002	20.009	100.544	20.097	0.745	0.502
1216.001	671.292	80.002	20.009	100.557	20.095	0.901	0.502
1216.500	671.561	80.002	20.009	100.566	20.094	1.003	0.497
1217.000	671.855	80.002	20.009	100.564	20.095	0.939	0.532
1217.500	672.046	80.003	20.009	100.557	20.096	0.822	0.524
1218.000	672.329	80.002	20.009	100.550	20.097	0.723	0.479
1218.500	672.602	80.002	20.009	100.548	20.096	0.776	0.515
1219.000	672.827	80.002	20.009	100.549	20.097	0.709	0.527
1219.501	673.122	80.003	20.009	100.556	20.097	0.758	0.509
1220.001	673.324	80.003	20.009	100.560	20.096	0.806	0.508
1220.501	673.601	80.004	20.009	100.560	20.097	0.669	0.488
1221.000	673.810	80.002	20.009	100.554	20.096	0.855	0.482
1221.500	674.073	80.003	20.009	100.546	20.096	0.851	0.479
1222.000	674.351	80.001	20.009	100.541	20.097	0.771	0.506
1222.500	674.585	80.002	20.009	100.543	20.100	0.453	0.526
1223.001	674.883	80.003	20.009	100.554	20.096	0.802	0.522
1223.501	675.073	80.003	20.009	100.566	20.094	0.996	0.510
1224.000	675.389	80.002	20.008	100.573	20.097	0.680	0.497
1224.500	675.607	80.003	20.009	100.573	20.095	0.932	0.520
1225.001	675.855	80.003	20.009	100.565	20.096	0.775	0.500
1225.501	676.091	80.002	20.009	100.553	20.096	0.855	0.474
1226.000	676.378	80.003	20.009	100.542	20.095	0.964	0.504
1226.500	676.624	80.002	20.009	100.541	20.095	0.948	0.528
1227.000	676.846	80.002	20.009	100.548	20.092	1.271	0.501
1227.500	677.111	80.003	20.009	100.554	20.093	1.191	0.478
1228.000	677.394	80.003	20.009	100.555	20.093	1.140	0.517
1228.501	677.649	80.002	20.009	100.550	20.092	1.215	0.542
1229.001	677.895	80.003	20.009	100.540	20.094	0.994	0.519
1229.501	678.187	80.003	20.009	100.533	20.092	1.231	0.520
1230.000	678.435	80.003	20.009	100.530	20.092	1.240	0.539
1230.501	678.649	80.001	20.008	100.538	20.092	1.266	0.501
1231.001	678.928	80.004	20.009	100.552	20.093	1.154	0.478
1231.501	679.153	80.002	20.009	100.555	20.094	1.069	0.499
1232.000	679.418	80.001	20.009	100.555	20.093	1.160	0.497
1232.500	679.682	80.004	20.009	100.551	20.091	1.310	0.509
1233.000	679.906	80.002	20.009	100.542	20.094	1.078	0.509
1233.500	680.190	80.002	20.009	100.535	20.093	1.158	0.498
1234.000	680.458	80.003	20.009	100.539	20.096	0.864	0.530
1234.500	680.718	80.003	20.009	100.544	20.091	1.353	0.540
1235.001	680.953	80.003	20.008	100.545	20.093	1.094	0.511
1235.501	681.212	80.003	20.009	100.546	20.094	1.045	0.494
1236.000	681.462	80.003	20.010	100.538	20.093	1.131	0.501
1236.500	681.732	80.001	20.009	100.526	20.093	1.169	0.514
1237.000	681.930	80.003	20.009	100.521	20.093	1.165	0.494
1237.500	682.185	80.003	20.009	100.522	20.092	1.280	0.460
1238.000	682.446	80.002	20.009	100.530	20.093	1.107	0.485
1238.500	682.738	80.004	20.009	100.543	20.092	1.275	0.535
1239.000	682.977	80.002	20.008	100.556	20.092	1.220	0.542
1239.501	683.222	80.003	20.009	100.556	20.091	1.326	0.508
1240.001	683.475	80.002	20.009	100.554	20.094	1.030	0.491
1240.500	683.723	80.002	20.009	100.547	20.093	1.160	0.499
1241.000	683.998	80.004	20.009	100.540	20.094	1.032	0.512
1241.500	684.266	80.003	20.009	100.542	20.094	1.076	0.533
1242.001	684.470	80.002	20.008	100.551	20.094	1.028	0.508
1242.501	684.735	80.003	20.009	100.560	20.094	1.023	0.471
1243.000	684.986	80.003	20.008	100.567	20.095	0.917	0.492
1243.500	685.227	80.003	20.009	100.567	20.091	1.328	0.504
1244.000	685.475	80.004	20.009	100.557	20.096	0.857	0.491
1244.500	685.746	80.002	20.009	100.545	20.093	1.105	0.504
1245.001	685.979	80.004	20.009	100.538	20.094	1.061	0.511
1245.501	686.214	80.003	20.009	100.536	20.092	1.282	0.486
1246.001	686.475	80.003	20.008	100.542	20.093	1.096	0.482
1246.501	686.765	80.003	20.009	100.553	20.093	1.098	0.524
1247.001	687.024	80.003	20.008	100.561	20.094	1.034	0.550
1247.501	687.261	80.003	20.009	100.560	20.094	1.061	0.522
1248.000	687.501	80.003	20.009	100.554	20.094	1.065	0.486
1248.500	687.801	80.003	20.009	100.547	20.095	0.955	0.509
1249.000	688.040	80.001	20.009	100.545	20.095	0.944	0.540
1249.500	688.286	80.003	20.009	100.547	20.092	1.279	0.512
1250.000	688.549	80.003	20.008	100.555	20.092	1.207	0.497
1250.500	688.780	80.002	20.009	100.558	20.093	1.127	0.502
1251.000	689.036	80.003	20.009	100.554	20.091	1.321	0.491
1251.501	689.261	80.003	20.009	100.544	20.092	1.248	0.484
1252.001	689.501	80.004	20.009	100.536	20.090	1.463	0.473
1252.501	689.755	80.002	20.009	100.530	20.090	1.432	0.480
1253.001	690.010	80.002	20.009	100.533	20.090	1.476	0.502
1253.500	690.227	80.003	20.009	100.546	20.090	1.498	0.490
1254.000	690.469	80.002	20.009	100.560	20.090	1.403	0.465
1254.501	690.740	80.003	20.009	100.566	20.093	1.176	0.486
1255.001	690.941	80.002	20.010	100.564	20.089	1.582	0.492
1255.500	691.198	80.002	20.009	100.558	20.091	1.345	0.465
1256.000	691.424	80.003	20.009	100.548	20.092	1.251	0.471
1256.500	691.679	80.003	20.009	100.541	20.091	1.330	0.482
1257.000	691.903	80.003	20.008	100.542	20.091	1.370	0.480
1257.500	692.160	80.002	20.009	100.551	20.091	1.381	0.480
1258.000	692.396	80.003	20.008	100.560	20.093	1.189	0.487
1258.500	692.664	80.004	20.009	100.562	20.093	1.094	0.498
1259.001	692.917	80.005	20.009	100.559	20.093	1.184	0.512
1259.501	693.133	80.003	20.009	100.551	20.091	1.354	0.495
1260.000	693.366	80.003	20.009	100.542	20.091	1.348	0.459
1260.500	693.618	80.003	20.009	100.534	20.092	1.268	0.467
1261.000	693.845	80.003	20.009	100.536	20.093	1.131	0.482
1261.500	694.042	80.002	20.009	100.544	20.091	1.359	0.451
1262.000	694.345	80.002	20.008	100.551	20.093	1.184	0.462
1262.500	694.563	80.004	20.009	100.552	20.092	1.231	0.510
1263.001	694.841	80.002	20.009	100.552	20.093	1.175	0.508
1263.501	695.085	80.003	20.009	100.549	20.090	1.467	0.509
1264.001	695.341	80.002	20.009	100.542	20.090	1.423	0.511
1264.501	695.570	80.003	20.009	100.542	20.092	1.291	0.492
1265.000	695.815	80.002	20.009	100.548	20.091	1.366	0.480
1265.500	696.054	80.001	20.009	100.556	20.091	1.337	0.479
1266.001	696.294	80.004	20.009	100.564	20.089	1.564	0.481
1266.501	696.560	80.002	20.009	100.565	20.091	1.377	0.493
1267.000	696.782	80.003	20.009	100.555	20.090	1.403	0.497
1267.500	697.003	80.002	20.009	100.542	20.089	1.596	0.465
1268.000	697.293	80.000	20.009	100.534	20.089	1.529	0.477
1268.500	697.527	80.003	20.009	100.531	20.090	1.505	0.517
1269.000	697.778	80.002	20.008	100.537	20.087	1.779	0.504
1269.500	698.004	80.003	20.009	100.541	20.091	1.383	0.481
1270.000	698.248	80.001	20.009	100.546	20.088	1.624	0.474
1270.500	698.475	80.003	20.009	100.543	20.086	1.836	0.471
1271.001	698.732	80.002	20.009	100.531	20.089	1.593	0.477
1271.501	698.994	80.002	20.009	100.525	20.089	1.543	0.501
1272.000	699.248	80.002	20.008	100.528	20.090	1.437	0.518
1272.500	699.499	80.002	20.009	100.537	20.090	1.454	0.511
1273.001	699.775	80.002	20.009	100.546	20.090	1.472	0.516
1273.501	699.970	80.002	20.009	100.553	20.090	1.474	0.499
1274.000	700.256	80.002	20.009	100.552	20.091	1.341	0.476
1274.500	700.494	80.002	20.009	100.541	20.089	1.573	0.503
1275.000	700.716	80.004	20.009	100.533	20.091	1.353	0.492
1275.501	700.970	80.002	20.009	100.528	20.087	1.722	0.468
1276.001	701.228	80.003	20.008	100.534	20.090	1.485	0.494
1276.500	701.453	80.000	20.009	100.541	20.090	1.500	0.497
1277.000	701.723	80.003	20.008	100.552	20.090	1.491	0.489
1277.500	701.899	80.003	20.009	100.554	20.090	1.414	0.470
1278.000	702.144	80.002	20.009	100.554	20.089	1.606	0.433
1278.500	702.394	80.002	20.009	100.548	20.091	1.386	0.458
1279.000	702.635	80.002	20.009	100.543	20.090	1.428	0.493
1279.500	702.847	80.003	20.009	100.544	20.091	1.377	0.472
1280.000	703.139	80.001	20.009	100.549	20.091	1.375	0.479
1280.501	703.381	80.002	20.008	100.558	20.084	2.097	0.519
1281.001	703.594	80.003	20.009	100.565	20.089	1.604	0.494
1281.500	703.873	80.003	20.008	100.566	20.086	1.869	0.474
1282.000	704.100	80.003	20.009	100.560	20.086	1.860	0.499
1282.501	704.334	80.003	20.009	100.552	20.086	1.874	0.483
1283.001	704.557	80.003	20.009	100.547	20.087	1.796	0.459
1283.500	704.803	80.002	20.008	100.547	20.086	1.872	0.463
1284.000	705.051	80.003	20.008	100.552	20.086	1.843	0.481
1284.500	705.297	80.002	20.008	100.560	20.087	1.719	0.494
1285.000	705.516	80.003	20.009	100.562	20.087	1.739	0.480
1285.501	705.763	80.003	20.009	100.558	20.083	2.132	0.466
1286.001	706.014	80.003	20.009	100.551	20.084	2.106	0.482
1286.501	706.275	80.003	20.009	100.545	20.086	1.860	0.505
1287.001	706.570	80.004	20.009	100.545	20.088	1.690	0.534
1287.501	706.766	80.002	20.009	100.551	20.086	1.860	0.523
1288.000	707.054	80.003	20.008	100.560	20.086	1.820	0.488
1288.500	707.294	80.004	20.009	100.562	20.088	1.637	0.506
1289.000	707.553	80.003	20.008	100.560	20.088	1.666	0.513
1289.500	707.800	80.003	20.009	100.552	20.089	1.600	0.503
1290.000	708.040	80.004	20.009	100.542	20.089	1.514	0.496
1290.500	708.236	80.003	20.009	100.536	20.089	1.582	0.461
1291.000	708.510	80.002	20.008	100.541	20.087	1.730	0.453
1291.500	708.777	80.002	20.009	100.549	20.087	1.755	0.506
1292.001	708.998	80.003	20.008	100.557	20.084	2.077	0.515
1292.501	709.220	80.004	20.009	100.560	20.086	1.880	0.465
1293.001	709.514	80.004	20.009	100.555	20.085	2.004	0.479
1293.501	709.731	80.004	20.009	100.547	20.087	1.757	0.514
1294.000	709.974	80.002	20.008	100.540	20.087	1.788	0.486
1294.500	710.234	80.003	20.009	100.537	20.088	1.644	0.481
1295.000	710.481	80.003	20.008	100.539	20.087	1.752	0.505
1295.500	710.649	80.002	20.009	100.543	20.084	2.103	0.461
1296.000	710.952	80.004	20.009	100.544	20.086	1.922	0.443
1296.500	711.141	80.003	20.008	100.543	20.086	1.920	0.481
1297.001	711.421	80.002	20.008	100.534	20.087	1.812	0.480
1297.501	711.656	80.004	20.008	100.528	20.086	1.905	0.492
1298.000	711.920	80.002	20.009	100.527	20.087	1.788	0.507
1298.500	712.170	80.003	20.008	100.530	20.088	1.631	0.507
1299.000	712.424	80.002	20.008	100.533	20.086	1.819	0.509
1299.500	712.657	80.004	20.008	100.538	20.088	1.701	0.495
1300.001	712.890	80.002	20.008	100.537	20.087	1.743	0.476
1300.501	713.132	80.003	20.009	100.529	20.089	1.527	0.470
1301.001	713.418	80.004	20.009	100.517	20.087	1.763	0.502
1301.501	713.645	80.003	20.009	100.513	20.088	1.706	0.521
1302.000	713.898	80.002	20.009	100.518	20.087	1.744	0.497
1302.501	714.192	80.003	20.008	100.529	20.086	1.905	0.514
1303.001	714.465	80.003	20.008	100.544	20.087	1.783	0.557
1303.500	714.710	80.003	20.009	100.558	20.084	2.090	0.542
1304.000	714.941	80.003	20.009	100.558	20.085	1.993	0.497
1304.500	715.220	80.003	20.009	100.548	20.084	2.062	0.492
1305.000	715.472	80.003	20.009	100.540	20.085	1.925	0.521
1305.500	715.703	80.004	20.009	100.534	20.083	2.166	0.508
1306.001	715.994	80.004	20.008	100.535	20.084	2.058	0.502
1306.501	716.210	80.002	20.009	100.543	20.086	1.848	0.514
1307.001	716.502	80.003	20.009	100.549	20.085	1.943	0.508
1307.500	716.721	80.005	20.009	100.549	20.084	2.051	0.510
1308.000	716.984	80.002	20.009	100.543	20.085	2.024	0.496
1308.500	717.231	80.003	20.009	100.534	20.084	2.042	0.496
1309.000	717.498	80.003	20.009	100.527	20.084	2.104	0.512
1309.500	717.752	80.003	20.009	100.528	20.083	2.208	0.517
1310.000	717.994	80.004	20.008	100.536	20.084	2.080	0.509
1310.501	718.230	80.002	20.008	100.547	20.084	2.099	0.487
1311.001	718.480	80.003	20.009	100.554	20.082	2.238	0.482
1311.501	718.751	80.003	20.008	100.554	20.083	2.200	0.504
1312.001	719.035	80.004	20.009	100.552	20.084	2.129	0.538
1312.500	719.281	80.003	20.009	100.544	20.080	2.467	0.543
1313.000	719.547	80.004	20.009	100.536	20.080	2.485	0.521
1313.500	719.792	80.003	20.009	100.533	20.083	2.205	0.511
1314.001	720.107	80.004	20.009	100.540	20.082	2.300	0.536
1314.501	720.360	80.003	20.008	100.548	20.082	2.311	0.565
1315.000	720.590	80.003	20.008	100.557	20.085	1.938	0.525
1315.501	720.823	80.002	20.009	100.560	20.083	2.172	0.473
1316.001	721.048	80.003	20.009	100.559	20.080	2.470	0.461
1316.500	721.327	80.003	20.009	100.551	20.081	2.366	0.481
1317.000	721.581	80.004	20.009	100.543	20.085	2.008	0.519
1317.501	721.803	80.003	20.009	100.542	20.084	2.097	0.505
1318.001	722.055	80.003	20.009	100.548	20.082	2.271	0.475
1318.501	722.308	80.002	20.008	100.562	20.083	2.210	0.490
1319.000	722.559	80.003	20.008	100.571	20.086	1.913	0.504
1319.501	722.839	80.003	20.009	100.572	20.086	1.900	0.517
1320.001	723.078	80.002	20.009	100.564	20.085	1.982	0.525
1320.500	723.362	80.004	20.009	100.556	20.086	1.898	0.521
1321.000	723.608	80.001	20.009	100.542	20.086	1.885	0.527
1321.500	723.836	80.004	20.009	100.540	20.085	1.995	0.502
1322.000	724.131	80.004	20.008	100.546	20.084	2.113	0.498
1322.500	724.377	80.003	20.009	100.555	20.084	2.049	0.532
1323.001	724.656	80.003	20.008	100.556	20.082	2.258	0.533
1323.501	724.910	80.003	20.009	100.555	20.083	2.216	0.529
1324.001	725.130	80.003	20.009	100.541	20.084	2.062	0.503
1324.500	725.422	80.004	20.009	100.525	20.083	2.152	0.493
1325.000	725.691	80.003	20.009	100.515	20.083	2.197	0.537
1325.500	725.957	80.005	20.009	100.514	20.083	2.155	0.548
1326.000	726.194	80.003	20.008	100.517	20.083	2.223	0.519
1326.501	726.453	80.002	20.009	100.526	20.083	2.139	0.499
1327.001	726.683	80.003	20.008	100.534	20.081	2.380	0.493
1327.500	726.983	80.003	20.008	100.534	20.081	2.344	0.510
1328.000	727.259	80.003	20.009	100.529	20.085	1.951	0.553
1328.500	727.478	80.003	20.009	100.518	20.082	2.318	0.535
1329.000	727.762	80.003	20.009	100.515	20.080	2.532	0.499
1329.500	728.048	80.004	20.009	100.515	20.081	2.404	0.537
1330.000	728.306	80.003	20.008	100.524	20.082	2.241	0.557
1330.500	728.579	80.004	20.008	100.535	20.080	2.475	0.537
1331.001	728.828	80.003	20.009	100.543	20.079	2.552	0.526
1331.501	729.075	80.003	20.008	100.540	20.078	2.731	0.508
1332.000	729.338	80.004	20.009	100.534	20.080	2.453	0.503
1332.500	729.620	80.003	20.009	100.528	20.080	2.530	0.528
1333.000	729.883	80.004	20.009	100.521	20.081	2.356	0.545
1333.500	730.150	80.004	20.008	100.526	20.081	2.444	0.538
1334.001	730.416	80.002	20.009	100.539	20.084	2.051	0.532
1334.501	730.683	80.004	20.009	100.553	20.083	2.172	0.533
1335.000	730.940	80.004	20.009	100.558	20.083	2.227	0.529
1335.500	731.224	80.003	20.008	100.559	20.083	2.152	0.532
1336.000	731.496	80.003	20.009	100.555	20.081	2.444	0.549
1336.500	731.756	80.003	20.009	100.546	20.082	2.287	0.544
1337.000	732.048	80.003	20.009	100.541	20.082	2.270	0.542
1337.500	732.318	80.004	20.008	100.543	20.083	2.179	0.557
1338.000	732.546	80.002	20.009	100.551	20.083	2.152	0.530
1338.501	732.795	80.003	20.009	100.558	20.085	1.960	0.488
1339.001	733.048	80.004	20.008	100.560	20.084	2.106	0.489
1339.500	733.331	80.004	20.009	100.555	20.085	1.929	0.519
1340.000	733.607	80.003	20.009	100.545	20.081	2.397	0.547
1340.501	733.885	80.003	20.009	100.535	20.081	2.413	0.557
1341.001	734.100	80.003	20.009	100.529	20.082	2.338	0.524
1341.501	734.397	80.003	20.009	100.530	20.084	2.044	0.502
1342.001	734.639	80.004	20.008	100.537	20.083	2.150	0.526
1342.500	734.907	80.003	20.009	100.544	20.084	2.046	0.525
1343.001	735.158	80.002	20.008	100.546	20.085	1.958	0.514
1343.501	735.386	80.004	20.009	100.544	20.085	1.933	0.499
1344.000	735.687	80.003	20.009	100.541	20.084	2.079	0.505
1344.500	735.954	80.002	20.009	100.537	20.083	2.135	0.549
1345.000	736.192	80.003	20.009	100.542	20.083	2.228	0.537
1345.501	736.441	80.003	20.009	100.550	20.082	2.279	0.496
1346.001	736.734	80.003	20.008	100.559	20.084	2.044	0.514
1346.501	736.978	80.002	20.008	100.562	20.083	2.143	0.539
1347.000	737.211	80.003	20.009	100.561	20.083	2.221	0.507
1347.500	737.488	80.001	20.008	100.553	20.083	2.194	0.494
1348.000	737.775	80.003	20.009	100.546	20.082	2.243	0.537
1348.500	738.030	80.002	20.009	100.546	20.082	2.336	0.553
1349.000	738.244	80.003	20.009	100.550	20.083	2.192	0.506
1349.500	738.541	80.002	20.008	100.558	20.082	2.309	0.490
1350.000	738.805	80.002	20.008	100.564	20.085	2.002	0.536
1350.501	739.080	80.003	20.008	100.563	20.083	2.185	0.550
1351.001	739.291	80.002	20.009	100.551	20.084	2.094	0.512
1351.501	739.561	80.003	20.009	100.541	20.084	2.083	0.484
1352.001	739.820	80.002	20.009	100.533	20.083	2.187	0.505
1352.501	740.095	80.002	20.009	100.527	20.084	2.052	0.532
1353.001	740.319	80.002	20.009	100.531	20.084	2.048	0.516
1353.500	740.620	80.002	20.008	100.539	20.083	2.192	0.512
1354.000	740.849	80.003	20.009	100.544	20.084	2.088	0.528
1354.500	741.113	80.004	20.009	100.544	20.086	1.911	0.512
1355.000	741.388	80.003	20.008	100.543	20.084	2.063	0.516
1355.501	741.646	80.002	20.009	100.540	20.083	2.216	0.536
1356.001	741.892	80.003	20.009	100.539	20.083	2.220	0.519
1356.500	742.129	80.003	20.008	100.544	20.082	2.269	0.493
1357.000	742.383	80.002	20.008	100.552	20.084	2.090	0.487
1357.501	742.657	80.003	20.008	100.560	20.084	2.077	0.510
1358.001	742.914	80.002	20.008	100.565	20.085	2.013	0.529
1358.500	743.208	80.002	20.009	100.564	20.086	1.895	0.541
1359.000	743.467	80.003	20.009	100.556	20.087	1.807	0.552
1359.500	743.714	80.003	20.009	100.548	20.082	2.267	0.530
