Sample Weight (mg):	0.98
Heating Rate (C/s):	0.5
Combustor Temp (C):	900
N2 Flow Rate (cc/min):	80
O2 Flow Rate (cc/min):	20
Time (s)	Temperature (C)	N2 flow rate (cc/min)	O2 flow rate (cc/min)	Flow Rate (cc/min)	Oxygen (%)	HRR (W/g)	Heating rate (C/s)
0.000	88.370	80.005	20.009	100.181	19.995	0.041	0.060
0.499	88.375	80.005	20.008	100.189	19.995	-0.155	-0.120
1.000	88.550	80.007	20.009	100.199	19.997	-0.554	-0.012
1.500	88.531	80.005	20.009	100.204	19.994	0.399	0.168
2.000	88.432	80.005	20.009	100.202	19.990	1.609	0.019
2.500	88.548	80.005	20.009	100.200	19.996	-0.372	-0.050
3.000	88.671	80.007	20.010	100.191	19.995	0.108	0.128
3.499	88.770	80.007	20.010	100.184	19.989	1.757	0.230
3.999	88.567	80.007	20.009	100.189	19.995	-0.176	0.059
4.499	88.629	80.005	20.008	100.199	19.997	-0.588	-0.122
4.999	88.691	80.005	20.010	100.205	19.999	-1.460	-0.008
5.499	88.744	80.007	20.011	100.214	19.997	-0.575	0.119
5.999	88.737	80.006	20.010	100.217	19.998	-0.858	0.080
6.499	88.613	80.006	20.010	100.210	20.000	-1.507	-0.042
7.000	88.744	80.005	20.010	100.201	19.997	-0.797	-0.062
7.500	88.663	80.006	20.010	100.194	19.999	-1.298	0.028
7.999	88.711	80.004	20.008	100.189	19.996	-0.453	0.009
8.499	88.763	80.005	20.009	100.194	19.998	-0.987	0.034
8.999	88.709	80.005	20.008	100.203	19.993	0.500	0.049
9.499	88.729	80.006	20.009	100.210	19.991	1.353	-0.018
9.999	88.797	80.006	20.008	100.215	19.993	0.561	0.027
10.499	88.817	80.006	20.009	100.211	19.997	-0.778	0.089
11.000	88.836	80.006	20.010	100.201	19.995	-0.135	0.064
11.500	88.585	80.005	20.009	100.193	20.000	-1.602	-0.097
11.999	88.849	80.005	20.009	100.185	19.995	-0.074	-0.110
12.499	89.085	80.007	20.010	100.188	19.995	-0.081	0.256
12.999	88.761	80.005	20.009	100.197	19.993	0.656	0.206
13.499	89.066	80.005	20.008	100.209	19.991	1.102	-0.054
13.999	88.876	80.005	20.009	100.215	19.997	-0.784	0.048
14.499	89.077	80.007	20.009	100.215	19.994	0.270	0.063
14.999	88.987	80.004	20.009	100.208	19.995	0.095	0.061
15.499	89.015	80.006	20.009	100.201	19.991	1.305	0.025
15.999	89.261	80.006	20.010	100.199	19.998	-0.940	0.106
16.499	89.147	80.006	20.009	100.201	19.991	1.366	0.203
16.999	89.238	80.007	20.009	100.208	19.987	2.448	0.054
17.500	89.287	80.007	20.010	100.216	19.987	2.658	0.059
18.000	89.190	80.006	20.009	100.222	19.987	2.604	0.046
18.499	89.257	80.006	20.009	100.219	19.989	1.826	-0.039
18.999	89.034	80.003	20.008	100.211	19.993	0.609	-0.093
19.499	89.270	80.007	20.010	100.202	19.990	1.697	-0.072
19.999	89.248	80.006	20.009	100.196	19.987	2.556	0.114
20.500	89.337	80.004	20.009	100.198	19.989	1.954	0.141
21.000	89.306	80.004	20.008	100.211	19.987	2.570	0.062
21.499	89.441	80.005	20.009	100.229	19.986	2.745	0.081
21.999	89.348	80.005	20.009	100.249	19.981	4.301	0.073
22.499	89.479	80.005	20.008	100.261	19.987	2.536	0.040
22.999	89.466	80.005	20.009	100.259	19.986	2.989	0.078
23.499	89.663	80.006	20.009	100.252	19.983	3.685	0.151
23.999	89.499	80.005	20.009	100.243	19.985	3.036	0.108
24.499	89.638	80.006	20.009	100.236	19.980	4.734	0.004
24.999	89.547	80.004	20.009	100.236	19.983	3.889	0.012
25.500	89.620	80.006	20.009	100.245	19.982	4.268	0.015
26.000	89.664	80.005	20.009	100.253	19.982	3.957	0.050
26.499	89.797	80.006	20.009	100.261	19.985	3.077	0.147
26.999	89.808	80.005	20.009	100.260	19.981	4.409	0.160
27.499	89.748	80.004	20.009	100.254	19.983	3.773	0.047
27.999	89.851	80.006	20.009	100.246	19.987	2.617	-0.003
28.499	89.870	80.005	20.009	100.244	19.982	4.254	0.083
28.999	89.944	80.005	20.009	100.247	19.985	3.009	0.108
29.499	89.895	80.005	20.009	100.259	19.985	3.266	0.059
29.999	90.184	80.006	20.008	100.270	19.983	3.638	0.132
30.499	90.170	80.005	20.009	100.275	19.981	4.543	0.258
30.999	90.088	80.005	20.009	100.275	19.982	4.212	0.090
31.499	90.140	80.005	20.009	100.267	19.981	4.435	-0.063
31.999	90.408	80.006	20.010	100.259	19.980	4.645	0.145
32.499	90.287	80.005	20.009	100.254	19.978	5.363	0.234
32.999	90.273	80.006	20.009	100.255	19.982	3.977	0.006
33.499	90.348	80.006	20.009	100.256	19.977	5.587	-0.037
33.999	90.369	80.005	20.009	100.261	19.979	4.937	0.078
34.499	90.521	80.005	20.009	100.257	19.977	5.586	0.135
34.999	90.566	80.006	20.009	100.250	19.979	5.024	0.185
35.499	90.651	80.004	20.009	100.244	19.979	4.964	0.163
35.999	90.607	80.004	20.010	100.243	19.980	4.775	0.085
36.499	90.681	80.005	20.009	100.247	19.981	4.572	0.036
36.999	90.684	80.005	20.009	100.258	19.979	5.154	0.054
37.499	90.800	80.004	20.008	100.274	19.981	4.451	0.098
37.999	90.803	80.007	20.009	100.286	19.978	5.337	0.119
38.499	90.988	80.006	20.009	100.287	19.981	4.295	0.154
38.999	90.948	80.004	20.009	100.281	19.982	4.112	0.167
39.499	91.058	80.006	20.010	100.273	19.985	3.226	0.107
39.999	91.076	80.006	20.009	100.265	19.982	4.065	0.099
40.499	91.116	80.004	20.009	100.259	19.982	4.160	0.093
40.999	91.252	80.006	20.009	100.260	19.985	3.288	0.117
41.499	91.304	80.006	20.009	100.262	19.984	3.510	0.182
41.999	91.333	80.005	20.009	100.258	19.984	3.368	0.134
42.499	91.408	80.006	20.010	100.249	19.986	2.678	0.092
43.000	91.424	80.006	20.009	100.242	19.981	4.584	0.097
43.500	91.478	80.005	20.009	100.233	19.979	5.031	0.080
43.999	91.644	80.007	20.009	100.229	19.977	5.788	0.145
44.499	91.574	80.005	20.009	100.234	19.982	3.956	0.158
44.999	91.817	80.005	20.009	100.250	19.981	4.355	0.135
45.499	91.695	80.005	20.009	100.262	19.981	4.368	0.147
45.999	91.864	80.005	20.009	100.271	19.980	4.834	0.084
46.499	91.923	80.007	20.009	100.273	19.983	3.705	0.137
47.000	91.910	80.006	20.010	100.271	19.981	4.502	0.137
47.500	91.891	80.004	20.008	100.263	19.984	3.502	0.007
47.999	92.059	80.008	20.010	100.259	19.980	4.672	0.058
48.499	92.075	80.006	20.008	100.263	19.979	5.126	0.166
48.999	92.108	80.005	20.009	100.269	19.980	4.659	0.117
49.499	92.162	80.005	20.009	100.276	19.982	3.996	0.068
49.999	92.214	80.005	20.009	100.283	19.978	5.484	0.096
50.499	92.254	80.005	20.009	100.283	19.981	4.517	0.099
50.999	92.403	80.006	20.009	100.278	19.983	3.746	0.141
51.499	92.502	80.006	20.010	100.272	19.982	4.003	0.218
51.999	92.614	80.007	20.009	100.272	19.984	3.571	0.229
52.499	92.599	80.005	20.008	100.274	19.979	5.168	0.154
52.999	92.647	80.006	20.009	100.281	19.977	5.642	0.065
53.499	92.757	80.005	20.009	100.289	19.979	5.074	0.095
53.999	92.805	80.006	20.009	100.289	19.981	4.573	0.158
54.499	92.935	80.006	20.009	100.280	19.980	4.837	0.168
54.999	93.099	80.005	20.009	100.265	19.985	3.240	0.236
55.499	93.214	80.007	20.010	100.256	19.983	3.931	0.286
55.999	93.185	80.006	20.009	100.248	19.983	3.755	0.183
56.499	93.223	80.006	20.009	100.250	19.983	3.816	0.048
56.999	93.351	80.007	20.009	100.253	19.984	3.424	0.087
57.499	93.419	80.004	20.009	100.260	19.982	3.986	0.181
57.999	93.424	80.005	20.009	100.255	19.983	3.769	0.135
58.499	93.580	80.004	20.009	100.245	19.986	2.937	0.117
58.999	93.637	80.006	20.009	100.234	19.985	3.025	0.187
59.500	93.633	80.006	20.010	100.226	19.985	3.283	0.133
60.000	93.697	80.006	20.009	100.224	19.982	4.238	0.056
60.499	93.804	80.005	20.009	100.231	19.985	3.182	0.115
61.000	93.902	80.007	20.010	100.241	19.987	2.654	0.188
61.500	93.975	80.004	20.009	100.252	19.981	4.462	0.188
61.999	94.029	80.006	20.009	100.256	19.986	2.884	0.149
62.499	94.160	80.006	20.009	100.254	19.984	3.594	0.156
62.999	94.241	80.005	20.010	100.246	19.979	4.989	0.199
63.499	94.310	80.006	20.009	100.245	19.979	5.110	0.181
63.999	94.314	80.004	20.009	100.244	19.975	6.335	0.112
64.499	94.436	80.005	20.009	100.255	19.976	5.983	0.100
64.999	94.543	80.006	20.009	100.269	19.982	4.155	0.177
65.499	94.597	80.005	20.009	100.283	19.978	5.461	0.195
65.999	94.532	80.006	20.009	100.293	19.976	5.913	0.075
66.500	94.758	80.005	20.009	100.300	19.977	5.656	0.075
67.000	94.925	80.006	20.009	100.300	19.976	5.899	0.277
67.499	94.872	80.005	20.009	100.298	19.975	6.284	0.254
67.999	95.051	80.007	20.009	100.299	19.969	8.185	0.120
68.499	95.052	80.006	20.009	100.300	19.969	8.274	0.153
68.999	95.150	80.006	20.009	100.309	19.970	7.815	0.140
69.499	95.222	80.006	20.009	100.315	19.967	8.972	0.134
69.999	95.333	80.006	20.009	100.319	19.965	9.696	0.176
70.499	95.413	80.005	20.010	100.323	19.968	8.695	0.187
70.999	95.573	80.006	20.009	100.330	19.961	10.868	0.216
71.499	95.716	80.006	20.010	100.330	19.968	8.480	0.271
71.999	95.718	80.005	20.009	100.335	19.965	9.645	0.224
72.499	95.798	80.005	20.008	100.348	19.966	9.214	0.113
72.999	95.897	80.005	20.009	100.360	19.964	9.898	0.131
73.499	95.937	80.006	20.008	100.368	19.965	9.472	0.160
73.999	96.159	80.006	20.009	100.376	19.964	9.770	0.200
74.499	96.338	80.005	20.009	100.376	19.967	9.012	0.331
74.999	96.325	80.006	20.009	100.368	19.964	9.784	0.284
75.499	96.410	80.004	20.009	100.360	19.965	9.649	0.119
75.999	96.611	80.007	20.010	100.352	19.966	9.169	0.179
76.499	96.678	80.007	20.009	100.344	19.968	8.649	0.277
76.999	96.747	80.004	20.009	100.341	19.971	7.648	0.202
77.499	96.677	80.004	20.008	100.341	19.969	8.129	0.067
77.999	96.944	80.006	20.009	100.338	19.970	7.818	0.098
78.499	97.027	80.004	20.009	100.326	19.968	8.684	0.273
78.999	97.147	80.006	20.009	100.311	19.967	8.825	0.277
79.499	97.308	80.008	20.010	100.298	19.973	7.118	0.242
79.999	97.301	80.008	20.010	100.289	19.969	8.283	0.218
80.499	97.445	80.006	20.009	100.286	19.967	8.928	0.145
80.999	97.661	80.006	20.009	100.294	19.971	7.580	0.248
81.499	97.707	80.005	20.009	100.307	19.969	8.428	0.311
82.000	97.733	80.006	20.009	100.315	19.969	8.414	0.167
82.500	97.890	80.006	20.009	100.318	19.965	9.700	0.127
82.999	98.054	80.005	20.009	100.320	19.966	9.314	0.253
83.499	98.202	80.006	20.009	100.323	19.963	10.289	0.317
83.999	98.194	80.005	20.009	100.326	19.965	9.416	0.226
84.499	98.399	80.007	20.009	100.339	19.966	9.078	0.168
85.000	98.593	80.006	20.009	100.353	19.962	10.637	0.298
85.501	98.553	80.005	20.009	100.367	19.959	11.511	0.277
86.000	98.715	80.005	20.008	100.376	19.961	10.712	0.138
86.499	98.926	80.004	20.009	100.383	19.962	10.589	0.248
86.999	98.965	80.006	20.009	100.382	19.962	10.520	0.312
87.499	99.216	80.005	20.009	100.383	19.959	11.495	0.270
87.999	99.214	80.005	20.009	100.383	19.960	11.224	0.270
88.499	99.347	80.005	20.009	100.390	19.957	12.139	0.190
89.000	99.498	80.005	20.008	100.403	19.963	10.183	0.207
89.500	99.682	80.005	20.009	100.419	19.957	12.074	0.309
89.999	99.814	80.006	20.009	100.431	19.955	12.623	0.325
90.499	99.865	80.005	20.008	100.437	19.953	13.490	0.250
91.000	99.966	80.004	20.009	100.435	19.956	12.379	0.168
91.500	100.174	80.005	20.009	100.426	19.959	11.599	0.231
91.999	100.326	80.005	20.010	100.416	19.959	11.329	0.334
92.499	100.480	80.006	20.009	100.413	19.960	11.289	0.333
92.999	100.724	80.006	20.009	100.417	19.957	12.131	0.352
93.499	100.750	80.005	20.008	100.425	19.958	11.800	0.334
93.999	100.960	80.007	20.010	100.435	19.956	12.322	0.253
94.499	101.087	80.005	20.010	100.439	19.956	12.295	0.287
94.999	101.201	80.004	20.009	100.437	19.953	13.352	0.289
95.499	101.382	80.005	20.009	100.432	19.957	12.063	0.268
95.999	101.465	80.005	20.010	100.424	19.955	12.780	0.279
96.499	101.636	80.006	20.010	100.422	19.954	13.118	0.259
96.999	101.827	80.004	20.008	100.428	19.955	12.752	0.308
97.499	101.961	80.006	20.009	100.436	19.956	12.516	0.344
98.000	102.154	80.004	20.009	100.444	19.952	13.838	0.326
98.501	102.352	80.007	20.009	100.452	19.948	14.903	0.359
99.000	102.476	80.005	20.009	100.448	19.951	13.934	0.357
99.500	102.572	80.006	20.009	100.440	19.949	14.739	0.271
100.001	102.786	80.005	20.010	100.433	19.951	13.877	0.265
100.500	102.954	80.005	20.009	100.427	19.947	15.360	0.346
101.000	103.152	80.007	20.009	100.427	19.951	14.181	0.374
101.500	103.174	80.006	20.009	100.434	19.949	14.636	0.292
101.999	103.425	80.006	20.009	100.443	19.952	13.812	0.246
102.499	103.547	80.004	20.009	100.450	19.949	14.654	0.323
102.999	103.765	80.007	20.009	100.457	19.949	14.824	0.357
103.499	103.898	80.004	20.009	100.453	19.944	16.220	0.346
103.999	104.101	80.005	20.009	100.452	19.944	16.137	0.343
104.499	104.283	80.006	20.009	100.451	19.950	14.326	0.360
104.999	104.571	80.005	20.009	100.453	19.951	14.013	0.428
105.499	104.747	80.006	20.009	100.460	19.945	16.045	0.467
105.999	104.826	80.007	20.009	100.473	19.951	14.000	0.359
106.499	104.905	80.005	20.009	100.483	19.950	14.503	0.206
106.999	105.234	80.006	20.009	100.490	19.949	14.803	0.283
107.500	105.382	80.006	20.009	100.490	19.945	15.901	0.443
108.000	105.594	80.005	20.009	100.482	19.949	14.823	0.419
108.499	105.753	80.006	20.009	100.474	19.948	15.079	0.365
108.999	105.931	80.006	20.009	100.465	19.947	15.160	0.353
109.500	106.119	80.005	20.009	100.457	19.948	14.909	0.351
110.000	106.344	80.005	20.008	100.459	19.942	17.024	0.390
110.499	106.484	80.005	20.009	100.468	19.945	15.983	0.390
110.999	106.568	80.005	20.010	100.474	19.945	16.019	0.295
111.499	106.869	80.006	20.009	100.478	19.940	17.491	0.304
111.999	106.981	80.006	20.009	100.478	19.939	17.816	0.399
112.499	107.121	80.005	20.009	100.471	19.942	16.894	0.332
112.999	107.416	80.006	20.009	100.461	19.945	16.031	0.344
113.499	107.620	80.005	20.010	100.453	19.945	15.983	0.467
113.999	107.776	80.006	20.009	100.455	19.940	17.596	0.429
114.499	107.949	80.005	20.009	100.463	19.944	16.161	0.344
114.999	108.141	80.004	20.009	100.476	19.943	16.555	0.347
115.499	108.436	80.006	20.009	100.487	19.940	17.499	0.426
115.999	108.727	80.007	20.009	100.495	19.941	17.288	0.537
116.499	108.785	80.006	20.009	100.490	19.937	18.548	0.467
116.999	108.981	80.005	20.009	100.480	19.942	16.865	0.302
117.499	109.241	80.005	20.009	100.470	19.939	17.969	0.355
117.999	109.374	80.005	20.009	100.461	19.940	17.543	0.424
118.499	109.630	80.007	20.009	100.460	19.942	16.962	0.391
118.999	109.839	80.005	20.009	100.468	19.939	17.811	0.427
119.499	109.938	80.005	20.009	100.479	19.948	14.916	0.386
119.999	110.226	80.005	20.009	100.488	19.939	17.730	0.348
120.499	110.490	80.005	20.009	100.492	19.942	16.880	0.469
120.999	110.768	80.006	20.009	100.487	19.945	15.977	0.547
121.500	110.854	80.006	20.009	100.479	19.940	17.596	0.453
122.000	111.235	80.006	20.009	100.475	19.943	16.492	0.416
122.499	111.358	80.006	20.008	100.474	19.941	17.089	0.486
122.999	111.637	80.006	20.009	100.478	19.942	16.866	0.453
123.499	111.829	80.005	20.009	100.492	19.942	17.070	0.437
123.999	112.068	80.006	20.008	100.507	19.938	18.134	0.451
124.500	112.264	80.006	20.008	100.513	19.939	17.766	0.433
125.000	112.479	80.005	20.009	100.512	19.944	16.320	0.423
125.499	112.758	80.007	20.009	100.509	19.944	16.238	0.453
125.999	112.896	80.003	20.009	100.495	19.940	17.505	0.455
126.499	113.272	80.006	20.009	100.491	19.944	16.313	0.465
126.999	113.328	80.006	20.008	100.493	19.944	16.186	0.473
127.499	113.579	80.005	20.009	100.503	19.942	16.953	0.370
127.999	113.836	80.005	20.008	100.512	19.944	16.417	0.408
128.500	114.105	80.005	20.009	100.519	19.944	16.416	0.517
129.000	114.425	80.006	20.009	100.513	19.947	15.364	0.557
129.500	114.659	80.006	20.009	100.507	19.946	15.723	0.571
130.000	114.720	80.005	20.009	100.499	19.944	16.129	0.425
130.500	115.151	80.005	20.009	100.494	19.944	16.238	0.394
131.000	115.401	80.006	20.009	100.500	19.945	15.996	0.586
131.500	115.582	80.005	20.009	100.512	19.941	17.122	0.556
132.000	115.789	80.005	20.008	100.520	19.941	17.386	0.410
132.500	115.893	80.004	20.009	100.521	19.945	16.009	0.349
133.000	116.536	80.007	20.010	100.520	19.945	16.069	0.529
133.500	116.509	80.005	20.009	100.508	19.945	15.925	0.682
134.000	116.743	80.006	20.009	100.499	19.939	17.801	0.412
134.500	117.012	80.004	20.009	100.492	19.941	17.306	0.355
135.000	117.209	80.005	20.008	100.496	19.946	15.687	0.485
135.500	117.715	80.005	20.008	100.501	19.941	17.321	0.585
136.000	117.891	80.007	20.009	100.506	19.946	15.613	0.693
136.500	118.202	80.003	20.009	100.507	19.945	16.093	0.585
137.000	118.398	80.006	20.009	100.506	19.946	15.720	0.497
137.500	118.564	80.005	20.009	100.493	19.947	15.333	0.435
138.000	118.847	80.004	20.010	100.481	19.943	16.634	0.405
138.500	119.079	80.006	20.009	100.478	19.943	16.498	0.482
139.000	119.430	80.005	20.009	100.478	19.940	17.570	0.549
139.500	119.580	80.004	20.008	100.480	19.946	15.483	0.542
140.000	119.835	80.005	20.009	100.489	19.940	17.543	0.453
140.500	120.141	80.006	20.009	100.496	19.943	16.735	0.483
141.000	120.551	80.006	20.009	100.495	19.943	16.606	0.639
141.500	120.730	80.004	20.009	100.487	19.938	18.163	0.653
142.000	120.916	80.005	20.009	100.478	19.941	17.181	0.477
142.500	121.303	80.005	20.009	100.475	19.939	17.852	0.469
143.000	121.494	80.005	20.009	100.475	19.946	15.671	0.575
143.500	121.847	80.005	20.009	100.479	19.946	15.490	0.561
144.000	122.130	80.005	20.009	100.488	19.945	15.999	0.590
144.500	122.363	80.007	20.009	100.496	19.945	16.006	0.576
145.000	122.660	80.005	20.009	100.493	19.945	15.802	0.523
145.500	122.920	80.004	20.009	100.486	19.946	15.774	0.543
146.000	123.199	80.005	20.009	100.477	19.945	15.860	0.548
146.500	123.396	80.005	20.009	100.470	19.945	16.103	0.507
147.000	123.740	80.005	20.009	100.462	19.944	16.306	0.508
147.500	123.921	80.005	20.009	100.463	19.950	14.498	0.533
148.000	124.265	80.004	20.009	100.463	19.946	15.589	0.525
148.500	124.612	80.004	20.008	100.468	19.946	15.624	0.608
149.000	124.756	80.005	20.010	100.465	19.944	16.254	0.591
149.500	125.200	80.004	20.010	100.461	19.943	16.592	0.540
150.000	125.461	80.006	20.010	100.456	19.946	15.656	0.647
150.500	125.632	80.006	20.009	100.455	19.948	15.066	0.568
151.000	125.986	80.006	20.009	100.451	19.945	15.912	0.478
151.500	125.996	80.003	20.009	100.452	19.942	17.038	0.444
152.000	126.524	80.004	20.008	100.458	19.948	15.061	0.451
152.500	126.722	80.003	20.008	100.458	19.947	15.244	0.632
153.000	127.138	80.006	20.009	100.458	19.948	15.055	0.670
153.500	127.376	80.005	20.009	100.452	19.948	15.027	0.634
154.000	127.677	80.006	20.010	100.446	19.951	13.996	0.596
154.500	127.800	80.004	20.008	100.442	19.948	15.025	0.481
155.000	128.104	80.005	20.009	100.442	19.944	16.244	0.425
155.500	128.511	80.006	20.009	100.443	19.947	15.384	0.569
156.000	128.641	80.005	20.009	100.449	19.947	15.284	0.624
156.500	129.062	80.006	20.009	100.463	19.944	16.173	0.544
157.000	129.256	80.004	20.009	100.468	19.944	16.295	0.583
157.500	129.446	80.004	20.009	100.468	19.945	16.078	0.500
158.000	129.925	80.007	20.010	100.465	19.944	16.144	0.526
158.500	130.062	80.006	20.009	100.456	19.945	15.953	0.642
159.000	130.523	80.004	20.009	100.443	19.942	16.840	0.607
159.500	130.797	80.005	20.009	100.437	19.947	15.214	0.667
160.000	130.992	80.005	20.009	100.437	19.945	15.948	0.602
160.500	131.298	80.005	20.009	100.440	19.943	16.742	0.485
161.000	131.683	80.006	20.009	100.447	19.948	14.845	0.596
161.500	131.871	80.006	20.009	100.453	19.948	15.021	0.632
162.000	132.216	80.005	20.009	100.449	19.955	12.858	0.553
162.500	132.476	80.006	20.009	100.443	19.940	17.463	0.569
163.000	132.710	80.006	20.010	100.438	19.944	16.412	0.550
163.500	133.161	80.005	20.009	100.436	19.949	14.815	0.589
164.000	133.472	80.006	20.009	100.433	19.941	17.180	0.723
164.500	133.568	80.005	20.008	100.439	19.944	16.368	0.585
165.000	133.908	80.005	20.009	100.444	19.945	16.015	0.422
165.500	134.120	80.005	20.009	100.450	19.943	16.563	0.494
166.000	134.486	80.004	20.009	100.450	19.951	13.980	0.565
166.500	134.776	80.005	20.009	100.443	19.947	15.326	0.617
167.000	135.157	80.007	20.010	100.436	19.948	15.075	0.664
167.500	135.366	80.006	20.010	100.431	19.947	15.441	0.631
168.000	135.716	80.005	20.009	100.430	19.952	13.790	0.574
168.500	136.009	80.004	20.009	100.433	19.945	15.864	0.601
169.000	136.273	80.005	20.009	100.442	19.948	14.889	0.601
169.500	136.783	80.006	20.009	100.449	19.950	14.381	0.665
170.000	137.089	80.007	20.009	100.456	19.948	14.867	0.795
170.500	137.210	80.006	20.008	100.449	19.955	12.814	0.622
171.000	137.400	80.004	20.010	100.439	19.942	16.817	0.369
171.500	137.763	80.005	20.009	100.432	19.943	16.676	0.432
172.000	138.006	80.005	20.009	100.430	19.947	15.309	0.579
172.500	138.419	80.007	20.009	100.431	19.945	16.050	0.631
173.000	138.545	80.004	20.008	100.442	19.951	14.092	0.597
173.500	138.927	80.005	20.009	100.451	19.944	16.293	0.523
174.000	139.259	80.004	20.009	100.454	19.948	14.874	0.611
174.500	139.476	80.004	20.009	100.448	19.951	14.100	0.631
175.000	139.733	80.005	20.009	100.440	19.955	12.690	0.512
175.500	140.085	80.005	20.009	100.431	19.947	15.269	0.542
176.000	140.494	80.006	20.009	100.424	19.950	14.220	0.685
176.500	140.665	80.005	20.010	100.430	19.949	14.675	0.670
177.000	141.034	80.004	20.009	100.439	19.952	13.701	0.560
177.500	141.311	80.005	20.009	100.444	19.954	13.044	0.592
178.000	141.740	80.005	20.009	100.442	19.951	13.958	0.676
178.500	141.798	80.005	20.009	100.434	19.957	12.000	0.597
179.000	142.042	80.005	20.009	100.419	19.952	13.855	0.395
179.500	142.390	80.004	20.009	100.406	19.953	13.454	0.447
180.000	142.763	80.005	20.009	100.402	19.954	13.061	0.656
180.500	143.146	80.007	20.009	100.407	19.958	11.870	0.738
181.000	143.264	80.005	20.008	100.419	19.954	13.009	0.628
181.500	143.644	80.005	20.009	100.426	19.955	12.704	0.499
182.000	144.006	80.005	20.009	100.430	19.955	12.765	0.620
182.500	144.173	80.005	20.009	100.426	19.954	13.082	0.636
183.000	144.754	80.006	20.010	100.418	19.951	14.157	0.639
183.500	144.776	80.004	20.009	100.410	19.953	13.438	0.676
184.000	145.147	80.006	20.009	100.415	19.959	11.563	0.497
184.500	145.478	80.006	20.010	100.421	19.959	11.361	0.547
185.000	145.824	80.007	20.009	100.432	19.953	13.366	0.690
185.500	146.112	80.006	20.008	100.443	19.959	11.364	0.655
186.000	146.226	80.004	20.009	100.446	19.953	13.294	0.518
186.500	146.705	80.004	20.008	100.438	19.959	11.385	0.498
187.000	146.845	80.005	20.009	100.420	19.949	14.526	0.606
187.500	146.958	80.006	20.009	100.406	19.954	13.150	0.436
188.000	147.490	80.004	20.009	100.394	19.956	12.452	0.449
188.500	147.637	80.005	20.010	100.391	19.951	14.171	0.662
189.000	148.014	80.005	20.008	100.395	19.956	12.445	0.601
189.500	148.239	80.007	20.009	100.404	19.960	11.254	0.562
190.000	148.518	80.005	20.008	100.412	19.954	13.036	0.553
190.500	148.844	80.004	20.008	100.414	19.953	13.266	0.555
191.000	149.139	80.005	20.009	100.409	19.955	12.710	0.613
191.500	149.495	80.006	20.010	100.400	19.952	13.676	0.636
192.000	149.843	80.008	20.010	100.394	19.956	12.396	0.677
192.500	149.866	80.003	20.009	100.385	19.959	11.455	0.537
193.000	150.502	80.007	20.009	100.386	19.953	13.446	0.515
193.500	150.639	80.004	20.009	100.394	19.953	13.292	0.715
194.000	151.084	80.008	20.009	100.401	19.957	12.203	0.677
194.500	151.310	80.004	20.009	100.401	19.951	14.146	0.627
195.000	151.499	80.005	20.009	100.398	19.951	14.125	0.543
195.500	151.825	80.005	20.009	100.390	19.952	13.751	0.465
196.000	151.969	80.005	20.009	100.377	19.950	14.412	0.493
196.500	152.446	80.005	20.009	100.370	19.956	12.508	0.545
197.000	152.684	80.006	20.009	100.369	19.955	12.800	0.668
197.500	153.020	80.007	20.009	100.377	19.952	13.660	0.644
198.000	153.140	80.005	20.009	100.389	19.950	14.447	0.515
198.500	153.531	80.005	20.009	100.403	19.951	14.136	0.483
199.000	153.732	80.006	20.009	100.408	19.956	12.416	0.552
199.500	154.017	80.006	20.008	100.409	19.957	12.090	0.539
200.000	154.310	80.004	20.009	100.403	19.954	12.942	0.532
200.500	154.709	80.006	20.009	100.394	19.958	11.899	0.635
201.000	154.739	80.004	20.009	100.385	19.949	14.567	0.561
201.500	155.392	80.006	20.009	100.382	19.955	12.727	0.556
202.000	155.305	80.004	20.009	100.387	19.949	14.536	0.624
202.500	155.732	80.005	20.008	100.393	19.951	13.954	0.453
203.000	155.916	80.006	20.009	100.397	19.950	14.278	0.475
203.500	156.343	80.006	20.009	100.398	19.954	13.119	0.611
204.000	156.557	80.006	20.010	100.392	19.952	13.564	0.626
204.500	156.770	80.005	20.009	100.379	19.954	13.035	0.534
205.000	157.112	80.005	20.009	100.373	19.956	12.332	0.491
205.500	157.451	80.005	20.009	100.371	19.949	14.614	0.618
206.000	157.694	80.005	20.009	100.375	19.949	14.507	0.632
206.500	157.929	80.006	20.009	100.387	19.953	13.465	0.530
207.000	158.299	80.004	20.009	100.399	19.950	14.223	0.542
207.500	158.505	80.007	20.008	100.397	19.953	13.281	0.590
208.000	158.861	80.006	20.010	100.389	19.950	14.227	0.569
208.500	159.167	80.006	20.009	100.378	19.954	13.109	0.612
209.000	159.391	80.006	20.010	100.361	19.952	13.678	0.596
209.500	159.478	80.003	20.009	100.352	19.949	14.701	0.421
210.000	159.853	80.005	20.008	100.354	19.953	13.451	0.386
210.500	160.051	80.004	20.009	100.360	19.951	14.128	0.517
211.000	160.389	80.007	20.009	100.368	19.953	13.329	0.554
211.500	160.677	80.006	20.009	100.375	19.954	13.213	0.581
212.000	160.980	80.006	20.010	100.372	19.949	14.762	0.608
212.500	161.277	80.006	20.009	100.364	19.949	14.544	0.596
213.000	161.598	80.007	20.009	100.356	19.950	14.484	0.609
213.500	161.834	80.005	20.010	100.352	19.949	14.654	0.587
214.000	162.170	80.004	20.009	100.356	19.954	13.023	0.564
214.500	162.428	80.006	20.009	100.367	19.950	14.289	0.583
215.000	162.766	80.005	20.009	100.376	19.950	14.180	0.595
215.500	162.974	80.005	20.008	100.381	19.949	14.720	0.571
216.000	163.215	80.006	20.009	100.375	19.953	13.413	0.497
216.500	163.527	80.003	20.009	100.364	19.945	16.079	0.501
217.000	163.684	80.006	20.009	100.351	19.950	14.381	0.511
217.500	164.214	80.005	20.010	100.342	19.940	17.590	0.578
218.000	164.210	80.006	20.009	100.346	19.949	14.761	0.607
218.500	164.408	80.005	20.009	100.355	19.945	15.938	0.360
219.000	164.790	80.006	20.008	100.365	19.943	16.559	0.387
219.500	165.232	80.004	20.009	100.370	19.948	14.995	0.702
220.000	165.390	80.005	20.009	100.369	19.946	15.529	0.712
220.500	165.601	80.004	20.009	100.358	19.946	15.495	0.484
221.000	166.037	80.006	20.009	100.349	19.941	17.363	0.508
221.500	166.122	80.005	20.009	100.339	19.944	16.181	0.584
222.000	166.377	80.005	20.009	100.343	19.935	19.248	0.431
222.500	166.663	80.004	20.008	100.351	19.940	17.630	0.440
223.000	166.946	80.004	20.008	100.361	19.937	18.556	0.555
223.500	167.347	80.004	20.009	100.366	19.940	17.433	0.627
224.000	167.574	80.007	20.009	100.366	19.939	17.832	0.656
224.500	167.788	80.005	20.009	100.356	19.937	18.434	0.534
225.000	168.090	80.006	20.009	100.347	19.936	18.774	0.478
225.500	168.335	80.006	20.009	100.341	19.936	18.957	0.531
226.000	168.698	80.005	20.009	100.344	19.937	18.572	0.577
226.500	168.947	80.006	20.009	100.352	19.938	18.301	0.610
227.000	169.279	80.006	20.009	100.354	19.941	17.224	0.597
227.500	169.421	80.006	20.009	100.355	19.943	16.696	0.528
228.000	169.702	80.005	20.010	100.349	19.937	18.496	0.448
228.500	169.895	80.008	20.010	100.341	19.940	17.576	0.448
229.000	170.219	80.004	20.009	100.334	19.935	19.092	0.496
229.500	170.321	80.005	20.009	100.332	19.933	19.891	0.471
230.000	170.685	80.004	20.009	100.334	19.936	18.922	0.446
230.500	170.941	80.005	20.008	100.342	19.936	18.806	0.543
231.000	171.348	80.006	20.009	100.344	19.938	18.283	0.642
231.500	171.437	80.005	20.008	100.340	19.934	19.487	0.580
232.000	171.915	80.006	20.010	100.331	19.937	18.594	0.531
232.500	171.927	80.005	20.009	100.321	19.940	17.417	0.528
233.000	172.467	80.006	20.009	100.317	19.940	17.669	0.521
233.500	172.403	80.007	20.009	100.315	19.938	18.090	0.515
234.000	172.830	80.005	20.008	100.323	19.938	18.123	0.420
234.500	173.004	80.005	20.009	100.331	19.941	17.310	0.482
235.000	173.286	80.006	20.008	100.339	19.937	18.331	0.529
235.500	173.623	80.006	20.009	100.337	19.937	18.445	0.537
236.000	173.807	80.005	20.009	100.334	19.936	18.675	0.569
236.500	174.150	80.007	20.009	100.332	19.934	19.516	0.524
237.000	174.332	80.006	20.009	100.332	19.935	19.171	0.527
237.500	174.594	80.005	20.009	100.334	19.936	18.779	0.484
238.000	174.762	80.006	20.009	100.337	19.934	19.366	0.437
238.500	175.034	80.005	20.008	100.344	19.939	17.890	0.435
239.000	175.246	80.004	20.009	100.344	19.938	18.227	0.462
239.500	175.629	80.006	20.009	100.344	19.936	18.802	0.539
240.000	175.871	80.005	20.009	100.342	19.936	18.751	0.610
240.500	176.058	80.005	20.009	100.341	19.937	18.456	0.527
241.000	176.317	80.005	20.009	100.338	19.933	19.798	0.437
241.500	176.497	80.005	20.008	100.340	19.934	19.352	0.442
242.000	176.692	80.004	20.008	100.341	19.932	20.123	0.407
242.500	177.031	80.005	20.009	100.341	19.933	19.831	0.455
243.000	177.282	80.004	20.008	100.338	19.937	18.422	0.562
243.500	177.643	80.005	20.009	100.330	19.937	18.381	0.601
244.000	177.802	80.005	20.009	100.321	19.937	18.462	0.566
244.500	178.193	80.007	20.009	100.316	19.934	19.540	0.535
245.000	178.241	80.006	20.009	100.316	19.938	18.017	0.494
245.500	178.488	80.006	20.009	100.321	19.937	18.545	0.368
246.000	178.841	80.005	20.009	100.330	19.934	19.424	0.448
246.500	179.124	80.006	20.009	100.336	19.930	20.783	0.618
247.000	179.334	80.005	20.010	100.333	19.931	20.431	0.564
247.500	179.661	80.006	20.010	100.327	19.937	18.387	0.515
248.000	179.817	80.005	20.009	100.320	19.933	19.925	0.510
248.500	180.231	80.005	20.009	100.317	19.937	18.635	0.527
249.000	180.520	80.005	20.009	100.318	19.936	18.853	0.636
249.500	180.563	80.004	20.008	100.325	19.937	18.521	0.517
250.000	180.906	80.005	20.009	100.330	19.943	16.646	0.359
250.500	181.076	80.005	20.009	100.329	19.941	17.220	0.450
251.000	181.360	80.005	20.009	100.322	19.941	17.300	0.483
251.500	181.712	80.006	20.009	100.315	19.941	17.179	0.544
252.000	181.817	80.005	20.009	100.308	19.941	17.153	0.547
252.500	182.246	80.008	20.010	100.311	19.940	17.629	0.496
253.000	182.436	80.006	20.009	100.323	19.941	17.264	0.576
253.500	182.648	80.005	20.008	100.340	19.941	17.326	0.510
254.000	182.914	80.005	20.009	100.349	19.943	16.580	0.440
254.500	183.116	80.005	20.009	100.356	19.943	16.532	0.473
255.000	183.383	80.005	20.009	100.352	19.947	15.307	0.469
255.500	183.666	80.005	20.009	100.345	19.943	16.736	0.510
256.000	183.838	80.005	20.009	100.337	19.945	15.992	0.502
256.500	184.179	80.004	20.009	100.336	19.943	16.568	0.484
257.000	184.446	80.006	20.009	100.338	19.945	15.783	0.561
257.500	184.678	80.007	20.009	100.344	19.942	16.770	0.554
258.000	184.857	80.006	20.009	100.347	19.946	15.699	0.455
258.500	185.091	80.006	20.009	100.347	19.949	14.655	0.412
259.000	185.365	80.003	20.009	100.341	19.945	15.819	0.461
259.500	185.672	80.005	20.009	100.336	19.947	15.399	0.545
260.000	185.723	80.006	20.009	100.335	19.949	14.568	0.469
260.500	186.174	80.006	20.010	100.335	19.945	15.869	0.430
261.000	186.432	80.005	20.008	100.343	19.950	14.386	0.605
261.500	186.600	80.005	20.009	100.356	19.945	15.909	0.567
262.000	186.815	80.006	20.009	100.363	19.943	16.591	0.404
262.500	186.972	80.005	20.009	100.364	19.947	15.250	0.378
263.000	187.336	80.006	20.009	100.363	19.953	13.428	0.447
263.500	187.629	80.005	20.009	100.355	19.953	13.409	0.589
264.000	187.765	80.006	20.009	100.349	19.951	13.884	0.543
264.500	188.127	80.004	20.009	100.354	19.950	14.204	0.464
265.000	188.339	80.006	20.009	100.361	19.956	12.539	0.536
265.500	188.551	80.005	20.009	100.369	19.953	13.297	0.499
266.000	188.898	80.005	20.008	100.375	19.958	11.861	0.492
266.500	189.161	80.006	20.009	100.382	19.954	13.152	0.584
267.000	189.217	80.005	20.008	100.374	19.956	12.481	0.465
267.500	189.625	80.005	20.010	100.372	19.956	12.500	0.392
268.000	189.813	80.006	20.009	100.372	19.957	11.987	0.530
268.500	190.092	80.005	20.009	100.376	19.961	10.810	0.531
269.000	190.428	80.006	20.009	100.377	19.960	11.021	0.541
269.500	190.647	80.005	20.009	100.384	19.958	11.894	0.585
270.000	190.819	80.006	20.009	100.384	19.957	12.043	0.473
270.500	191.118	80.006	20.009	100.376	19.958	11.934	0.431
271.000	191.238	80.005	20.009	100.365	19.961	10.681	0.445
271.500	191.449	80.005	20.009	100.355	19.961	10.673	0.375
272.000	191.865	80.006	20.009	100.354	19.961	10.965	0.479
272.500	192.068	80.006	20.009	100.355	19.960	11.040	0.623
273.000	192.341	80.004	20.009	100.364	19.963	10.201	0.547
273.500	192.547	80.007	20.008	100.371	19.965	9.667	0.477
274.000	192.859	80.006	20.009	100.373	19.963	10.081	0.499
274.500	193.103	80.004	20.009	100.367	19.961	10.697	0.537
275.000	193.309	80.007	20.009	100.359	19.961	10.689	0.503
275.500	193.523	80.004	20.010	100.351	19.963	10.174	0.435
276.000	193.816	80.006	20.009	100.348	19.962	10.363	0.463
276.500	194.085	80.006	20.010	100.353	19.959	11.357	0.535
277.000	194.295	80.006	20.009	100.363	19.967	8.976	0.521
277.500	194.339	80.004	20.008	100.374	19.973	6.979	0.367
278.000	194.613	80.005	20.009	100.382	19.968	8.442	0.286
278.500	194.991	80.005	20.009	100.379	19.973	7.135	0.485
279.000	195.332	80.006	20.009	100.372	19.969	8.150	0.685
279.500	195.580	80.005	20.009	100.358	19.963	10.112	0.654
280.000	195.771	80.006	20.009	100.347	19.971	7.736	0.514
280.500	196.167	80.006	20.010	100.341	19.971	7.641	0.513
281.000	196.327	80.004	20.008	100.348	19.966	9.205	0.571
281.500	196.492	80.004	20.009	100.355	19.972	7.418	0.441
282.000	196.731	80.005	20.008	100.366	19.967	8.881	0.365
282.500	197.057	80.005	20.009	100.367	19.963	10.167	0.484
283.000	197.296	80.006	20.009	100.364	19.967	8.773	0.565
283.500	197.560	80.005	20.009	100.355	19.970	8.007	0.534
284.000	197.778	80.005	20.009	100.350	19.975	6.294	0.493
284.500	198.086	80.006	20.009	100.343	19.969	8.404	0.504
285.000	198.486	80.007	20.009	100.348	19.976	6.178	0.617
285.500	198.530	80.005	20.009	100.354	19.971	7.471	0.576
286.000	198.871	80.005	20.009	100.362	19.967	8.921	0.415
286.500	198.997	80.005	20.009	100.370	19.966	9.376	0.426
287.000	199.276	80.005	20.009	100.376	19.974	6.519	0.436
287.500	199.458	80.004	20.009	100.372	19.968	8.455	0.433
288.000	199.728	80.004	20.009	100.364	19.969	8.232	0.456
288.500	200.021	80.005	20.009	100.356	19.971	7.724	0.508
289.000	200.303	80.004	20.009	100.349	19.969	8.150	0.569
289.500	200.593	80.006	20.009	100.349	19.964	9.965	0.573
290.000	200.832	80.003	20.008	100.356	19.970	7.982	0.551
290.500	201.110	80.006	20.009	100.364	19.967	8.929	0.524
291.000	201.362	80.005	20.009	100.368	19.969	8.190	0.524
291.500	201.526	80.005	20.009	100.365	19.965	9.481	0.473
292.000	201.737	80.005	20.009	100.358	19.964	9.724	0.395
292.500	202.152	80.006	20.010	100.349	19.965	9.629	0.500
293.000	202.348	80.006	20.009	100.343	19.969	8.425	0.618
293.500	202.668	80.005	20.009	100.339	19.966	9.076	0.564
294.000	202.873	80.005	20.009	100.342	19.969	8.353	0.521
294.500	203.124	80.005	20.008	100.350	19.968	8.490	0.490
295.000	203.370	80.006	20.009	100.358	19.966	9.349	0.476
295.500	203.600	80.006	20.009	100.359	19.967	8.983	0.487
296.000	203.948	80.005	20.009	100.359	19.967	8.941	0.527
296.500	204.186	80.006	20.009	100.350	19.963	10.137	0.582
297.000	204.191	80.004	20.009	100.334	19.970	7.978	0.414
297.500	204.674	80.005	20.009	100.325	19.970	7.836	0.366
298.000	204.864	80.006	20.009	100.325	19.971	7.614	0.581
298.500	205.063	80.005	20.009	100.333	19.970	8.021	0.531
299.000	205.416	80.005	20.009	100.350	19.968	8.597	0.470
299.500	205.635	80.005	20.009	100.365	19.974	6.790	0.562
300.000	206.099	80.006	20.009	100.368	19.968	8.596	0.628
300.500	206.155	80.005	20.009	100.363	19.965	9.489	0.602
301.000	206.609	80.007	20.009	100.362	19.969	8.182	0.515
301.500	206.698	80.006	20.009	100.359	19.972	7.262	0.526
302.000	206.879	80.005	20.009	100.360	19.968	8.596	0.406
302.500	207.213	80.007	20.009	100.364	19.971	7.724	0.393
303.000	207.611	80.005	20.009	100.368	19.962	10.526	0.624
303.500	207.674	80.006	20.010	100.359	19.971	7.757	0.596
304.000	207.898	80.005	20.008	100.349	19.965	9.394	0.374
304.500	208.288	80.007	20.010	100.335	19.969	8.202	0.451
305.000	208.418	80.004	20.009	100.325	19.967	9.000	0.567
305.500	208.576	80.007	20.010	100.324	19.969	8.249	0.403
306.000	208.958	80.006	20.009	100.332	19.970	8.013	0.414
306.500	209.210	80.006	20.009	100.345	19.969	8.292	0.588
307.000	209.471	80.006	20.009	100.359	19.971	7.676	0.574
307.500	209.670	80.004	20.009	100.371	19.970	7.952	0.486
308.000	209.985	80.007	20.009	100.371	19.970	8.052	0.487
308.500	210.281	80.006	20.009	100.358	19.972	7.151	0.563
309.000	210.459	80.006	20.010	100.343	19.969	8.315	0.543
309.500	210.674	80.005	20.009	100.328	19.968	8.667	0.433
310.000	211.058	80.007	20.010	100.321	19.971	7.755	0.496
310.500	211.320	80.008	20.009	100.324	19.964	9.828	0.623
311.000	211.445	80.005	20.009	100.338	19.966	9.131	0.517
311.500	211.748	80.007	20.009	100.354	19.969	8.305	0.407
312.000	211.981	80.006	20.009	100.364	19.970	7.899	0.482
312.500	212.249	80.006	20.010	100.365	19.965	9.671	0.519
313.000	212.566	80.007	20.010	100.355	19.972	7.411	0.544
313.500	212.835	80.004	20.009	100.345	19.968	8.609	0.586
314.000	213.089	80.006	20.009	100.337	19.965	9.477	0.554
314.500	213.252	80.007	20.009	100.342	19.968	8.543	0.470
315.000	213.461	80.004	20.009	100.349	19.968	8.496	0.395
315.500	213.903	80.006	20.009	100.361	19.974	6.729	0.512
316.000	214.081	80.006	20.009	100.361	19.968	8.650	0.635
316.500	214.276	80.006	20.009	100.353	19.970	8.067	0.497
317.000	214.693	80.006	20.010	100.337	19.963	10.178	0.493
317.500	215.036	80.006	20.009	100.326	19.968	8.514	0.685
318.000	214.997	80.005	20.008	100.321	19.968	8.704	0.532
318.500	215.416	80.006	20.008	100.331	19.965	9.477	0.342
319.000	215.509	80.005	20.009	100.344	19.964	9.796	0.446
319.500	216.098	80.006	20.009	100.354	19.966	9.382	0.598
320.000	216.152	80.006	20.009	100.353	19.961	10.959	0.663
320.500	216.570	80.007	20.010	100.341	19.966	9.334	0.558
321.000	216.746	80.006	20.010	100.318	19.965	9.583	0.533
321.500	216.939	80.006	20.009	100.306	19.967	9.001	0.481
322.000	217.140	80.004	20.009	100.303	19.963	10.199	0.382
322.500	217.482	80.005	20.008	100.312	19.968	8.461	0.468
323.000	217.891	80.006	20.009	100.331	19.967	9.023	0.647
323.500	218.187	80.007	20.009	100.346	19.964	9.856	0.728
324.000	218.339	80.006	20.009	100.353	19.967	9.030	0.576
324.500	218.647	80.004	20.009	100.351	19.964	10.004	0.454
325.000	218.870	80.007	20.009	100.345	19.967	9.048	0.495
325.500	219.047	80.005	20.009	100.339	19.965	9.636	0.465
326.000	219.351	80.005	20.008	100.341	19.966	9.189	0.440
326.500	219.641	80.007	20.009	100.349	19.964	9.961	0.538
327.000	219.843	80.006	20.009	100.361	19.963	10.070	0.543
327.500	220.237	80.005	20.009	100.367	19.965	9.394	0.544
328.000	220.469	80.006	20.009	100.365	19.967	8.846	0.611
328.500	220.641	80.007	20.009	100.359	19.971	7.722	0.516
329.000	221.039	80.007	20.009	100.349	19.967	8.953	0.487
329.500	221.218	80.006	20.010	100.338	19.968	8.512	0.573
330.000	221.474	80.005	20.009	100.333	19.967	8.959	0.505
330.500	221.820	80.005	20.009	100.337	19.968	8.742	0.518
331.000	222.028	80.005	20.009	100.347	19.967	8.804	0.578
331.500	222.376	80.005	20.008	100.358	19.967	8.974	0.556
332.000	222.593	80.007	20.009	100.365	19.972	7.437	0.561
332.500	222.852	80.006	20.009	100.363	19.973	6.855	0.520
333.000	222.919	80.006	20.009	100.356	19.970	7.849	0.401
333.500	223.516	80.006	20.010	100.348	19.972	7.259	0.495
334.000	223.534	80.004	20.008	100.340	19.970	7.868	0.639
334.500	223.752	80.005	20.009	100.335	19.975	6.352	0.425
335.000	224.129	80.006	20.009	100.338	19.975	6.475	0.416
335.500	224.351	80.005	20.008	100.348	19.971	7.497	0.597
336.000	224.508	80.005	20.009	100.355	19.973	6.882	0.489
336.500	224.878	80.005	20.008	100.359	19.973	7.119	0.452
337.000	225.260	80.007	20.009	100.359	19.975	6.388	0.639
337.500	225.362	80.005	20.008	100.350	19.973	6.976	0.618
338.000	225.685	80.006	20.010	100.336	19.967	8.871	0.454
338.500	225.963	80.006	20.009	100.326	19.971	7.517	0.513
339.000	226.204	80.005	20.009	100.321	19.969	8.322	0.561
339.500	226.367	80.003	20.008	100.322	19.974	6.645	0.462
340.000	226.838	80.006	20.009	100.331	19.972	7.261	0.519
340.500	226.895	80.005	20.008	100.339	19.969	8.385	0.581
341.000	227.206	80.005	20.009	100.343	19.973	6.970	0.448
341.500	227.557	80.007	20.009	100.337	19.969	8.242	0.515
342.000	227.841	80.006	20.009	100.329	19.973	6.834	0.648
342.500	228.028	80.005	20.009	100.319	19.973	6.949	0.553
343.000	228.375	80.007	20.009	100.318	19.970	7.930	0.502
343.500	228.603	80.006	20.009	100.318	19.970	7.999	0.554
344.000	228.877	80.005	20.009	100.326	19.969	8.270	0.539
344.500	229.198	80.006	20.009	100.334	19.974	6.700	0.549
345.000	229.404	80.004	20.008	100.333	19.973	7.092	0.561
345.500	229.675	80.005	20.009	100.326	19.971	7.674	0.502
346.000	229.934	80.006	20.009	100.314	19.970	7.795	0.504
346.500	230.302	80.006	20.010	100.303	19.973	7.010	0.579
347.000	230.572	80.006	20.010	100.296	19.975	6.252	0.633
347.500	230.736	80.006	20.009	100.299	19.973	6.956	0.536
348.000	231.111	80.007	20.009	100.306	19.972	7.153	0.486
348.500	231.407	80.005	20.009	100.318	19.974	6.747	0.605
349.000	231.474	80.003	20.008	100.328	19.974	6.517	0.517
349.500	231.933	80.006	20.009	100.335	19.971	7.592	0.445
350.000	232.113	80.005	20.009	100.330	19.975	6.265	0.583
350.500	232.347	80.006	20.009	100.323	19.974	6.576	0.526
351.000	232.691	80.006	20.009	100.317	19.975	6.434	0.496
351.500	232.910	80.005	20.009	100.316	19.975	6.285	0.571
352.000	233.212	80.006	20.009	100.316	19.974	6.807	0.542
352.500	233.368	80.005	20.009	100.324	19.978	5.542	0.489
353.000	233.742	80.006	20.009	100.333	19.980	4.818	0.494
353.500	233.919	80.006	20.009	100.334	19.973	7.017	0.541
354.000	234.113	80.006	20.009	100.328	19.972	7.361	0.461
354.500	234.453	80.004	20.009	100.321	19.976	6.096	0.452
355.000	234.673	80.006	20.009	100.315	19.977	5.623	0.547
355.500	235.017	80.006	20.009	100.314	19.973	6.949	0.562
356.000	235.261	80.005	20.009	100.319	19.974	6.693	0.576
356.500	235.420	80.006	20.008	100.326	19.976	5.896	0.496
357.000	235.739	80.005	20.008	100.334	19.976	6.099	0.440
357.500	235.985	80.007	20.009	100.339	19.975	6.349	0.522
358.000	236.321	80.005	20.009	100.337	19.977	5.678	0.573
358.500	236.532	80.005	20.010	100.329	19.975	6.231	0.564
359.000	236.882	80.006	20.010	100.321	19.975	6.494	0.554
359.500	237.068	80.006	20.009	100.319	19.974	6.683	0.549
360.000	237.364	80.006	20.009	100.321	19.970	8.023	0.509
360.500	237.623	80.006	20.009	100.324	19.977	5.758	0.518
361.000	237.882	80.005	20.009	100.332	19.975	6.482	0.537
361.500	238.102	80.006	20.010	100.339	19.977	5.818	0.498
362.000	238.420	80.007	20.010	100.333	19.978	5.446	0.508
362.500	238.690	80.005	20.010	100.323	19.976	6.163	0.563
363.000	238.917	80.007	20.010	100.311	19.977	5.622	0.542
363.500	239.174	80.005	20.009	100.302	19.977	5.765	0.490
364.000	239.383	80.005	20.009	100.298	19.976	5.881	0.475
364.500	239.799	80.005	20.009	100.304	19.974	6.660	0.546
365.000	239.945	80.006	20.008	100.312	19.976	6.139	0.594
365.500	240.179	80.005	20.009	100.319	19.975	6.302	0.471
366.000	240.506	80.005	20.009	100.321	19.979	5.178	0.470
366.500	240.714	80.006	20.009	100.319	19.978	5.279	0.548
367.000	240.931	80.005	20.009	100.312	19.977	5.596	0.480
367.500	241.249	80.006	20.009	100.306	19.979	5.068	0.480
368.000	241.534	80.006	20.009	100.312	19.975	6.321	0.569
368.500	241.824	80.006	20.010	100.320	19.976	6.173	0.589
369.000	242.103	80.006	20.008	100.341	19.974	6.823	0.572
369.500	242.301	80.005	20.009	100.359	19.976	6.017	0.523
370.000	242.561	80.007	20.009	100.360	19.973	7.120	0.467
370.500	242.799	80.005	20.010	100.345	19.973	6.963	0.478
371.000	243.053	80.006	20.009	100.328	19.978	5.433	0.495
371.500	243.324	80.005	20.009	100.305	19.977	5.555	0.509
372.000	243.574	80.005	20.009	100.294	19.977	5.677	0.523
372.500	243.935	80.006	20.009	100.291	19.982	4.148	0.566
373.000	244.157	80.006	20.010	100.299	19.980	4.737	0.597
373.500	244.412	80.006	20.009	100.307	19.979	5.029	0.530
374.000	244.621	80.005	20.009	100.309	19.984	3.424	0.470
374.500	244.950	80.005	20.009	100.303	19.979	4.940	0.501
375.000	245.116	80.005	20.009	100.304	19.982	3.985	0.517
375.500	245.416	80.007	20.010	100.304	19.978	5.534	0.481
376.000	245.572	80.006	20.010	100.307	19.981	4.343	0.461
376.500	245.890	80.004	20.010	100.317	19.975	6.373	0.465
377.000	246.152	80.007	20.009	100.330	19.982	3.992	0.526
377.500	246.415	80.006	20.009	100.345	19.979	5.103	0.553
378.000	246.725	80.006	20.008	100.357	19.986	2.829	0.549
378.500	246.916	80.004	20.009	100.360	19.981	4.345	0.537
379.000	247.214	80.005	20.009	100.351	19.979	5.163	0.495
379.500	247.360	80.006	20.009	100.338	19.983	3.809	0.467
380.000	247.736	80.005	20.010	100.329	19.983	3.903	0.483
380.500	247.976	80.005	20.010	100.327	19.985	3.058	0.569
381.000	248.262	80.005	20.008	100.336	19.980	4.709	0.571
381.500	248.466	80.005	20.009	100.350	19.980	4.756	0.508
382.000	248.797	80.006	20.009	100.356	19.984	3.606	0.513
382.500	249.034	80.007	20.009	100.351	19.983	3.796	0.552
383.000	249.251	80.004	20.009	100.340	19.982	4.032	0.511
383.500	249.536	80.006	20.009	100.325	19.981	4.289	0.478
384.000	249.756	80.006	20.009	100.311	19.978	5.330	0.503
384.500	249.987	80.005	20.010	100.312	19.983	3.645	0.478
385.000	250.138	80.005	20.008	100.321	19.977	5.627	0.416
385.500	250.558	80.005	20.009	100.329	19.984	3.504	0.476
386.000	250.715	80.006	20.009	100.338	19.978	5.297	0.574
386.500	251.004	80.005	20.009	100.341	19.984	3.417	0.512
387.000	251.300	80.005	20.009	100.334	19.980	4.791	0.515
387.500	251.563	80.007	20.009	100.324	19.984	3.573	0.572
388.000	251.749	80.005	20.010	100.312	19.982	3.992	0.504
388.500	252.129	80.005	20.010	100.296	19.982	4.053	0.508
389.000	252.331	80.005	20.009	100.294	19.978	5.258	0.574
389.500	252.500	80.004	20.009	100.303	19.980	4.784	0.476
390.000	252.904	80.006	20.009	100.319	19.986	2.971	0.472
390.500	253.003	80.005	20.008	100.332	19.982	4.264	0.538
391.000	253.549	80.007	20.009	100.344	19.977	5.840	0.573
391.500	253.442	80.006	20.009	100.340	19.978	5.284	0.542
392.000	253.920	80.005	20.010	100.328	19.981	4.323	0.405
392.500	253.948	80.004	20.010	100.306	19.982	4.140	0.439
393.000	254.351	80.005	20.009	100.297	19.975	6.453	0.468
393.500	254.618	80.006	20.009	100.291	19.984	3.348	0.550
394.000	254.971	80.006	20.009	100.299	19.981	4.532	0.645
394.500	255.117	80.005	20.009	100.308	19.979	4.945	0.560
395.000	255.281	80.005	20.009	100.315	19.982	4.039	0.405
395.500	255.631	80.005	20.009	100.312	19.979	4.946	0.412
396.000	255.915	80.005	20.009	100.306	19.979	4.967	0.574
396.500	256.190	80.006	20.009	100.291	19.977	5.826	0.596
397.000	256.399	80.005	20.010	100.275	19.978	5.419	0.522
397.500	256.509	80.005	20.009	100.270	19.986	2.916	0.402
398.000	256.850	80.004	20.009	100.275	19.978	5.520	0.385
398.500	257.193	80.005	20.009	100.289	19.981	4.336	0.567
399.000	257.410	80.006	20.009	100.305	19.980	4.716	0.622
399.500	257.647	80.006	20.009	100.322	19.983	3.938	0.507
400.000	257.791	80.006	20.009	100.331	19.984	3.417	0.417
400.500	258.165	80.007	20.010	100.328	19.983	3.878	0.449
401.000	258.293	80.006	20.010	100.322	19.986	2.923	0.510
401.500	258.699	80.006	20.009	100.324	19.985	3.241	0.518
402.000	258.850	80.006	20.009	100.324	19.978	5.291	0.545
402.500	259.203	80.005	20.010	100.328	19.981	4.533	0.530
403.000	259.319	80.007	20.009	100.332	19.979	5.142	0.486
403.500	259.721	80.006	20.010	100.335	19.978	5.549	0.494
404.000	259.924	80.007	20.009	100.324	19.975	6.496	0.562
404.500	260.123	80.006	20.009	100.317	19.981	4.574	0.504
405.000	260.333	80.005	20.009	100.305	19.978	5.264	0.405
405.500	260.576	80.005	20.009	100.292	19.976	6.015	0.431
406.000	260.881	80.003	20.009	100.282	19.980	4.790	0.501
406.500	261.007	80.005	20.009	100.281	19.978	5.311	0.490
407.000	261.273	80.006	20.009	100.285	19.979	5.109	0.411
407.500	261.550	80.004	20.009	100.298	19.981	4.507	0.467
408.000	261.830	80.005	20.009	100.314	19.978	5.271	0.550
408.500	262.094	80.006	20.009	100.323	19.981	4.357	0.551
409.000	262.342	80.006	20.009	100.325	19.976	5.893	0.528
409.500	262.665	80.005	20.010	100.315	19.980	4.816	0.542
410.000	262.887	80.006	20.009	100.300	19.982	3.957	0.558
410.500	262.962	80.005	20.009	100.291	19.972	7.285	0.421
411.000	263.201	80.004	20.009	100.288	19.975	6.494	0.306
411.500	263.480	80.006	20.008	100.296	19.977	5.608	0.416
412.000	263.703	80.007	20.009	100.309	19.972	7.171	0.510
412.500	263.964	80.007	20.009	100.323	19.979	4.918	0.493
413.000	264.326	80.005	20.009	100.330	19.979	4.992	0.553
413.500	264.668	80.005	20.009	100.329	19.979	5.127	0.664
414.000	264.634	80.005	20.009	100.321	19.976	5.973	0.506
414.500	264.947	80.005	20.009	100.314	19.981	4.478	0.294
415.000	265.166	80.005	20.009	100.310	19.978	5.480	0.405
415.500	265.574	80.006	20.009	100.311	19.979	5.108	0.579
416.000	265.745	80.006	20.009	100.318	19.978	5.345	0.603
416.500	266.187	80.006	20.009	100.326	19.976	6.143	0.597
417.000	266.315	80.004	20.009	100.326	19.976	6.183	0.592
417.500	266.532	80.006	20.009	100.322	19.979	4.952	0.457
418.000	266.830	80.008	20.010	100.315	19.976	6.069	0.430
418.500	266.925	80.005	20.009	100.309	19.973	7.030	0.454
419.000	267.213	80.005	20.009	100.306	19.977	5.793	0.388
419.500	267.508	80.005	20.009	100.311	19.975	6.442	0.483
420.000	267.623	80.005	20.009	100.319	19.972	7.186	0.496
420.500	267.971	80.005	20.009	100.325	19.975	6.313	0.437
421.000	268.176	80.006	20.008	100.322	19.974	6.603	0.508
421.500	268.497	80.006	20.010	100.314	19.974	6.697	0.539
422.000	268.615	80.005	20.009	100.302	19.976	5.994	0.482
422.500	268.882	80.005	20.009	100.291	19.974	6.576	0.412
423.000	269.227	80.006	20.009	100.287	19.964	9.995	0.499
423.500	269.439	80.005	20.009	100.289	19.969	8.405	0.585
424.000	269.677	80.007	20.009	100.295	19.969	8.418	0.504
424.500	269.890	80.006	20.009	100.302	19.967	8.965	0.450
425.000	270.126	80.006	20.009	100.304	19.969	8.167	0.450
425.500	270.389	80.005	20.009	100.299	19.973	6.894	0.474
426.000	270.689	80.004	20.009	100.291	19.966	9.229	0.531
426.500	270.829	80.006	20.009	100.290	19.965	9.609	0.501
427.000	271.045	80.005	20.009	100.291	19.965	9.630	0.398
427.500	271.400	80.006	20.009	100.297	19.964	9.807	0.464
428.000	271.577	80.006	20.009	100.303	19.963	10.322	0.551
428.500	271.959	80.006	20.009	100.309	19.965	9.678	0.546
429.000	272.162	80.006	20.009	100.305	19.964	9.826	0.573
429.500	272.472	80.006	20.010	100.300	19.962	10.428	0.549
430.000	272.532	80.006	20.009	100.294	19.965	9.554	0.441
430.500	272.895	80.006	20.009	100.295	19.965	9.466	0.397
431.000	273.050	80.006	20.009	100.303	19.967	9.054	0.471
431.500	273.384	80.005	20.009	100.317	19.966	9.143	0.503
432.000	273.615	80.005	20.008	100.329	19.967	8.825	0.526
432.500	273.831	80.006	20.009	100.330	19.965	9.392	0.506
433.000	273.979	80.005	20.009	100.326	19.961	10.975	0.406
433.500	274.306	80.005	20.010	100.311	19.963	10.216	0.420
434.000	274.524	80.004	20.010	100.298	19.963	10.135	0.510
434.500	274.799	80.006	20.009	100.294	19.954	12.909	0.519
435.000	275.050	80.006	20.009	100.302	19.957	12.118	0.509
435.500	275.214	80.005	20.009	100.311	19.959	11.610	0.470
436.000	275.327	80.004	20.008	100.324	19.958	11.927	0.346
436.500	275.577	80.003	20.009	100.330	19.962	10.559	0.320
437.000	275.862	80.005	20.008	100.326	19.954	12.981	0.449
437.500	276.411	80.006	20.010	100.316	19.960	11.242	0.684
438.000	276.496	80.006	20.009	100.312	19.958	11.695	0.734
438.500	276.857	80.004	20.009	100.311	19.960	11.006	0.541
439.000	276.835	80.006	20.009	100.317	19.956	12.563	0.392
439.500	277.243	80.005	20.009	100.327	19.957	11.969	0.362
440.000	277.408	80.005	20.009	100.336	19.958	11.853	0.479
440.500	277.734	80.007	20.009	100.342	19.959	11.304	0.532
441.000	277.910	80.005	20.008	100.345	19.964	9.795	0.497
441.500	278.313	80.007	20.009	100.341	19.955	12.696	0.541
442.000	278.400	80.006	20.010	100.332	19.962	10.472	0.534
442.500	278.715	80.007	20.010	100.324	19.960	11.280	0.446
443.000	278.933	80.006	20.009	100.322	19.956	12.507	0.467
443.500	279.105	80.006	20.009	100.321	19.953	13.394	0.462
444.000	279.224	80.005	20.008	100.326	19.952	13.792	0.341
444.500	279.634	80.005	20.009	100.331	19.954	12.943	0.410
445.000	279.855	80.005	20.009	100.331	19.951	13.887	0.580
445.500	280.020	80.005	20.009	100.324	19.954	12.911	0.509
446.000	280.425	80.007	20.009	100.318	19.954	12.937	0.478
446.500	280.729	80.006	20.010	100.311	19.948	15.014	0.640
447.000	280.904	80.005	20.009	100.310	19.950	14.387	0.594
447.500	281.079	80.005	20.008	100.310	19.946	15.625	0.415
448.000	281.543	80.006	20.009	100.312	19.953	13.311	0.495
448.500	281.577	80.005	20.009	100.309	19.950	14.460	0.568
449.000	281.904	80.007	20.009	100.302	19.954	13.073	0.429
449.500	282.177	80.005	20.010	100.291	19.948	14.851	0.481
450.000	282.282	80.004	20.008	100.287	19.948	14.974	0.488
450.500	282.428	80.006	20.009	100.285	19.949	14.699	0.314
451.000	282.842	80.006	20.009	100.287	19.943	16.461	0.406
451.500	283.029	80.006	20.009	100.293	19.952	13.790	0.581
452.000	283.237	80.005	20.009	100.304	19.947	15.197	0.498
452.500	283.646	80.007	20.009	100.308	19.947	15.325	0.506
453.000	283.691	80.004	20.009	100.303	19.948	15.060	0.535
453.500	284.126	80.007	20.010	100.295	19.946	15.491	0.467
454.000	284.295	80.005	20.010	100.287	19.950	14.362	0.542
454.500	284.510	80.005	20.011	100.281	19.950	14.281	0.494
455.000	284.728	80.006	20.008	100.294	19.950	14.450	0.408
455.500	284.944	80.004	20.009	100.321	19.949	14.491	0.434
456.000	285.406	80.005	20.009	100.336	19.952	13.705	0.556
456.500	285.693	80.006	20.009	100.343	19.950	14.387	0.713
457.000	285.850	80.006	20.009	100.336	19.946	15.690	0.597
457.500	286.043	80.007	20.009	100.312	19.942	16.846	0.397
458.000	286.307	80.004	20.009	100.284	19.945	15.772	0.403
458.500	286.625	80.005	20.010	100.268	19.942	16.950	0.520
459.000	286.907	80.006	20.009	100.264	19.944	16.195	0.591
459.500	286.863	80.004	20.009	100.272	19.943	16.617	0.419
460.000	287.343	80.005	20.008	100.282	19.949	14.596	0.337
460.500	287.465	80.005	20.009	100.284	19.939	17.925	0.519
461.000	287.697	80.005	20.009	100.277	19.938	18.112	0.478
461.500	288.042	80.006	20.009	100.271	19.942	16.851	0.466
462.000	288.254	80.006	20.009	100.266	19.947	15.205	0.567
462.500	288.455	80.006	20.009	100.265	19.944	16.353	0.484
463.000	288.750	80.006	20.009	100.271	19.941	17.286	0.454
463.500	288.934	80.004	20.009	100.290	19.937	18.405	0.488
464.000	289.295	80.005	20.009	100.309	19.936	18.802	0.512
464.500	289.527	80.006	20.009	100.317	19.939	17.927	0.569
465.000	289.745	80.006	20.009	100.318	19.940	17.530	0.521
465.500	289.935	80.006	20.010	100.315	19.935	19.149	0.429
466.000	290.341	80.007	20.010	100.306	19.936	18.925	0.502
466.500	290.346	80.005	20.009	100.293	19.938	18.288	0.504
467.000	290.513	80.006	20.008	100.294	19.940	17.501	0.292
467.500	291.027	80.005	20.008	100.299	19.930	20.736	0.426
468.000	291.175	80.005	20.009	100.298	19.932	19.950	0.671
468.500	291.420	80.003	20.009	100.298	19.932	20.212	0.527
469.000	291.754	80.007	20.010	100.292	19.935	19.188	0.486
469.500	291.949	80.006	20.009	100.280	19.931	20.403	0.554
470.000	292.268	80.005	20.009	100.269	19.927	21.633	0.522
470.500	292.577	80.005	20.010	100.265	19.936	18.953	0.571
471.000	292.798	80.006	20.009	100.269	19.932	20.112	0.579
471.500	292.997	80.006	20.009	100.282	19.928	21.427	0.475
472.000	293.227	80.005	20.008	100.295	19.934	19.562	0.424
472.500	293.471	80.004	20.008	100.310	19.927	21.767	0.452
473.000	293.699	80.005	20.008	100.323	19.931	20.469	0.473
473.500	293.839	80.005	20.010	100.321	19.931	20.406	0.420
474.000	294.127	80.005	20.009	100.309	19.930	20.750	0.398
474.500	294.315	80.006	20.010	100.292	19.928	21.366	0.452
475.000	294.635	80.005	20.008	100.279	19.932	20.075	0.492
475.500	295.075	80.007	20.010	100.267	19.937	18.519	0.635
476.000	295.241	80.005	20.009	100.267	19.930	20.745	0.683
476.500	295.401	80.005	20.009	100.284	19.927	21.563	0.466
477.000	295.470	80.005	20.008	100.310	19.931	20.425	0.277
477.500	296.011	80.005	20.009	100.331	19.931	20.363	0.419
478.000	296.339	80.006	20.009	100.345	19.934	19.280	0.740
478.500	296.632	80.007	20.010	100.353	19.932	20.085	0.745
479.000	296.683	80.007	20.009	100.353	19.934	19.444	0.482
479.500	296.788	80.004	20.009	100.344	19.937	18.390	0.250
480.000	297.127	80.005	20.009	100.336	19.931	20.292	0.300
480.500	297.426	80.005	20.009	100.336	19.932	20.089	0.541
481.000	297.683	80.005	20.009	100.333	19.933	19.635	0.598
481.500	297.743	80.005	20.009	100.324	19.934	19.580	0.437
482.000	298.170	80.005	20.010	100.309	19.934	19.307	0.402
482.500	298.466	80.005	20.010	100.296	19.935	19.198	0.605
483.000	298.784	80.005	20.009	100.289	19.930	20.870	0.668
483.500	298.747	80.005	20.009	100.285	19.932	20.073	0.447
484.000	298.909	80.004	20.008	100.296	19.933	19.720	0.203
484.500	299.151	80.005	20.009	100.310	19.933	19.740	0.265
485.000	299.625	80.007	20.009	100.318	19.933	19.902	0.560
485.500	299.754	80.005	20.009	100.318	19.932	19.910	0.660
486.000	299.931	80.004	20.009	100.319	19.933	19.745	0.455
486.500	300.446	80.007	20.010	100.311	19.933	19.773	0.499
487.000	300.490	80.005	20.010	100.305	19.933	19.829	0.625
487.500	300.724	80.005	20.008	100.307	19.931	20.534	0.418
488.000	301.152	80.005	20.009	100.314	19.935	19.099	0.470
488.500	301.278	80.006	20.010	100.315	19.933	19.744	0.608
489.000	301.589	80.005	20.009	100.313	19.929	21.125	0.495
489.500	301.861	80.006	20.009	100.312	19.931	20.521	0.510
490.000	302.032	80.006	20.009	100.307	19.930	20.709	0.513
490.500	302.356	80.008	20.010	100.298	19.924	22.568	0.469
491.000	302.604	80.006	20.010	100.296	19.924	22.606	0.534
491.500	302.810	80.006	20.009	100.299	19.919	24.288	0.513
492.000	302.868	80.005	20.009	100.303	19.920	23.790	0.359
492.500	303.201	80.006	20.010	100.311	19.927	21.533	0.328
493.000	303.480	80.006	20.008	100.315	19.920	23.900	0.502
493.500	303.658	80.006	20.009	100.316	19.928	21.406	0.534
494.000	304.069	80.005	20.010	100.315	19.928	21.496	0.523
494.500	304.284	80.007	20.010	100.309	19.923	22.972	0.607
495.000	304.468	80.005	20.009	100.296	19.924	22.512	0.513
495.500	304.768	80.005	20.009	100.295	19.925	22.313	0.442
496.000	304.915	80.006	20.009	100.297	19.923	23.036	0.466
496.500	305.290	80.004	20.010	100.303	19.927	21.527	0.485
497.000	305.285	80.004	20.009	100.332	19.927	21.817	0.446
497.500	305.737	80.006	20.013	100.298	19.922	23.240	0.408
498.000	305.915	80.004	20.009	100.262	19.917	24.772	0.538
498.500	306.168	80.005	20.009	100.235	19.922	23.209	0.530
499.000	306.235	80.005	20.009	100.217	19.923	22.797	0.376
499.500	306.556	80.003	20.008	100.188	19.918	24.437	0.354
500.000	306.935	80.005	20.009	100.232	19.920	23.980	0.544
500.500	307.148	80.005	20.009	100.276	19.922	23.426	0.646
501.000	307.316	80.003	20.008	100.307	19.927	21.755	0.486
501.500	307.627	80.005	20.009	100.318	19.920	23.924	0.430
502.000	307.823	80.004	20.009	100.319	19.923	23.108	0.493
502.500	308.016	80.003	20.009	100.311	19.924	22.680	0.448
503.000	308.371	80.004	20.009	100.304	19.926	22.032	0.468
503.500	308.563	80.005	20.009	100.297	19.921	23.617	0.548
504.000	308.660	80.004	20.010	100.287	19.923	22.930	0.418
504.500	309.068	80.005	20.011	100.278	19.921	23.705	0.397
505.000	309.376	80.004	20.008	100.316	19.918	24.463	0.610
505.500	309.491	80.006	20.007	100.360	19.919	24.276	0.570
506.000	309.863	80.005	20.008	100.381	19.922	23.339	0.455
506.500	310.003	80.006	20.010	100.399	19.917	24.954	0.499
507.000	310.245	80.008	20.010	100.411	19.918	24.536	0.447
507.500	310.255	80.005	20.009	100.378	19.919	24.105	0.317
508.000	310.505	80.006	20.009	100.347	19.921	23.500	0.256
508.500	310.744	80.003	20.008	100.335	19.909	27.286	0.375
509.000	310.985	80.006	20.009	100.331	19.911	26.657	0.485
509.500	311.325	80.005	20.008	100.332	19.911	26.769	0.530
510.000	311.758	80.007	20.009	100.326	19.912	26.550	0.677
510.500	312.006	80.004	20.010	100.306	19.913	26.176	0.727
511.000	312.119	80.006	20.009	100.292	19.907	27.946	0.521
511.500	312.335	80.004	20.009	100.289	19.908	27.894	0.345
512.000	312.610	80.006	20.008	100.294	19.907	28.066	0.410
512.500	312.877	80.005	20.008	100.303	19.900	30.146	0.517
513.000	313.174	80.006	20.009	100.317	19.901	29.862	0.553
513.500	313.232	80.005	20.008	100.322	19.905	28.658	0.459
514.000	313.402	80.005	20.008	100.321	19.904	29.068	0.292
514.500	313.638	80.005	20.009	100.308	19.906	28.315	0.318
515.000	313.981	80.006	20.009	100.292	19.905	28.638	0.493
515.500	314.119	80.003	20.009	100.286	19.900	30.433	0.530
516.000	314.565	80.006	20.009	100.291	19.898	31.051	0.532
516.500	314.656	80.005	20.008	100.300	19.900	30.154	0.560
517.000	315.114	80.006	20.009	100.314	19.903	29.214	0.543
517.500	315.175	80.007	20.008	100.327	19.904	29.117	0.534
518.000	315.304	80.003	20.008	100.327	19.903	29.423	0.354
518.500	315.766	80.006	20.010	100.312	19.898	30.812	0.390
519.000	316.028	80.006	20.009	100.298	19.903	29.328	0.658
519.500	316.260	80.007	20.010	100.290	19.896	31.507	0.609
520.000	316.529	80.007	20.010	100.295	19.896	31.417	0.498
520.500	316.511	80.005	20.009	100.303	19.903	29.365	0.376
521.000	316.647	80.003	20.008	100.318	19.890	33.415	0.184
521.500	317.226	80.007	20.009	100.332	19.888	34.261	0.416
522.000	317.260	80.005	20.008	100.333	19.883	35.677	0.664
522.500	317.475	80.003	20.009	100.323	19.886	34.673	0.431
523.000	317.822	80.006	20.009	100.315	19.888	34.111	0.405
523.500	318.144	80.006	20.009	100.306	19.890	33.618	0.616
524.000	318.257	80.003	20.008	100.298	19.885	35.208	0.552
524.500	318.466	80.007	20.010	100.303	19.884	35.365	0.378
525.000	318.681	80.005	20.008	100.315	19.880	36.690	0.373
525.500	319.032	80.006	20.009	100.324	19.875	38.363	0.495
526.000	319.237	80.005	20.009	100.325	19.880	36.693	0.561
526.500	319.421	80.005	20.008	100.326	19.875	38.145	0.473
527.000	319.686	80.006	20.009	100.318	19.865	41.343	0.419
527.500	319.964	80.005	20.009	100.309	19.865	41.467	0.496
528.000	320.225	80.005	20.009	100.304	19.870	40.025	0.541
528.500	320.512	80.007	20.009	100.310	19.871	39.659	0.544
529.000	320.652	80.005	20.009	100.318	19.863	42.052	0.488
529.500	321.006	80.005	20.009	100.328	19.865	41.321	0.460
530.000	321.116	80.005	20.008	100.329	19.862	42.414	0.479
530.500	321.335	80.004	20.008	100.322	19.861	42.591	0.396
531.000	321.781	80.006	20.009	100.306	19.859	43.316	0.497
531.500	321.840	80.005	20.009	100.288	19.859	43.406	0.585
532.000	321.984	80.004	20.009	100.279	19.859	43.475	0.354
532.500	322.465	80.006	20.009	100.285	19.854	44.875	0.414
533.000	322.773	80.006	20.009	100.297	19.852	45.597	0.707
533.500	323.042	80.005	20.009	100.314	19.851	45.891	0.683
534.000	323.259	80.006	20.009	100.326	19.847	47.108	0.531
534.500	323.585	80.007	20.009	100.325	19.841	49.236	0.515
535.000	323.698	80.005	20.009	100.312	19.838	49.980	0.492
535.500	323.929	80.005	20.009	100.303	19.838	50.051	0.391
536.000	324.083	80.004	20.009	100.303	19.837	50.532	0.364
536.500	324.631	80.006	20.008	100.305	19.834	51.416	0.544
537.000	324.839	80.007	20.009	100.305	19.840	49.480	0.729
537.500	324.894	80.006	20.008	100.309	19.832	51.866	0.509
538.000	324.977	80.005	20.009	100.306	19.835	51.048	0.200
538.500	325.456	80.005	20.009	100.293	19.830	52.602	0.350
539.000	325.556	80.006	20.008	100.279	19.823	54.756	0.570
539.500	325.973	80.006	20.009	100.272	19.821	55.557	0.548
540.000	326.206	80.005	20.010	100.270	19.822	55.272	0.584
540.500	326.431	80.005	20.009	100.275	19.819	56.231	0.554
541.000	326.612	80.006	20.009	100.288	19.815	57.573	0.432
541.500	326.855	80.005	20.009	100.303	19.812	58.361	0.415
542.000	327.110	80.005	20.008	100.315	19.813	58.151	0.461
542.500	327.382	80.005	20.009	100.315	19.805	60.488	0.513
543.000	327.498	80.007	20.009	100.307	19.803	61.399	0.457
543.500	327.685	80.005	20.009	100.294	19.803	61.129	0.345
544.000	328.139	80.006	20.009	100.281	19.796	63.443	0.472
544.500	328.358	80.005	20.009	100.271	19.795	63.900	0.657
545.000	328.539	80.005	20.009	100.273	19.795	63.782	0.536
545.500	328.866	80.004	20.009	100.288	19.787	66.353	0.454
546.000	329.108	80.005	20.008	100.300	19.786	66.700	0.539
546.500	329.387	80.005	20.008	100.306	19.789	65.727	0.545
547.000	329.703	80.005	20.008	100.306	19.784	67.290	0.557
547.500	329.776	80.005	20.009	100.298	19.778	69.108	0.492
548.000	330.009	80.003	20.008	100.284	19.780	68.617	0.348
548.500	330.252	80.004	20.008	100.278	19.780	68.602	0.391
549.000	330.528	80.005	20.009	100.278	19.773	70.813	0.498
549.500	330.826	80.005	20.008	100.288	19.777	69.645	0.547
550.000	331.152	80.006	20.009	100.299	19.767	72.848	0.599
550.500	331.404	80.007	20.010	100.308	19.768	72.589	0.601
551.000	331.430	80.005	20.008	100.310	19.762	74.241	0.428
551.500	332.005	80.008	20.009	100.305	19.763	74.109	0.440
552.000	332.032	80.004	20.009	100.297	19.757	76.000	0.601
552.500	332.319	80.005	20.009	100.290	19.755	76.507	0.458
553.000	332.683	80.005	20.008	100.288	19.751	77.833	0.483
553.500	332.899	80.006	20.009	100.286	19.747	79.186	0.616
554.000	333.257	80.006	20.008	100.291	19.745	79.874	0.577
554.500	333.328	80.005	20.008	100.296	19.745	79.787	0.501
555.000	333.590	80.007	20.010	100.296	19.738	82.161	0.381
555.500	333.780	80.005	20.009	100.290	19.739	81.837	0.392
556.000	334.193	80.006	20.010	100.287	19.734	83.223	0.528
556.500	334.513	80.007	20.010	100.288	19.731	84.122	0.669
557.000	334.621	80.007	20.009	100.289	19.725	86.053	0.581
557.500	334.903	80.006	20.009	100.295	19.727	85.681	0.409
558.000	335.220	80.005	20.008	100.300	19.721	87.364	0.494
558.500	335.209	80.005	20.008	100.301	19.719	88.059	0.452
559.000	335.627	80.006	20.009	100.293	19.714	89.613	0.356
559.500	335.887	80.005	20.010	100.285	19.712	90.244	0.542
560.000	336.040	80.004	20.009	100.275	19.709	91.251	0.545
560.500	336.265	80.005	20.009	100.273	19.704	92.802	0.395
561.000	336.627	80.004	20.009	100.277	19.703	93.207	0.482
561.500	336.803	80.004	20.008	100.284	19.699	94.404	0.563
562.000	337.126	80.005	20.009	100.293	19.694	95.974	0.519
562.500	337.482	80.006	20.010	100.297	19.690	97.213	0.590
563.000	337.628	80.006	20.009	100.291	19.690	97.369	0.591
563.500	337.813	80.004	20.009	100.280	19.687	98.249	0.416
564.000	338.146	80.006	20.009	100.273	19.679	100.997	0.424
564.500	338.512	80.005	20.009	100.268	19.680	100.656	0.608
565.000	338.622	80.004	20.009	100.273	19.675	102.266	0.588
565.500	338.944	80.005	20.008	100.282	19.674	102.521	0.455
566.000	339.079	80.005	20.009	100.291	19.672	103.008	0.445
566.500	339.485	80.006	20.009	100.292	19.664	105.772	0.499
567.000	339.711	80.007	20.009	100.289	19.664	105.724	0.586
567.500	339.944	80.004	20.009	100.282	19.662	106.256	0.545
568.000	340.193	80.004	20.009	100.273	19.660	106.797	0.471
568.500	340.464	80.006	20.010	100.274	19.657	107.727	0.502
569.000	340.637	80.005	20.008	100.281	19.651	109.709	0.482
569.500	340.938	80.005	20.009	100.288	19.648	110.844	0.459
570.000	341.164	80.005	20.009	100.292	19.641	112.860	0.500
570.500	341.515	80.005	20.009	100.292	19.639	113.438	0.552
571.000	341.660	80.006	20.009	100.283	19.638	113.731	0.536
571.500	341.934	80.005	20.009	100.273	19.633	115.276	0.457
572.000	342.172	80.005	20.009	100.264	19.624	118.202	0.466
572.500	342.502	80.004	20.009	100.259	19.621	119.380	0.540
573.000	342.714	80.006	20.009	100.258	19.624	118.217	0.555
573.500	343.014	80.005	20.009	100.260	19.617	120.711	0.527
574.000	343.234	80.005	20.009	100.260	19.618	120.183	0.516
574.500	343.453	80.005	20.009	100.260	19.616	120.903	0.479
575.000	343.696	80.005	20.009	100.261	19.611	122.642	0.450
575.500	343.998	80.004	20.009	100.270	19.604	125.066	0.504
576.000	344.321	80.006	20.009	100.277	19.604	124.940	0.585
576.500	344.466	80.006	20.009	100.285	19.599	126.570	0.547
577.000	344.781	80.006	20.010	100.293	19.599	126.412	0.464
577.500	345.037	80.007	20.009	100.298	19.594	128.147	0.516
578.000	345.186	80.005	20.008	100.304	19.589	129.501	0.488
578.500	345.506	80.005	20.009	100.302	19.589	129.642	0.437
579.000	345.869	80.005	20.010	100.295	19.589	129.551	0.576
579.500	346.100	80.006	20.009	100.286	19.577	133.588	0.638
580.000	346.257	80.005	20.009	100.279	19.580	132.498	0.491
580.500	346.621	80.005	20.009	100.264	19.566	136.948	0.455
581.000	346.699	80.005	20.009	100.257	19.564	137.416	0.482
581.500	347.056	80.005	20.009	100.255	19.569	135.973	0.438
582.000	347.287	80.003	20.012	100.255	19.562	138.187	0.511
582.500	347.448	80.006	20.006	100.291	19.555	140.339	0.490
583.000	347.794	80.005	20.015	100.249	19.549	142.206	0.449
583.500	348.042	80.007	20.010	100.199	19.552	141.425	0.550
584.000	348.346	80.005	20.012	100.141	19.547	142.877	0.573
584.500	348.581	80.004	20.009	100.128	19.546	143.303	0.546
585.000	348.795	80.005	20.009	100.106	19.546	143.543	0.494
585.500	349.047	80.005	20.009	100.166	19.541	145.014	0.457
586.000	349.330	80.005	20.005	100.227	19.542	144.850	0.501
586.500	349.411	80.004	20.017	100.249	19.540	145.579	0.449
587.000	349.712	80.004	20.008	100.261	19.542	144.634	0.372
587.500	350.062	80.007	20.008	100.297	19.536	146.467	0.516
588.000	350.365	80.007	20.008	100.347	19.527	149.524	0.652
588.500	350.466	80.005	20.009	100.386	19.535	146.767	0.528
589.000	350.908	80.005	20.008	100.448	19.530	148.561	0.473
589.500	351.102	80.005	20.009	100.462	19.526	149.734	0.590
590.000	351.321	80.007	20.009	100.417	19.525	150.169	0.525
590.500	351.676	80.005	20.009	100.354	19.521	151.446	0.493
591.000	351.873	80.005	20.008	100.312	19.511	154.655	0.562
591.500	352.022	80.006	20.009	100.295	19.513	153.855	0.449
592.000	352.294	80.005	20.011	100.293	19.514	153.575	0.384
592.500	352.487	80.003	20.004	100.313	19.506	156.235	0.443
593.000	352.877	80.006	20.010	100.286	19.497	158.923	0.524
593.500	353.071	80.005	20.010	100.236	19.501	157.584	0.583
594.000	353.283	80.005	20.009	100.213	19.496	159.406	0.495
594.500	353.568	80.005	20.008	100.200	19.495	159.576	0.452
595.000	353.885	80.005	20.008	100.179	19.491	160.857	0.549
595.500	353.971	80.007	20.005	100.205	19.490	161.134	0.503
596.000	354.321	80.003	20.016	100.197	19.488	161.970	0.420
596.500	354.495	80.003	20.009	100.223	19.491	161.002	0.479
597.000	354.734	80.006	20.008	100.279	19.487	162.072	0.468
597.500	355.148	80.006	20.008	100.331	19.482	163.885	0.533
598.000	355.283	80.005	20.009	100.361	19.481	164.096	0.602
598.500	355.421	80.006	20.009	100.437	19.483	163.512	0.411
599.000	355.797	80.005	20.010	100.446	19.471	167.324	0.393
599.500	356.019	80.006	20.008	100.416	19.472	167.044	0.556
600.000	356.291	80.005	20.009	100.371	19.469	167.857	0.546
600.500	356.418	80.004	20.008	100.338	19.464	169.397	0.446
601.000	356.756	80.007	20.009	100.310	19.463	169.863	0.432
601.500	357.006	80.004	20.009	100.289	19.456	172.173	0.527
602.000	357.258	80.006	20.009	100.271	19.451	173.545	0.545
602.500	357.436	80.005	20.009	100.269	19.456	172.120	0.466
603.000	357.757	80.005	20.008	100.283	19.449	174.438	0.465
603.500	358.151	80.007	20.009	100.301	19.449	174.484	0.607
604.000	358.185	80.006	20.008	100.315	19.444	175.902	0.572
604.500	358.573	80.004	20.009	100.310	19.442	176.703	0.425
605.000	358.708	80.005	20.009	100.299	19.440	177.136	0.472
605.500	359.061	80.006	20.009	100.291	19.440	177.311	0.505
606.000	359.316	80.005	20.008	100.293	19.437	178.125	0.548
606.500	359.621	80.005	20.009	100.302	19.434	179.093	0.584
607.000	359.850	80.006	20.010	100.324	19.431	179.930	0.547
607.500	360.069	80.004	20.008	100.346	19.436	178.417	0.491
608.000	360.442	80.006	20.008	100.351	19.430	180.349	0.520
608.500	360.507	80.005	20.008	100.343	19.426	181.564	0.515
609.000	360.854	80.006	20.009	100.328	19.422	182.795	0.425
609.500	361.070	80.005	20.008	100.316	19.421	183.246	0.487
610.000	361.279	80.004	20.009	100.304	19.417	184.443	0.494
610.500	361.484	80.005	20.009	100.304	19.419	183.857	0.419
611.000	361.760	80.004	20.008	100.317	19.416	184.867	0.448
611.500	362.045	80.006	20.009	100.332	19.412	185.934	0.522
612.000	362.527	80.007	20.009	100.333	19.413	185.761	0.664
612.500	362.648	80.005	20.009	100.328	19.406	188.215	0.684
613.000	362.890	80.004	20.008	100.312	19.408	187.470	0.483
613.500	363.144	80.005	20.009	100.290	19.403	189.383	0.430
614.000	363.363	80.006	20.009	100.274	19.406	188.096	0.485
614.500	363.701	80.005	20.008	100.272	19.397	191.099	0.515
615.000	363.871	80.005	20.008	100.280	19.402	189.422	0.532
615.500	364.216	80.005	20.009	100.297	19.401	189.790	0.511
616.000	364.356	80.005	20.008	100.307	19.399	190.348	0.500
616.500	364.653	80.006	20.009	100.310	19.396	191.263	0.461
617.000	364.881	80.006	20.009	100.308	19.398	190.543	0.481
617.500	365.158	80.007	20.011	100.302	19.392	192.425	0.515
618.000	365.356	80.003	20.007	100.302	19.392	192.654	0.489
618.500	365.680	80.005	20.009	100.329	19.394	191.798	0.499
619.000	365.911	80.005	20.012	100.291	19.390	193.220	0.539
619.500	366.102	80.006	20.009	100.262	19.388	193.805	0.489
620.000	366.432	80.005	20.009	100.253	19.391	193.000	0.471
620.500	366.501	80.004	20.008	100.246	19.390	193.321	0.460
621.000	366.830	80.005	20.008	100.219	19.390	193.108	0.399
621.500	367.153	80.004	20.009	100.255	19.391	192.987	0.525
622.000	367.337	80.006	20.009	100.285	19.392	192.533	0.579
622.500	367.673	80.004	20.009	100.299	19.396	191.324	0.513
623.000	367.953	80.006	20.005	100.302	19.400	189.941	0.568
623.500	368.165	80.005	20.023	100.263	19.404	188.709	0.554
624.000	368.322	80.006	20.008	100.250	19.402	189.452	0.431
624.500	368.622	80.005	20.008	100.282	19.406	188.255	0.413
625.000	368.884	80.004	20.008	100.331	19.408	187.579	0.509
625.500	369.210	80.007	20.009	100.358	19.409	187.244	0.575
626.000	369.398	80.005	20.010	100.413	19.410	186.734	0.551
626.500	369.715	80.005	20.009	100.436	19.408	187.614	0.510
627.000	369.993	80.006	20.009	100.411	19.412	186.226	0.549
627.500	370.200	80.005	20.008	100.369	19.413	186.027	0.540
628.000	370.480	80.005	20.008	100.342	19.419	183.952	0.487
628.500	370.671	80.006	20.008	100.325	19.415	185.397	0.479
629.000	370.964	80.004	20.009	100.313	19.419	183.924	0.477
629.500	371.084	80.003	20.009	100.302	19.418	184.213	0.448
630.000	371.501	80.006	20.009	100.294	19.419	184.116	0.475
630.500	371.564	80.005	20.009	100.295	19.419	184.131	0.509
631.000	371.876	80.005	20.009	100.305	19.420	183.589	0.428
631.500	372.120	80.005	20.009	100.317	19.423	182.865	0.465
632.000	372.451	80.005	20.009	100.328	19.423	182.843	0.566
632.500	372.663	80.006	20.009	100.337	19.424	182.394	0.559
633.000	372.927	80.004	20.009	100.341	19.425	182.237	0.509
633.500	373.095	80.005	20.009	100.338	19.428	181.292	0.454
634.000	373.399	80.004	20.009	100.337	19.428	181.311	0.452
634.500	373.714	80.006	20.009	100.337	19.430	180.653	0.545
635.000	373.871	80.005	20.009	100.344	19.433	179.549	0.546
635.500	374.108	80.005	20.009	100.352	19.434	179.422	0.434
636.000	374.441	80.006	20.009	100.362	19.435	178.989	0.482
636.500	374.587	80.006	20.009	100.366	19.434	179.092	0.524
637.000	374.850	80.006	20.009	100.365	19.433	179.503	0.444
637.500	375.087	80.005	20.009	100.358	19.436	178.630	0.454
638.000	375.357	80.006	20.010	100.352	19.439	177.546	0.504
638.500	375.566	80.006	20.009	100.349	19.443	176.339	0.494
639.000	375.934	80.008	20.011	100.355	19.447	175.063	0.528
639.500	376.132	80.007	20.012	100.363	19.444	176.086	0.571
640.000	376.354	80.008	20.013	100.370	19.446	175.510	0.493
640.500	376.656	80.006	20.011	100.376	19.451	173.861	0.472
641.000	376.939	80.005	20.010	100.370	19.454	172.962	0.555
641.500	377.136	80.006	20.009	100.364	19.456	172.303	0.532
642.000	377.405	80.006	20.010	100.362	19.457	171.939	0.472
642.500	377.654	80.006	20.009	100.365	19.462	170.190	0.492
643.000	377.982	80.005	20.008	100.371	19.465	169.487	0.548
643.500	378.130	80.005	20.009	100.379	19.468	168.491	0.527
644.000	378.411	80.006	20.009	100.383	19.473	166.667	0.452
644.500	378.651	80.005	20.009	100.380	19.478	165.129	0.475
645.000	378.943	80.005	20.009	100.375	19.480	164.502	0.527
645.500	379.176	80.005	20.009	100.370	19.481	164.172	0.528
646.000	379.427	80.005	20.009	100.373	19.481	164.260	0.504
646.500	379.658	80.006	20.009	100.382	19.488	162.031	0.483
647.000	379.862	80.006	20.009	100.392	19.487	162.367	0.459
647.500	380.171	80.005	20.009	100.396	19.491	160.904	0.474
648.000	380.386	80.005	20.009	100.395	19.496	159.452	0.519
648.500	380.657	80.007	20.009	100.392	19.498	158.830	0.505
649.000	380.936	80.005	20.009	100.385	19.504	156.957	0.518
649.500	381.167	80.006	20.009	100.382	19.508	155.544	0.530
650.000	381.442	80.006	20.009	100.388	19.509	155.296	0.508
650.500	381.702	80.005	20.009	100.397	19.511	154.604	0.520
651.000	381.937	80.007	20.009	100.404	19.517	152.757	0.515
651.500	382.251	80.006	20.011	100.407	19.520	151.677	0.522
652.000	382.386	80.006	20.009	100.405	19.521	151.538	0.499
652.500	382.685	80.006	20.009	100.398	19.528	149.376	0.441
653.000	382.855	80.007	20.010	100.390	19.527	149.480	0.451
653.500	383.132	80.006	20.010	100.384	19.533	147.642	0.458
654.006	383.402	80.006	20.009	100.388	19.534	147.355	0.497
654.510	383.614	80.005	20.009	100.395	19.536	146.767	0.515
655.009	383.890	80.005	20.008	100.404	19.539	145.615	0.485
655.508	384.091	80.005	20.009	100.411	19.548	142.820	0.483
656.004	384.333	80.006	20.008	100.412	19.550	142.143	0.460
656.500	384.603	80.006	20.009	100.403	19.557	140.047	0.477
657.006	384.920	80.006	20.010	100.398	19.556	140.385	0.549
657.512	385.118	80.006	20.009	100.398	19.559	139.366	0.551
658.012	385.364	80.004	20.009	100.399	19.561	138.710	0.479
658.510	385.638	80.005	20.008	100.404	19.569	136.128	0.482
659.009	385.884	80.006	20.009	100.413	19.573	134.883	0.520
659.507	386.103	80.006	20.009	100.416	19.577	133.715	0.493
660.004	386.449	80.005	20.009	100.411	19.580	132.519	0.515
660.502	386.653	80.006	20.010	100.402	19.585	131.207	0.557
661.001	386.940	80.007	20.010	100.400	19.590	129.520	0.521
661.506	387.125	80.004	20.009	100.401	19.594	128.243	0.481
662.011	387.371	80.006	20.009	100.403	19.597	127.381	0.452
662.508	387.665	80.006	20.009	100.409	19.598	127.017	0.486
663.004	387.883	80.006	20.009	100.415	19.602	125.499	0.526
663.507	388.078	80.005	20.008	100.410	19.612	122.573	0.462
664.011	388.367	80.006	20.010	100.402	19.616	121.107	0.448
664.509	388.579	80.006	20.009	100.396	19.621	119.432	0.492
665.007	388.962	80.006	20.009	100.393	19.624	118.738	0.548
665.505	389.169	80.005	20.009	100.396	19.631	116.451	0.593
666.004	389.444	80.005	20.009	100.407	19.633	115.869	0.536
666.502	389.645	80.006	20.009	100.415	19.636	114.870	0.479
667.006	389.913	80.005	20.008	100.422	19.642	112.742	0.473
667.511	390.152	80.005	20.009	100.423	19.644	112.265	0.488
668.010	390.366	80.006	20.009	100.418	19.648	110.837	0.480
668.509	390.631	80.006	20.009	100.415	19.651	109.846	0.466
669.010	390.831	80.006	20.009	100.415	19.658	107.672	0.472
669.509	391.173	80.005	20.009	100.422	19.662	106.388	0.503
670.007	391.396	80.005	20.009	100.431	19.668	104.576	0.554
670.505	391.610	80.006	20.009	100.444	19.671	103.567	0.501
671.004	391.821	80.005	20.009	100.450	19.675	102.331	0.431
671.509	392.128	80.006	20.009	100.450	19.678	101.332	0.472
672.013	392.352	80.006	20.009	100.441	19.683	99.805	0.525
672.513	392.670	80.006	20.009	100.433	19.687	98.352	0.536
673.012	392.866	80.004	20.009	100.430	19.691	97.146	0.527
673.510	393.077	80.006	20.010	100.432	19.697	95.307	0.460
674.008	393.324	80.005	20.008	100.443	19.700	94.422	0.433
674.506	393.617	80.005	20.009	100.456	19.706	92.305	0.499
675.004	393.829	80.007	20.009	100.465	19.711	90.746	0.522
675.503	394.140	80.005	20.009	100.467	19.714	89.809	0.513
676.003	394.413	80.007	20.009	100.461	19.718	88.414	0.553
676.503	394.616	80.006	20.009	100.451	19.722	87.385	0.530
677.009	394.811	80.005	20.009	100.443	19.726	85.830	0.437
677.514	395.146	80.006	20.009	100.442	19.728	85.207	0.464
678.011	395.355	80.006	20.009	100.445	19.733	83.677	0.537
678.506	395.559	80.004	20.009	100.454	19.736	82.809	0.478
679.005	395.782	80.006	20.009	100.460	19.743	80.540	0.420
679.505	396.114	80.006	20.008	100.464	19.744	80.234	0.491
680.003	396.377	80.006	20.009	100.463	19.749	78.750	0.575
680.503	396.595	80.006	20.009	100.455	19.753	77.369	0.538
681.006	396.903	80.005	20.009	100.444	19.755	76.625	0.503
681.507	397.092	80.006	20.009	100.436	19.760	75.173	0.512
682.005	397.325	80.006	20.010	100.437	19.764	73.837	0.460
682.510	397.547	80.003	20.009	100.440	19.765	73.409	0.438
683.011	397.845	80.006	20.009	100.449	19.768	72.574	0.487
683.506	398.065	80.005	20.009	100.457	19.773	71.081	0.519
684.002	398.285	80.005	20.009	100.460	19.776	70.087	0.480
684.500	398.529	80.006	20.009	100.450	19.776	69.960	0.452
685.000	398.805	80.006	20.008	100.434	19.780	68.763	0.492
685.500	399.080	80.005	20.010	100.417	19.781	68.307	0.535
686.000	399.344	80.006	20.009	100.410	19.788	66.167	0.545
686.500	399.584	80.005	20.009	100.413	19.786	66.668	0.522
687.000	399.758	80.005	20.009	100.423	19.794	64.331	0.459
687.500	400.003	80.006	20.008	100.434	19.795	63.863	0.417
688.000	400.290	80.005	20.009	100.440	19.799	62.601	0.476
688.500	400.562	80.005	20.009	100.437	19.804	60.970	0.545
689.000	400.759	80.006	20.009	100.431	19.802	61.622	0.514
689.500	400.990	80.004	20.009	100.423	19.808	59.820	0.448
690.000	401.244	80.005	20.008	100.420	19.810	59.231	0.457
690.500	401.493	80.007	20.009	100.427	19.813	58.237	0.494
691.000	401.786	80.005	20.008	100.437	19.820	56.023	0.522
691.500	402.006	80.006	20.008	100.443	19.819	56.109	0.527
692.000	402.292	80.006	20.009	100.444	19.823	54.865	0.510
692.500	402.466	80.005	20.009	100.443	19.826	54.041	0.483
693.000	402.748	80.005	20.009	100.434	19.829	52.884	0.458
693.500	403.015	80.005	20.009	100.426	19.834	51.406	0.502
694.000	403.227	80.004	20.009	100.419	19.834	51.388	0.514
694.500	403.420	80.006	20.009	100.424	19.838	50.172	0.442
695.000	403.698	80.005	20.008	100.431	19.842	48.862	0.438
695.500	403.956	80.005	20.009	100.439	19.842	48.859	0.503
696.000	404.179	80.005	20.008	100.446	19.844	48.128	0.509
696.500	404.431	80.006	20.008	100.452	19.847	47.176	0.478
697.000	404.684	80.004	20.009	100.445	19.850	46.366	0.490
697.500	404.941	80.006	20.009	100.438	19.852	45.607	0.508
698.000	405.147	80.005	20.008	100.431	19.856	44.409	0.487
698.500	405.373	80.004	20.009	100.428	19.857	43.943	0.448
699.000	405.661	80.005	20.008	100.430	19.861	42.653	0.473
699.500	405.889	80.004	20.009	100.438	19.865	41.578	0.515
700.000	406.163	80.006	20.008	100.439	19.865	41.608	0.509
700.500	406.333	80.004	20.009	100.438	19.867	40.739	0.473
701.000	406.642	80.004	20.009	100.434	19.869	40.268	0.462
701.500	406.859	80.005	20.009	100.426	19.870	39.886	0.502
702.000	407.161	80.003	20.008	100.419	19.870	39.772	0.522
702.500	407.379	80.005	20.009	100.418	19.872	39.125	0.519
703.000	407.644	80.006	20.008	100.418	19.876	38.085	0.502
703.500	407.921	80.006	20.008	100.421	19.876	37.855	0.513
704.000	408.151	80.004	20.009	100.422	19.879	36.967	0.524
704.500	408.349	80.006	20.009	100.418	19.882	36.029	0.467
705.000	408.557	80.004	20.009	100.411	19.885	35.164	0.417
705.500	408.911	80.005	20.009	100.403	19.885	35.174	0.484
706.000	409.105	80.005	20.008	100.392	19.888	34.003	0.555
706.500	409.338	80.005	20.009	100.388	19.889	33.842	0.487
707.000	409.587	80.005	20.009	100.391	19.889	33.750	0.455
707.500	409.858	80.006	20.008	100.399	19.893	32.520	0.501
708.000	410.098	80.006	20.009	100.406	19.896	31.585	0.516
708.500	410.292	80.005	20.009	100.414	19.898	30.946	0.472
709.000	410.538	80.005	20.009	100.413	19.899	30.725	0.437
709.500	410.797	80.005	20.008	100.406	19.902	29.729	0.473
710.000	411.041	80.005	20.009	100.398	19.903	29.493	0.504
710.501	411.280	80.006	20.009	100.397	19.905	28.757	0.493
711.000	411.557	80.005	20.008	100.397	19.905	28.638	0.499
711.500	411.737	80.006	20.008	100.401	19.906	28.485	0.486
712.000	412.000	80.006	20.008	100.408	19.909	27.401	0.450
712.500	412.301	80.004	20.009	100.412	19.910	27.141	0.504
713.000	412.563	80.006	20.009	100.404	19.912	26.496	0.563
713.500	412.795	80.005	20.009	100.397	19.913	26.136	0.528
714.000	413.029	80.005	20.009	100.389	19.915	25.378	0.480
714.500	413.341	80.005	20.009	100.382	19.917	24.960	0.507
715.000	413.563	80.005	20.009	100.384	19.917	25.044	0.540
715.500	413.762	80.006	20.009	100.392	19.915	25.479	0.477
716.000	414.049	80.006	20.008	100.399	19.919	24.239	0.453
716.500	414.298	80.005	20.008	100.399	19.918	24.630	0.511
717.000	414.481	80.006	20.009	100.398	19.922	23.442	0.484
717.500	414.734	80.005	20.009	100.387	19.923	22.926	0.434
718.000	415.007	80.005	20.009	100.372	19.921	23.663	0.481
718.500	415.221	80.006	20.009	100.364	19.926	22.054	0.507
719.000	415.462	80.007	20.009	100.363	19.923	22.848	0.471
719.500	415.729	80.005	20.009	100.368	19.925	22.348	0.481
720.000	415.971	80.004	20.009	100.376	19.928	21.494	0.508
720.500	416.207	80.007	20.008	100.383	19.929	20.910	0.493
721.000	416.417	80.006	20.009	100.380	19.930	20.652	0.462
721.500	416.640	80.005	20.009	100.371	19.931	20.469	0.440
722.000	416.949	80.004	20.009	100.359	19.932	20.050	0.483
722.500	417.196	80.007	20.009	100.357	19.934	19.565	0.544
723.000	417.438	80.005	20.009	100.357	19.935	19.221	0.522
723.500	417.679	80.006	20.009	100.365	19.932	20.087	0.486
724.000	417.899	80.005	20.008	100.375	19.935	19.205	0.473
724.500	418.156	80.005	20.009	100.383	19.935	19.129	0.469
725.000	418.416	80.006	20.009	100.382	19.933	19.778	0.497
725.500	418.608	80.005	20.009	100.373	19.939	17.876	0.485
726.000	418.906	80.007	20.009	100.363	19.935	19.150	0.472
726.500	419.148	80.005	20.009	100.361	19.938	18.074	0.515
727.000	419.388	80.007	20.009	100.362	19.939	17.804	0.511
727.500	419.618	80.005	20.008	100.369	19.941	17.147	0.476
728.000	419.918	80.006	20.009	100.380	19.942	17.051	0.500
728.500	420.125	80.006	20.009	100.387	19.942	16.928	0.519
729.000	420.324	80.006	20.009	100.382	19.941	17.171	0.456
729.500	420.597	80.006	20.010	100.373	19.942	16.996	0.439
730.000	420.817	80.005	20.009	100.360	19.941	17.370	0.483
730.500	421.055	80.005	20.009	100.352	19.943	16.606	0.476
731.000	421.322	80.006	20.009	100.353	19.942	16.768	0.481
731.500	421.521	80.005	20.009	100.359	19.947	15.264	0.485
732.000	421.782	80.004	20.008	100.367	19.944	16.203	0.463
732.500	422.034	80.006	20.009	100.371	19.946	15.654	0.487
733.000	422.269	80.006	20.009	100.367	19.945	15.836	0.500
733.500	422.595	80.006	20.009	100.359	19.947	15.302	0.523
734.000	422.811	80.006	20.009	100.354	19.949	14.810	0.551
734.501	423.040	80.006	20.009	100.354	19.948	14.865	0.494
735.001	423.248	80.006	20.009	100.359	19.950	14.370	0.441
735.500	423.521	80.005	20.009	100.368	19.945	15.993	0.459
736.000	423.769	80.005	20.009	100.375	19.946	15.720	0.501
736.500	424.024	80.006	20.009	100.374	19.948	14.967	0.512
737.000	424.268	80.006	20.009	100.365	19.948	15.089	0.501
737.500	424.555	80.005	20.009	100.357	19.949	14.670	0.515
738.000	424.756	80.006	20.009	100.351	19.948	14.820	0.510
738.500	424.992	80.005	20.009	100.351	19.950	14.469	0.463
739.000	425.258	80.006	20.009	100.358	19.948	14.915	0.469
739.500	425.444	80.006	20.009	100.362	19.948	15.056	0.477
740.000	425.717	80.006	20.008	100.364	19.949	14.574	0.456
740.500	426.003	80.006	20.009	100.362	19.955	12.835	0.509
741.000	426.164	80.005	20.009	100.355	19.951	13.958	0.503
741.500	426.521	80.006	20.009	100.347	19.952	13.737	0.482
742.000	426.727	80.006	20.009	100.346	19.954	13.210	0.540
742.500	426.985	80.007	20.008	100.354	19.955	12.656	0.513
743.000	427.214	80.004	20.009	100.360	19.952	13.799	0.476
743.500	427.533	80.007	20.009	100.365	19.955	12.837	0.518
744.000	427.765	80.006	20.009	100.364	19.957	12.247	0.550
744.500	427.994	80.005	20.009	100.358	19.956	12.423	0.506
745.000	428.240	80.006	20.009	100.345	19.958	11.760	0.468
745.500	428.510	80.005	20.009	100.338	19.958	11.708	0.496
746.000	428.751	80.006	20.008	100.334	19.954	13.082	0.513
746.500	428.983	80.005	20.009	100.342	19.957	12.115	0.492
747.000	429.239	80.005	20.009	100.351	19.956	12.547	0.480
747.500	429.495	80.007	20.009	100.356	19.954	13.041	0.500
748.000	429.727	80.004	20.009	100.353	19.957	12.153	0.500
748.500	429.958	80.007	20.009	100.344	19.954	12.952	0.475
749.000	430.196	80.006	20.009	100.329	19.958	11.795	0.466
749.500	430.459	80.005	20.009	100.320	19.957	12.114	0.485
750.000	430.743	80.005	20.009	100.319	19.956	12.338	0.524
750.500	430.980	80.006	20.009	100.323	19.957	12.142	0.534
751.000	431.239	80.005	20.009	100.330	19.954	12.941	0.509
751.500	431.407	80.006	20.009	100.338	19.955	12.866	0.462
752.000	431.684	80.006	20.009	100.332	19.953	13.237	0.436
752.500	431.913	80.004	20.009	100.323	19.956	12.478	0.476
753.000	432.151	80.006	20.009	100.315	19.959	11.463	0.487
753.500	432.425	80.007	20.009	100.314	19.959	11.375	0.489
754.000	432.680	80.005	20.009	100.314	19.958	11.849	0.520
754.500	432.916	80.006	20.009	100.324	19.955	12.716	0.511
755.000	433.135	80.005	20.009	100.333	19.957	12.094	0.473
755.500	433.434	80.005	20.009	100.338	19.955	12.581	0.486
756.000	433.689	80.006	20.009	100.333	19.961	10.779	0.536
756.500	433.890	80.005	20.009	100.325	19.957	11.950	0.505
757.000	434.135	80.004	20.010	100.319	19.957	11.956	0.451
757.500	434.419	80.006	20.010	100.318	19.959	11.408	0.488
758.000	434.647	80.006	20.009	100.321	19.956	12.418	0.520
758.500	434.892	80.005	20.009	100.333	19.961	10.673	0.492
759.000	435.153	80.006	20.009	100.340	19.957	11.953	0.490
759.500	435.384	80.005	20.009	100.343	19.960	11.296	0.499
760.000	435.610	80.005	20.009	100.339	19.960	11.153	0.475
760.500	435.909	80.004	20.009	100.334	19.959	11.618	0.491
761.000	436.105	80.004	20.009	100.326	19.960	11.015	0.510
761.500	436.371	80.005	20.009	100.327	19.962	10.650	0.478
762.000	436.592	80.005	20.009	100.328	19.961	10.854	0.474
762.500	436.866	80.005	20.009	100.336	19.962	10.477	0.491
763.000	437.119	80.004	20.009	100.344	19.959	11.527	0.511
763.500	437.337	80.006	20.009	100.346	19.961	10.932	0.499
764.000	437.594	80.006	20.009	100.345	19.959	11.303	0.473
764.500	437.816	80.005	20.009	100.343	19.959	11.302	0.477
765.000	438.152	80.005	20.009	100.334	19.957	12.025	0.519
765.500	438.394	80.005	20.009	100.326	19.958	11.761	0.568
766.000	438.619	80.004	20.009	100.325	19.961	10.828	0.522
766.500	438.873	80.005	20.009	100.326	19.959	11.465	0.473
767.000	439.096	80.005	20.009	100.329	19.956	12.455	0.478
767.500	439.299	80.006	20.009	100.334	19.960	11.021	0.452
768.000	439.541	80.003	20.009	100.338	19.959	11.360	0.435
768.500	439.820	80.005	20.009	100.333	19.960	11.115	0.483
769.000	440.049	80.005	20.009	100.323	19.959	11.392	0.515
769.500	440.293	80.005	20.009	100.319	19.964	9.888	0.491
770.000	440.549	80.005	20.009	100.319	19.963	10.220	0.486
770.500	440.761	80.006	20.009	100.319	19.959	11.459	0.484
771.000	441.017	80.005	20.009	100.331	19.960	11.270	0.468
771.500	441.255	80.006	20.009	100.342	19.957	12.136	0.481
772.000	441.559	80.007	20.009	100.346	19.958	11.777	0.518
772.500	441.816	80.005	20.009	100.341	19.958	11.682	0.551
773.000	442.036	80.006	20.009	100.335	19.956	12.410	0.519
773.500	442.254	80.006	20.009	100.320	19.955	12.707	0.457
774.000	442.520	80.005	20.009	100.315	19.957	11.943	0.461
774.500	442.782	80.005	20.009	100.316	19.954	12.993	0.506
775.000	443.003	80.006	20.009	100.326	19.956	12.318	0.506
775.500	443.269	80.005	20.009	100.342	19.959	11.554	0.485
776.000	443.526	80.005	20.009	100.353	19.959	11.507	0.505
776.500	443.736	80.004	20.009	100.355	19.960	11.154	0.495
777.000	444.015	80.006	20.009	100.348	19.962	10.537	0.478
777.500	444.285	80.005	20.009	100.335	19.961	10.936	0.519
778.000	444.532	80.005	20.009	100.325	19.960	11.017	0.533
778.500	444.834	80.007	20.009	100.324	19.958	11.714	0.533
779.000	445.017	80.006	20.008	100.331	19.959	11.451	0.517
779.500	445.244	80.005	20.009	100.346	19.960	11.262	0.448
780.000	445.516	80.005	20.008	100.361	19.961	10.937	0.455
780.500	445.775	80.005	20.009	100.369	19.961	10.719	0.515
781.000	445.997	80.004	20.009	100.367	19.959	11.591	0.506
781.500	446.295	80.006	20.009	100.359	19.957	12.098	0.501
782.000	446.541	80.005	20.009	100.351	19.960	11.043	0.532
782.500	446.707	80.004	20.009	100.344	19.960	11.064	0.478
783.000	447.020	80.006	20.009	100.340	19.959	11.579	0.446
783.500	447.285	80.005	20.009	100.350	19.961	10.842	0.529
784.000	447.517	80.004	20.009	100.354	19.960	11.099	0.538
784.500	447.760	80.005	20.009	100.354	19.960	10.997	0.486
785.000	447.986	80.006	20.009	100.350	19.959	11.388	0.472
785.500	448.322	80.005	20.009	100.342	19.958	11.868	0.516
786.000	448.521	80.005	20.009	100.325	19.960	10.988	0.548
786.500	448.759	80.005	20.009	100.320	19.958	11.828	0.486
787.000	448.987	80.007	20.008	100.324	19.958	11.930	0.452
787.500	449.214	80.006	20.008	100.332	19.961	10.787	0.460
788.000	449.470	80.006	20.009	100.344	19.959	11.336	0.469
788.500	449.750	80.006	20.008	100.353	19.959	11.599	0.510
789.000	449.994	80.006	20.009	100.354	19.962	10.610	0.530
789.500	450.239	80.004	20.009	100.345	19.959	11.321	0.506
790.000	450.465	80.006	20.009	100.334	19.958	11.808	0.480
790.500	450.678	80.005	20.009	100.330	19.959	11.592	0.455
791.000	450.902	80.006	20.008	100.330	19.961	10.950	0.438
791.500	451.262	80.005	20.008	100.334	19.960	11.187	0.511
792.000	451.504	80.006	20.009	100.339	19.958	11.754	0.593
792.500	451.743	80.005	20.009	100.344	19.958	11.935	0.542
793.000	451.999	80.007	20.009	100.338	19.958	11.772	0.488
793.500	452.234	80.005	20.009	100.329	19.957	12.150	0.493
794.000	452.481	80.005	20.009	100.319	19.955	12.671	0.486
794.500	452.777	80.006	20.009	100.317	19.956	12.558	0.512
795.000	452.980	80.006	20.009	100.317	19.956	12.397	0.521
795.500	453.180	80.007	20.009	100.328	19.952	13.670	0.451
796.000	453.492	80.006	20.008	100.336	19.955	12.608	0.457
796.500	453.714	80.005	20.009	100.343	19.957	11.998	0.523
797.000	453.984	80.007	20.009	100.339	19.953	13.262	0.513
797.500	454.163	80.006	20.009	100.331	19.956	12.524	0.470
798.000	454.475	80.007	20.009	100.321	19.953	13.220	0.470
798.500	454.729	80.004	20.009	100.313	19.955	12.755	0.528
799.000	454.989	80.006	20.009	100.312	19.957	12.255	0.540
799.500	455.249	80.006	20.009	100.319	19.955	12.859	0.517
800.000	455.459	80.006	20.009	100.327	19.956	12.527	0.495
800.500	455.730	80.006	20.008	100.334	19.955	12.871	0.476
801.000	455.987	80.008	20.009	100.341	19.956	12.410	0.505
801.500	456.209	80.006	20.009	100.333	19.955	12.761	0.503
802.000	456.459	80.005	20.009	100.325	19.955	12.781	0.475
802.500	456.729	80.007	20.009	100.323	19.956	12.383	0.496
803.000	457.008	80.005	20.009	100.323	19.955	12.722	0.534
803.500	457.255	80.006	20.009	100.325	19.955	12.791	0.538
804.000	457.508	80.007	20.009	100.334	19.955	12.858	0.513
804.500	457.766	80.005	20.009	100.334	19.954	13.047	0.505
805.000	457.979	80.006	20.009	100.327	19.953	13.513	0.491
805.500	458.243	80.005	20.009	100.312	19.954	13.017	0.474
806.000	458.450	80.006	20.009	100.303	19.956	12.381	0.474
806.500	458.771	80.005	20.009	100.297	19.955	12.876	0.500
807.001	459.006	80.005	20.009	100.302	19.954	13.188	0.542
807.501	459.290	80.005	20.009	100.311	19.954	12.953	0.537
808.001	459.511	80.005	20.009	100.326	19.955	12.784	0.512
808.501	459.771	80.006	20.008	100.335	19.956	12.520	0.493
809.001	460.005	80.006	20.009	100.334	19.955	12.674	0.488
809.500	460.261	80.006	20.009	100.327	19.954	12.911	0.492
810.000	460.475	80.006	20.009	100.318	19.955	12.830	0.480
810.500	460.736	80.005	20.009	100.311	19.955	12.891	0.473
811.000	460.983	80.006	20.009	100.310	19.955	12.804	0.492
811.500	461.209	80.006	20.009	100.319	19.953	13.408	0.491
812.000	461.489	80.007	20.009	100.328	19.956	12.386	0.490
812.500	461.777	80.004	20.008	100.337	19.955	12.872	0.537
813.001	461.988	80.007	20.009	100.337	19.956	12.553	0.533
813.500	462.227	80.006	20.009	100.330	19.954	13.141	0.474
814.000	462.536	80.005	20.009	100.320	19.953	13.472	0.499
814.501	462.758	80.006	20.009	100.315	19.954	13.209	0.540
815.001	462.976	80.006	20.009	100.313	19.954	13.020	0.486
815.500	463.273	80.006	20.009	100.320	19.953	13.461	0.477
816.000	463.483	80.007	20.009	100.329	19.956	12.507	0.510
816.500	463.803	80.004	20.009	100.337	19.954	13.048	0.518
817.000	464.037	80.005	20.009	100.335	19.951	13.994	0.542
817.500	464.273	80.006	20.009	100.329	19.953	13.357	0.513
818.000	464.564	80.006	20.009	100.320	19.953	13.249	0.498
818.500	464.816	80.007	20.009	100.310	19.953	13.330	0.535
819.000	465.044	80.007	20.009	100.309	19.950	14.203	0.512
819.500	465.288	80.005	20.009	100.315	19.951	13.859	0.476
820.000	465.586	80.006	20.008	100.324	19.952	13.806	0.507
820.500	465.752	80.005	20.009	100.332	19.954	12.905	0.503
821.000	466.022	80.006	20.009	100.338	19.952	13.811	0.451
821.500	466.273	80.007	20.009	100.333	19.953	13.262	0.479
822.000	466.568	80.006	20.009	100.325	19.955	12.815	0.533
822.500	466.846	80.005	20.009	100.321	19.951	14.128	0.559
823.000	467.069	80.007	20.009	100.322	19.955	12.681	0.537
823.500	467.324	80.006	20.009	100.326	19.953	13.270	0.490
824.000	467.620	80.007	20.009	100.338	19.951	13.894	0.515
824.500	467.835	80.007	20.009	100.345	19.954	13.088	0.531
825.000	468.073	80.007	20.009	100.344	19.953	13.500	0.482
825.500	468.366	80.007	20.010	100.336	19.952	13.756	0.492
826.000	468.591	80.005	20.009	100.329	19.953	13.505	0.524
826.500	468.833	80.004	20.009	100.322	19.951	13.972	0.493
827.000	469.083	80.006	20.009	100.322	19.953	13.378	0.480
827.500	469.339	80.006	20.009	100.325	19.951	14.055	0.499
828.000	469.635	80.006	20.009	100.331	19.950	14.319	0.529
828.500	469.883	80.005	20.009	100.336	19.951	14.021	0.548
829.000	470.087	80.007	20.008	100.338	19.951	14.122	0.498
829.500	470.345	80.005	20.009	100.336	19.948	14.860	0.457
830.000	470.568	80.006	20.009	100.329	19.953	13.473	0.472
830.500	470.839	80.006	20.009	100.322	19.952	13.745	0.488
831.000	471.088	80.005	20.009	100.318	19.950	14.288	0.507
831.500	471.295	80.005	20.009	100.318	19.949	14.782	0.488
832.000	471.587	80.006	20.008	100.321	19.950	14.322	0.478
832.500	471.801	80.007	20.008	100.329	19.951	14.084	0.503
833.000	472.028	80.006	20.009	100.335	19.952	13.677	0.473
833.500	472.332	80.005	20.009	100.332	19.954	13.155	0.485
834.000	472.583	80.006	20.009	100.324	19.953	13.317	0.543
834.500	472.743	80.006	20.009	100.316	19.950	14.305	0.483
835.000	473.003	80.005	20.009	100.312	19.954	12.919	0.416
835.500	473.292	80.006	20.009	100.314	19.952	13.751	0.485
836.000	473.530	80.005	20.008	100.321	19.952	13.595	0.538
836.500	473.798	80.005	20.008	100.329	19.952	13.736	0.517
837.000	474.052	80.006	20.009	100.336	19.954	13.125	0.514
837.500	474.273	80.006	20.009	100.332	19.951	13.942	0.498
838.000	474.531	80.006	20.009	100.325	19.954	13.171	0.477
838.500	474.756	80.005	20.009	100.318	19.951	14.159	0.481
839.000	475.032	80.005	20.009	100.316	19.955	12.854	0.492
839.500	475.280	80.006	20.009	100.316	19.952	13.768	0.513
840.000	475.485	80.007	20.008	100.324	19.952	13.795	0.489
840.500	475.798	80.005	20.009	100.328	19.952	13.674	0.486
841.000	476.004	80.006	20.009	100.327	19.954	13.017	0.518
841.500	476.231	80.006	20.009	100.323	19.952	13.708	0.476
842.000	476.494	80.005	20.009	100.323	19.953	13.249	0.462
842.500	476.744	80.006	20.008	100.322	19.954	13.216	0.501
843.000	477.005	80.006	20.009	100.328	19.954	13.163	0.512
843.500	477.231	80.007	20.008	100.337	19.954	13.198	0.499
844.000	477.483	80.007	20.009	100.344	19.951	13.961	0.482
844.500	477.737	80.006	20.009	100.345	19.952	13.608	0.492
845.000	477.977	80.007	20.008	100.346	19.954	13.181	0.500
845.500	478.217	80.005	20.009	100.339	19.955	12.876	0.486
846.000	478.516	80.006	20.009	100.330	19.953	13.533	0.510
846.500	478.765	80.005	20.009	100.327	19.951	14.116	0.544
847.000	479.021	80.005	20.009	100.327	19.951	14.157	0.527
847.500	479.247	80.006	20.008	100.327	19.949	14.596	0.493
848.000	479.529	80.006	20.009	100.332	19.946	15.676	0.494
848.500	479.762	80.005	20.008	100.333	19.949	14.517	0.511
849.000	480.008	80.005	20.009	100.328	19.949	14.543	0.498
849.500	480.251	80.006	20.009	100.320	19.951	13.949	0.484
850.001	480.541	80.007	20.009	100.303	19.947	15.426	0.511
850.500	480.796	80.006	20.009	100.294	19.945	15.902	0.539
851.000	481.019	80.005	20.009	100.292	19.948	14.840	0.511
851.500	481.260	80.005	20.009	100.297	19.947	15.186	0.471
852.000	481.533	80.006	20.009	100.301	19.946	15.557	0.489
852.500	481.767	80.006	20.010	100.309	19.947	15.380	0.510
853.000	482.031	80.005	20.010	100.309	19.948	15.102	0.502
853.500	482.277	80.005	20.010	100.308	19.949	14.663	0.504
854.000	482.514	80.006	20.010	100.305	19.949	14.591	0.497
854.500	482.740	80.006	20.010	100.311	19.949	14.546	0.473
855.000	483.026	80.004	20.009	100.319	19.950	14.357	0.487
855.500	483.312	80.006	20.009	100.329	19.949	14.587	0.542
856.000	483.523	80.006	20.009	100.338	19.950	14.199	0.534
856.500	483.779	80.006	20.009	100.342	19.950	14.264	0.482
857.000	484.019	80.005	20.010	100.335	19.949	14.756	0.482
857.500	484.289	80.005	20.009	100.327	19.952	13.775	0.503
858.000	484.573	80.006	20.010	100.318	19.949	14.723	0.532
858.500	484.800	80.005	20.009	100.316	19.950	14.285	0.532
859.000	485.078	80.006	20.009	100.321	19.950	14.279	0.508
859.500	485.345	80.005	20.009	100.327	19.949	14.753	0.525
860.000	485.543	80.006	20.010	100.328	19.948	15.049	0.505
860.500	485.767	80.003	20.010	100.322	19.947	15.305	0.444
861.000	486.033	80.006	20.010	100.309	19.948	15.040	0.456
861.500	486.321	80.005	20.010	100.295	19.947	15.155	0.522
862.000	486.539	80.005	20.010	100.287	19.947	15.231	0.530
862.501	486.769	80.005	20.010	100.294	19.947	15.259	0.477
863.000	487.036	80.006	20.010	100.308	19.945	15.917	0.472
863.500	487.273	80.006	20.010	100.323	19.945	15.884	0.500
864.000	487.552	80.004	20.010	100.329	19.947	15.315	0.510
864.500	487.812	80.006	20.010	100.330	19.949	14.806	0.528
865.000	488.063	80.005	20.010	100.323	19.947	15.204	0.525
865.500	488.317	80.005	20.010	100.316	19.949	14.703	0.508
866.000	488.521	80.006	20.010	100.314	19.949	14.750	0.482
866.500	488.762	80.004	20.009	100.323	19.950	14.481	0.451
867.000	489.049	80.004	20.009	100.338	19.945	15.844	0.486
867.500	489.310	80.007	20.009	100.352	19.945	15.940	0.538
868.000	489.528	80.006	20.009	100.359	19.944	16.102	0.513
868.500	489.789	80.006	20.009	100.354	19.949	14.815	0.479
869.000	490.047	80.005	20.009	100.339	19.946	15.483	0.499
869.500	490.315	80.004	20.009	100.324	19.946	15.724	0.522
870.000	490.560	80.005	20.010	100.310	19.947	15.237	0.520
870.500	490.826	80.004	20.009	100.307	19.947	15.407	0.512
871.000	491.015	80.005	20.009	100.314	19.947	15.307	0.483
871.500	491.287	80.006	20.009	100.323	19.949	14.665	0.458
872.000	491.518	80.005	20.009	100.330	19.950	14.387	0.482
872.500	491.775	80.005	20.010	100.331	19.949	14.705	0.496
873.000	492.018	80.006	20.009	100.325	19.951	14.149	0.494
873.500	492.255	80.004	20.010	100.317	19.948	14.993	0.490
874.000	492.506	80.005	20.010	100.309	19.947	15.196	0.484
874.500	492.753	80.004	20.010	100.309	19.946	15.474	0.493
875.001	493.001	80.006	20.009	100.316	19.949	14.684	0.496
875.501	493.243	80.005	20.009	100.324	19.947	15.173	0.492
876.000	493.436	80.004	20.010	100.331	19.948	14.849	0.462
876.500	493.696	80.005	20.010	100.338	19.945	15.891	0.444
877.000	493.876	80.005	20.010	100.332	19.947	15.368	0.447
877.500	494.162	80.005	20.009	100.324	19.946	15.691	0.453
878.000	494.452	80.005	20.010	100.316	19.945	15.812	0.521
878.500	494.638	80.004	20.010	100.313	19.946	15.629	0.526
879.000	494.900	80.005	20.010	100.315	19.946	15.759	0.462
879.500	495.179	80.006	20.009	100.327	19.947	15.274	0.495
880.000	495.368	80.004	20.009	100.342	19.948	15.099	0.505
880.500	495.621	80.006	20.009	100.352	19.945	15.871	0.455
881.000	495.894	80.004	20.010	100.349	19.947	15.153	0.484
881.500	496.139	80.004	20.009	100.340	19.947	15.307	0.522
882.000	496.349	80.005	20.009	100.326	19.945	15.854	0.487
882.500	496.621	80.005	20.009	100.313	19.944	16.368	0.469
883.000	496.828	80.005	20.009	100.311	19.946	15.563	0.481
883.500	497.067	80.005	20.009	100.316	19.947	15.355	0.463
884.000	497.335	80.005	20.009	100.325	19.948	14.957	0.477
884.500	497.595	80.007	20.009	100.331	19.948	15.134	0.517
885.000	497.829	80.005	20.009	100.333	19.946	15.634	0.510
885.500	498.096	80.005	20.010	100.326	19.947	15.355	0.497
886.000	498.277	80.006	20.010	100.319	19.947	15.137	0.475
886.500	498.539	80.004	20.010	100.311	19.947	15.135	0.446
887.000	498.787	80.004	20.011	100.309	19.948	14.864	0.477
887.500	499.030	80.005	20.010	100.314	19.950	14.351	0.500
888.000	499.288	80.005	20.010	100.325	19.951	14.156	0.495
888.500	499.528	80.004	20.009	100.334	19.949	14.685	0.500
889.000	499.764	80.005	20.009	100.341	19.948	14.970	0.487
889.500	500.008	80.006	20.010	100.338	19.948	14.984	0.478
890.000	500.270	80.004	20.010	100.329	19.950	14.259	0.493
890.500	500.479	80.003	20.010	100.317	19.949	14.535	0.489
891.000	500.739	80.005	20.010	100.311	19.950	14.419	0.470
891.500	500.942	80.005	20.009	100.311	19.948	14.865	0.466
892.000	501.252	80.004	20.009	100.320	19.946	15.556	0.488
892.500	501.415	80.004	20.009	100.331	19.947	15.212	0.493
893.000	501.651	80.004	20.009	100.339	19.948	15.091	0.436
893.500	501.917	80.006	20.009	100.344	19.948	15.031	0.450
894.000	502.164	80.004	20.009	100.340	19.946	15.667	0.507
894.500	502.403	80.005	20.010	100.330	19.948	15.111	0.500
895.000	502.643	80.005	20.009	100.323	19.947	15.171	0.483
895.500	502.909	80.005	20.009	100.322	19.945	16.043	0.493
896.000	503.111	80.006	20.010	100.321	19.945	15.961	0.487
896.500	503.342	80.004	20.009	100.330	19.946	15.576	0.450
897.000	503.617	80.004	20.009	100.342	19.944	16.173	0.470
897.500	503.864	80.006	20.009	100.346	19.947	15.402	0.514
898.000	504.078	80.004	20.009	100.343	19.946	15.673	0.491
898.500	504.293	80.005	20.009	100.334	19.945	15.835	0.445
899.000	504.604	80.005	20.010	100.321	19.946	15.671	0.477
899.500	504.813	80.005	20.009	100.310	19.944	16.387	0.523
900.000	505.085	80.005	20.009	100.309	19.945	15.899	0.501
900.500	505.295	80.006	20.009	100.313	19.942	16.779	0.482
901.000	505.576	80.005	20.009	100.322	19.944	16.158	0.487
901.500	505.789	80.004	20.009	100.331	19.945	15.956	0.492
902.000	506.050	80.005	20.009	100.340	19.944	16.289	0.484
902.500	506.284	80.005	20.010	100.339	19.945	15.808	0.484
903.000	506.549	80.006	20.010	100.332	19.947	15.157	0.497
903.500	506.783	80.006	20.010	100.324	19.945	15.927	0.499
904.000	507.023	80.005	20.010	100.316	19.945	15.987	0.487
904.500	507.276	80.004	20.010	100.314	19.949	14.796	0.484
905.000	507.527	80.006	20.009	100.317	19.946	15.731	0.499
905.500	507.760	80.006	20.010	100.325	19.946	15.706	0.494
906.000	508.008	80.005	20.009	100.334	19.946	15.599	0.482
906.500	508.272	80.006	20.010	100.340	19.947	15.261	0.496
907.000	508.516	80.004	20.010	100.337	19.942	17.006	0.510
907.500	508.757	80.006	20.010	100.330	19.945	16.084	0.496
908.000	508.998	80.005	20.010	100.322	19.945	15.826	0.484
908.500	509.202	80.004	20.009	100.314	19.946	15.737	0.463
909.000	509.478	80.005	20.010	100.313	19.946	15.589	0.462
909.500	509.674	80.006	20.010	100.316	19.944	16.091	0.476
910.000	510.004	80.003	20.010	100.324	19.947	15.443	0.499
910.500	510.275	80.005	20.010	100.332	19.943	16.479	0.564
911.000	510.462	80.005	20.010	100.334	19.944	16.120	0.530
911.500	510.719	80.006	20.010	100.328	19.945	15.990	0.451
912.000	510.981	80.004	20.010	100.321	19.943	16.524	0.481
912.500	511.211	80.004	20.010	100.312	19.944	16.347	0.505
913.000	511.425	80.006	20.010	100.306	19.943	16.639	0.468
913.500	511.698	80.005	20.009	100.311	19.943	16.714	0.466
914.000	511.968	80.005	20.010	100.318	19.943	16.641	0.516
914.500	512.220	80.006	20.009	100.326	19.945	16.088	0.533
915.000	512.406	80.004	20.009	100.332	19.942	16.765	0.480
915.501	512.622	80.004	20.010	100.330	19.943	16.729	0.420
916.000	512.851	80.005	20.010	100.321	19.942	17.012	0.423
916.500	513.096	80.005	20.010	100.311	19.942	16.740	0.459
917.000	513.375	80.004	20.010	100.305	19.944	16.245	0.499
917.500	513.583	80.004	20.010	100.306	19.943	16.509	0.506
918.000	513.836	80.004	20.009	100.314	19.941	17.114	0.474
918.500	514.093	80.005	20.010	100.323	19.940	17.529	0.485
919.000	514.376	80.005	20.010	100.334	19.943	16.630	0.525
919.500	514.622	80.004	20.010	100.334	19.941	17.368	0.535
920.000	514.838	80.003	20.010	100.329	19.942	17.014	0.496
920.500	515.102	80.005	20.010	100.321	19.942	16.951	0.471
921.000	515.359	80.005	20.010	100.314	19.945	15.873	0.500
921.500	515.602	80.004	20.010	100.309	19.943	16.563	0.510
922.000	515.852	80.005	20.010	100.314	19.941	17.214	0.496
922.500	516.071	80.004	20.009	100.322	19.944	16.398	0.481
923.000	516.307	80.004	20.009	100.330	19.943	16.441	0.462
923.500	516.542	80.005	20.010	100.336	19.941	17.085	0.463
924.000	516.813	80.003	20.010	100.335	19.941	17.219	0.489
924.500	517.089	80.005	20.010	100.327	19.941	17.143	0.526
925.000	517.291	80.004	20.010	100.318	19.939	17.885	0.512
925.500	517.550	80.005	20.010	100.316	19.944	16.239	0.469
926.000	517.763	80.003	20.010	100.319	19.940	17.633	0.466
926.500	517.999	80.005	20.010	100.326	19.940	17.493	0.461
927.000	518.286	80.005	20.009	100.335	19.943	16.710	0.486
927.500	518.488	80.003	20.009	100.343	19.942	16.772	0.506
928.000	518.662	80.005	20.010	100.345	19.941	17.096	0.433
928.501	518.943	80.003	20.010	100.335	19.942	17.041	0.416
929.000	519.226	80.005	20.010	100.326	19.942	16.910	0.509
929.500	519.466	80.005	20.010	100.317	19.941	17.139	0.543
930.000	519.722	80.005	20.010	100.311	19.942	16.983	0.509
930.500	519.936	80.004	20.010	100.313	19.939	17.722	0.483
931.000	520.192	80.005	20.010	100.327	19.941	17.080	0.470
931.500	520.472	80.004	20.010	100.340	19.939	17.772	0.503
932.000	520.711	80.005	20.009	100.347	19.941	17.210	0.527
932.500	520.964	80.005	20.010	100.348	19.943	16.518	0.505
933.000	521.191	80.004	20.010	100.338	19.939	17.726	0.486
933.500	521.467	80.004	20.010	100.324	19.941	17.211	0.492
934.000	521.728	80.005	20.010	100.314	19.938	18.319	0.520
934.500	521.932	80.004	20.010	100.314	19.940	17.603	0.501
935.000	522.201	80.006	20.010	100.322	19.940	17.646	0.469
935.500	522.436	80.005	20.009	100.337	19.938	18.319	0.488
936.000	522.679	80.004	20.009	100.352	19.938	18.253	0.491
936.501	522.998	80.004	20.010	100.356	19.939	17.806	0.520
937.000	523.255	80.005	20.010	100.350	19.937	18.366	0.569
937.500	523.453	80.005	20.010	100.339	19.938	18.229	0.515
938.000	523.729	80.004	20.010	100.325	19.940	17.626	0.464
938.500	523.968	80.004	20.010	100.318	19.940	17.653	0.495
939.000	524.205	80.004	20.010	100.318	19.939	17.932	0.496
939.500	524.399	80.004	20.010	100.327	19.938	18.178	0.453
940.000	524.711	80.004	20.010	100.340	19.933	19.790	0.469
940.500	524.978	80.005	20.010	100.347	19.934	19.309	0.543
941.000	525.190	80.004	20.010	100.342	19.933	19.680	0.529
941.500	525.418	80.005	20.010	100.335	19.935	19.089	0.460
942.000	525.671	80.004	20.010	100.325	19.934	19.432	0.461
942.500	525.950	80.005	20.010	100.315	19.932	20.075	0.506
943.000	526.204	80.005	20.010	100.315	19.935	19.089	0.532
943.500	526.462	80.004	20.010	100.321	19.931	20.289	0.523
944.000	526.749	80.004	20.010	100.328	19.932	20.123	0.529
944.500	526.974	80.006	20.010	100.336	19.932	20.199	0.528
945.000	527.258	80.004	20.010	100.334	19.934	19.495	0.510
945.500	527.452	80.005	20.010	100.325	19.930	20.699	0.493
946.000	527.747	80.003	20.011	100.310	19.930	20.698	0.484
946.500	527.949	80.005	20.010	100.301	19.931	20.398	0.493
947.000	528.208	80.004	20.010	100.294	19.931	20.452	0.479
947.500	528.526	80.004	20.010	100.300	19.934	19.540	0.519
948.000	528.759	80.005	20.010	100.313	19.934	19.313	0.564
948.500	529.031	80.004	20.009	100.330	19.937	18.529	0.528
949.000	529.282	80.005	20.010	100.339	19.934	19.438	0.514
949.500	529.508	80.005	20.010	100.340	19.933	19.668	0.500
950.000	529.738	80.005	20.010	100.331	19.930	20.797	0.466
950.500	530.025	80.005	20.010	100.321	19.936	18.850	0.487
951.000	530.226	80.004	20.010	100.317	19.935	19.220	0.502
951.500	530.485	80.006	20.010	100.317	19.934	19.367	0.474
952.000	530.776	80.005	20.010	100.326	19.936	18.881	0.505
952.500	531.027	80.006	20.009	100.338	19.936	18.747	0.546
953.000	531.232	80.006	20.010	100.345	19.935	19.143	0.499
953.500	531.551	80.004	20.010	100.341	19.933	19.700	0.490
954.000	531.781	80.005	20.010	100.333	19.933	19.721	0.537
954.500	531.957	80.004	20.010	100.322	19.934	19.415	0.477
955.000	532.271	80.004	20.010	100.313	19.933	19.718	0.448
955.500	532.505	80.005	20.010	100.313	19.933	19.865	0.519
956.000	532.764	80.005	20.010	100.322	19.935	18.999	0.521
956.500	532.982	80.005	20.010	100.337	19.935	19.285	0.484
957.000	533.254	80.005	20.010	100.352	19.936	18.934	0.483
957.500	533.485	80.006	20.010	100.360	19.936	18.840	0.497
958.000	533.758	80.005	20.010	100.359	19.937	18.617	0.504
958.501	533.998	80.005	20.010	100.355	19.937	18.473	0.508
959.000	534.246	80.006	20.010	100.347	19.937	18.552	0.500
959.500	534.516	80.006	20.010	100.338	19.935	19.056	0.503
960.000	534.740	80.005	20.010	100.339	19.934	19.563	0.506
960.501	534.984	80.004	20.010	100.348	19.932	19.942	0.481
961.001	535.242	80.006	20.009	100.362	19.935	19.233	0.486
961.500	535.475	80.005	20.010	100.371	19.932	20.020	0.497
962.000	535.725	80.006	20.010	100.379	19.933	19.881	0.487
962.500	536.014	80.006	20.010	100.380	19.932	20.207	0.510
963.000	536.254	80.005	20.010	100.369	19.930	20.803	0.534
963.500	536.521	80.005	20.010	100.349	19.932	19.933	0.518
964.000	536.807	80.006	20.010	100.337	19.931	20.485	0.530
964.500	537.076	80.005	20.010	100.328	19.936	18.892	0.554
965.000	537.324	80.005	20.010	100.331	19.935	19.230	0.536
965.500	537.520	80.004	20.010	100.342	19.934	19.603	0.481
966.000	537.774	80.006	20.009	100.358	19.936	18.840	0.447
966.500	538.032	80.004	20.010	100.369	19.931	20.338	0.481
967.000	538.257	80.006	20.010	100.370	19.933	19.845	0.497
967.500	538.517	80.005	20.010	100.364	19.931	20.556	0.484
968.000	538.812	80.004	20.010	100.356	19.930	20.860	0.520
968.500	539.084	80.006	20.010	100.348	19.929	21.176	0.561
969.000	539.339	80.006	20.010	100.348	19.928	21.311	0.547
969.500	539.525	80.004	20.010	100.355	19.931	20.532	0.484
970.000	539.759	80.006	20.009	100.365	19.931	20.533	0.431
970.500	540.040	80.004	20.010	100.368	19.931	20.405	0.467
971.000	540.347	80.005	20.010	100.367	19.933	19.925	0.551
971.500	540.547	80.005	20.010	100.360	19.930	20.567	0.548
972.000	540.820	80.004	20.010	100.347	19.930	20.694	0.490
972.500	541.091	80.005	20.010	100.330	19.931	20.408	0.508
973.000	541.349	80.005	20.010	100.323	19.931	20.285	0.537
973.500	541.600	80.006	20.010	100.324	19.934	19.330	0.519
974.000	541.841	80.005	20.010	100.331	19.934	19.534	0.500
974.500	542.102	80.005	20.010	100.344	19.932	20.024	0.497
975.000	542.334	80.006	20.009	100.360	19.935	19.195	0.498
975.500	542.583	80.005	20.010	100.367	19.936	18.873	0.487
976.000	542.821	80.006	20.010	100.364	19.932	20.045	0.483
976.500	543.078	80.005	20.010	100.349	19.930	20.654	0.491
977.000	543.332	80.005	20.011	100.333	19.932	20.117	0.503
977.500	543.573	80.005	20.010	100.321	19.929	21.097	0.503
978.000	543.806	80.004	20.010	100.318	19.932	20.060	0.484
978.500	544.077	80.005	20.010	100.321	19.932	20.075	0.489
979.000	544.310	80.004	20.009	100.332	19.932	20.083	0.504
979.500	544.571	80.004	20.010	100.345	19.931	20.444	0.499
980.000	544.857	80.005	20.010	100.349	19.933	19.633	0.521
980.500	545.147	80.003	20.010	100.349	19.932	20.181	0.561
981.000	545.405	80.005	20.010	100.346	19.932	19.950	0.562
981.500	545.633	80.005	20.010	100.339	19.932	20.023	0.517
982.000	545.884	80.004	20.010	100.334	19.930	20.826	0.483
982.500	546.132	80.005	20.010	100.334	19.927	21.671	0.489
983.000	546.365	80.005	20.010	100.335	19.927	21.544	0.490
983.500	546.607	80.005	20.010	100.337	19.928	21.262	0.479
984.000	546.851	80.005	20.009	100.340	19.928	21.421	0.481
984.500	547.095	80.005	20.010	100.337	19.930	20.679	0.487
985.000	547.363	80.004	20.010	100.330	19.931	20.464	0.500
985.500	547.630	80.005	20.010	100.323	19.931	20.382	0.524
986.000	547.858	80.003	20.010	100.315	19.931	20.338	0.515
986.500	548.127	80.006	20.010	100.312	19.930	20.807	0.496
987.000	548.422	80.005	20.010	100.316	19.928	21.278	0.530
987.500	548.630	80.006	20.009	100.331	19.931	20.485	0.533
988.000	548.876	80.005	20.010	100.347	19.930	20.830	0.478
988.500	549.147	80.005	20.010	100.361	19.930	20.635	0.485
989.000	549.394	80.004	20.010	100.366	19.930	20.712	0.518
989.500	549.689	80.006	20.010	100.365	19.930	20.788	0.530
990.000	549.922	80.004	20.010	100.357	19.931	20.557	0.535
990.500	550.196	80.005	20.010	100.346	19.927	21.611	0.517
991.000	550.442	80.006	20.010	100.340	19.926	21.899	0.514
991.500	550.697	80.005	20.010	100.346	19.929	20.984	0.511
992.000	550.931	80.004	20.010	100.354	19.927	21.545	0.495
992.500	551.200	80.005	20.010	100.364	19.928	21.430	0.496
993.000	551.417	80.005	20.010	100.373	19.927	21.622	0.495
993.500	551.631	80.005	20.010	100.372	19.927	21.739	0.458
994.000	551.918	80.004	20.010	100.366	19.927	21.746	0.465
994.500	552.152	80.005	20.010	100.356	19.928	21.481	0.511
995.000	552.394	80.005	20.010	100.347	19.928	21.250	0.499
995.500	552.631	80.006	20.010	100.340	19.929	20.888	0.478
996.000	552.926	80.003	20.010	100.347	19.928	21.210	0.506
996.500	553.152	80.006	20.010	100.361	19.929	20.884	0.526
997.000	553.421	80.004	20.010	100.377	19.931	20.330	0.508
997.500	553.669	80.005	20.009	100.390	19.928	21.279	0.506
998.000	553.925	80.004	20.010	100.397	19.929	21.118	0.511
998.500	554.151	80.004	20.010	100.394	19.926	21.845	0.493
999.000	554.370	80.006	20.010	100.378	19.927	21.704	0.463
999.501	554.624	80.004	20.010	100.355	19.928	21.480	0.459
1000.000	554.908	80.005	20.010	100.338	19.926	22.021	0.505
1000.500	555.180	80.004	20.010	100.333	19.927	21.655	0.548
1001.000	555.399	80.004	20.010	100.331	19.927	21.830	0.524
1001.500	555.704	80.006	20.009	100.339	19.927	21.776	0.508
1002.000	555.948	80.005	20.010	100.352	19.930	20.681	0.537
1002.500	556.158	80.006	20.010	100.357	19.928	21.427	0.502
1003.000	556.405	80.005	20.010	100.354	19.928	21.469	0.455
1003.500	556.644	80.004	20.010	100.344	19.926	21.950	0.471
1004.000	556.950	80.004	20.010	100.330	19.927	21.692	0.515
1004.500	557.160	80.004	20.010	100.323	19.926	21.948	0.530
1005.000	557.433	80.005	20.010	100.321	19.926	22.061	0.499
1005.500	557.687	80.005	20.010	100.321	19.921	23.610	0.505
1006.000	557.887	80.005	20.010	100.334	19.923	22.887	0.491
1006.500	558.156	80.004	20.010	100.342	19.930	20.811	0.462
1007.000	558.390	80.005	20.010	100.344	19.925	22.391	0.486
1007.500	558.644	80.004	20.010	100.341	19.926	22.156	0.495
1008.001	558.855	80.004	20.010	100.334	19.927	21.770	0.476
1008.500	559.137	80.006	20.011	100.317	19.927	21.627	0.479
1009.000	559.327	80.004	20.011	100.305	19.925	22.443	0.483
1009.500	559.616	80.004	20.011	100.299	19.925	22.461	0.476
1010.000	559.816	80.003	20.010	100.304	19.921	23.441	0.484
1010.500	560.099	80.005	20.010	100.311	19.924	22.601	0.486
1011.000	560.372	80.004	20.010	100.321	19.926	22.014	0.519
1011.500	560.608	80.005	20.010	100.332	19.923	22.876	0.533
1012.000	560.793	80.005	20.010	100.338	19.926	22.120	0.465
1012.500	561.079	80.005	20.010	100.335	19.925	22.330	0.445
1013.000	561.331	80.004	20.010	100.335	19.921	23.711	0.504
1013.500	561.521	80.005	20.010	100.329	19.921	23.486	0.490
1014.000	561.763	80.004	20.010	100.328	19.920	24.026	0.437
1014.500	562.010	80.006	20.010	100.328	19.922	23.417	0.461
1015.000	562.291	80.005	20.010	100.331	19.924	22.790	0.509
1015.500	562.491	80.003	20.010	100.338	19.922	23.265	0.504
1016.001	562.757	80.006	20.010	100.346	19.920	23.810	0.473
1016.500	563.015	80.004	20.010	100.347	19.923	23.087	0.495
1017.000	563.264	80.003	20.010	100.345	19.922	23.372	0.515
1017.500	563.514	80.005	20.010	100.339	19.921	23.500	0.503
1018.000	563.779	80.005	20.010	100.330	19.920	24.082	0.507
1018.500	564.026	80.004	20.010	100.327	19.921	23.648	0.514
1019.000	564.219	80.005	20.010	100.331	19.921	23.553	0.476
1019.500	564.483	80.005	20.010	100.341	19.919	24.338	0.449
1020.000	564.762	80.004	20.009	100.352	19.918	24.529	0.500
1020.500	564.993	80.004	20.010	100.360	19.920	23.981	0.526
1021.000	565.228	80.005	20.010	100.361	19.917	24.855	0.488
1021.500	565.420	80.006	20.010	100.355	19.918	24.426	0.446
1022.000	565.684	80.004	20.010	100.343	19.920	23.910	0.441
1022.500	565.980	80.005	20.010	100.332	19.919	24.233	0.508
1023.000	566.209	80.004	20.010	100.326	19.920	24.008	0.543
1023.500	566.465	80.006	20.010	100.326	19.917	25.016	0.505
1024.000	566.702	80.006	20.009	100.333	19.919	24.307	0.489
1024.500	566.893	80.005	20.009	100.345	19.917	24.972	0.461
1025.000	567.158	80.004	20.010	100.350	19.922	23.384	0.442
1025.500	567.405	80.006	20.010	100.352	19.923	23.087	0.484
1026.000	567.685	80.004	20.010	100.352	19.922	23.324	0.520
1026.500	567.855	80.004	20.010	100.344	19.921	23.633	0.488
1027.000	568.164	80.007	20.010	100.339	19.924	22.663	0.465
1027.500	568.336	80.004	20.010	100.342	19.921	23.528	0.480
1028.000	568.615	80.006	20.010	100.350	19.923	22.924	0.466
1028.500	568.890	80.006	20.009	100.359	19.926	22.131	0.502
1029.000	569.096	80.006	20.010	100.370	19.927	21.612	0.517
1029.500	569.345	80.005	20.010	100.377	19.928	21.302	0.468
1030.000	569.579	80.004	20.010	100.381	19.929	21.046	0.469
1030.501	569.790	80.006	20.010	100.379	19.928	21.283	0.464
1031.000	570.113	80.005	20.010	100.375	19.930	20.708	0.490
1031.500	570.379	80.005	20.009	100.372	19.929	21.145	0.562
1032.000	570.585	80.004	20.010	100.373	19.929	21.001	0.530
1032.500	570.810	80.005	20.010	100.373	19.927	21.819	0.451
1033.000	571.104	80.004	20.009	100.376	19.928	21.217	0.475
1033.500	571.352	80.005	20.009	100.379	19.929	21.157	0.530
1034.000	571.576	80.005	20.010	100.380	19.930	20.585	0.507
1034.500	571.809	80.005	20.010	100.373	19.930	20.675	0.465
1035.001	572.033	80.004	20.010	100.365	19.928	21.285	0.457
1035.500	572.315	80.005	20.010	100.356	19.927	21.659	0.482
1036.000	572.547	80.006	20.010	100.348	19.928	21.402	0.510
1036.501	572.806	80.005	20.010	100.348	19.931	20.345	0.502
1037.000	572.964	80.006	20.010	100.356	19.928	21.401	0.453
1037.500	573.298	80.004	20.010	100.363	19.926	22.100	0.455
1038.000	573.491	80.005	20.010	100.371	19.928	21.384	0.510
1038.500	573.724	80.005	20.010	100.379	19.928	21.405	0.477
1039.000	574.019	80.005	20.010	100.376	19.927	21.825	0.477
1039.500	574.205	80.004	20.010	100.368	19.930	20.579	0.504
1040.000	574.548	80.004	20.010	100.360	19.929	21.051	0.505
1040.500	574.768	80.005	20.010	100.354	19.927	21.630	0.546
1041.000	575.053	80.005	20.010	100.345	19.924	22.635	0.534
1041.500	575.342	80.004	20.010	100.341	19.924	22.572	0.539
1042.000	575.528	80.006	20.009	100.348	19.922	23.255	0.524
1042.500	575.738	80.005	20.010	100.357	19.923	22.884	0.436
1043.000	575.997	80.005	20.009	100.363	19.923	22.946	0.433
1043.500	576.278	80.005	20.010	100.365	19.923	23.002	0.504
1044.000	576.496	80.004	20.010	100.363	19.923	23.043	0.519
1044.500	576.826	80.005	20.010	100.351	19.922	23.408	0.524
1045.000	577.062	80.004	20.010	100.342	19.923	23.081	0.557
1045.500	577.324	80.006	20.010	100.337	19.921	23.573	0.532
1046.000	577.620	80.004	20.010	100.338	19.923	22.921	0.528
1046.501	577.793	80.005	20.010	100.345	19.925	22.394	0.514
1047.000	578.031	80.005	20.010	100.358	19.919	24.135	0.440
1047.500	578.279	80.005	20.010	100.368	19.923	23.041	0.448
1048.000	578.532	80.005	20.009	100.373	19.922	23.368	0.493
1048.500	578.759	80.005	20.010	100.378	19.924	22.557	0.491
1049.000	579.112	80.004	20.010	100.380	19.923	23.112	0.530
1049.500	579.387	80.004	20.011	100.380	19.924	22.717	0.604
1050.000	579.598	80.004	20.011	100.379	19.924	22.485	0.556
1050.500	579.847	80.005	20.010	100.384	19.922	23.268	0.473
1051.000	580.093	80.004	20.010	100.391	19.926	21.914	0.477
1051.500	580.334	80.005	20.010	100.396	19.921	23.514	0.491
1052.000	580.598	80.004	20.010	100.397	19.921	23.557	0.496
1052.500	580.866	80.004	20.010	100.397	19.922	23.234	0.519
1053.000	581.142	80.006	20.010	100.385	19.922	23.195	0.538
1053.500	581.400	80.005	20.010	100.370	19.919	24.327	0.539
1054.000	581.638	80.005	20.010	100.356	19.918	24.557	0.515
1054.500	581.911	80.004	20.010	100.347	19.917	24.908	0.504
1055.000	582.170	80.006	20.010	100.341	19.918	24.549	0.521
1055.500	582.444	80.004	20.010	100.346	19.919	24.151	0.532
1056.000	582.696	80.004	20.010	100.352	19.919	24.289	0.530
1056.500	582.961	80.005	20.010	100.361	19.919	24.216	0.522
1057.000	583.209	80.005	20.010	100.362	19.917	24.989	0.515
1057.500	583.452	80.005	20.010	100.360	19.918	24.725	0.502
1058.000	583.670	80.005	20.010	100.352	19.917	24.865	0.476
1058.500	583.993	80.005	20.011	100.343	19.918	24.659	0.501
1059.000	584.227	80.006	20.010	100.334	19.917	24.777	0.549
1059.500	584.503	80.005	20.010	100.335	19.918	24.411	0.534
1060.000	584.727	80.005	20.010	100.343	19.918	24.526	0.505
1060.500	584.976	80.005	20.010	100.353	19.919	24.323	0.487
1061.000	585.245	80.005	20.010	100.362	19.920	23.905	0.495
1061.500	585.481	80.006	20.010	100.369	19.920	23.784	0.511
1062.000	585.778	80.004	20.010	100.367	19.922	23.262	0.519
1062.500	586.023	80.005	20.011	100.359	19.920	23.951	0.538
1063.000	586.276	80.004	20.010	100.350	19.921	23.672	0.520
1063.500	586.574	80.006	20.011	100.342	19.922	23.279	0.525
1064.000	586.821	80.005	20.010	100.339	19.920	24.003	0.548
1064.500	587.057	80.004	20.010	100.349	19.922	23.227	0.513
1065.000	587.299	80.005	20.010	100.360	19.920	23.867	0.481
1065.500	587.606	80.004	20.010	100.369	19.923	23.010	0.514
1066.000	587.854	80.005	20.010	100.377	19.925	22.179	0.552
1066.500	588.102	80.004	20.010	100.381	19.923	22.902	0.526
1067.000	588.388	80.006	20.010	100.380	19.924	22.669	0.515
1067.500	588.647	80.004	20.010	100.377	19.927	21.758	0.539
1068.000	588.896	80.004	20.010	100.377	19.925	22.371	0.526
1068.500	589.109	80.005	20.010	100.383	19.925	22.369	0.485
1069.000	589.447	80.005	20.010	100.392	19.924	22.795	0.506
1069.500	589.656	80.005	20.010	100.400	19.925	22.356	0.549
1070.000	589.887	80.006	20.010	100.403	19.928	21.341	0.494
1070.500	590.147	80.004	20.010	100.404	19.925	22.200	0.466
1071.000	590.419	80.005	20.010	100.396	19.926	22.132	0.512
1071.500	590.678	80.004	20.010	100.382	19.924	22.795	0.531
1072.000	590.984	80.005	20.010	100.368	19.922	23.152	0.548
1072.500	591.231	80.005	20.010	100.364	19.924	22.719	0.559
1073.000	591.499	80.005	20.010	100.363	19.925	22.321	0.534
1073.500	591.697	80.004	20.010	100.365	19.924	22.567	0.490
1074.000	591.991	80.005	20.010	100.371	19.925	22.386	0.479
1074.500	592.265	80.005	20.010	100.378	19.924	22.719	0.530
1075.000	592.485	80.006	20.010	100.374	19.921	23.531	0.531
1075.500	592.715	80.005	20.010	100.367	19.922	23.406	0.472
1076.000	593.048	80.003	20.010	100.360	19.923	23.038	0.506
1076.500	593.258	80.004	20.010	100.358	19.922	23.422	0.553
1077.001	593.595	80.005	20.010	100.358	19.923	22.928	0.545
1077.500	593.801	80.005	20.010	100.368	19.921	23.661	0.545
1078.000	594.115	80.004	20.010	100.383	19.921	23.656	0.532
1078.500	594.323	80.004	20.010	100.397	19.919	24.083	0.521
1079.000	594.591	80.005	20.010	100.403	19.920	23.778	0.499
1079.500	594.804	80.004	20.010	100.399	19.919	24.086	0.479
1080.000	595.087	80.005	20.010	100.386	19.919	24.367	0.488
1080.500	595.345	80.005	20.010	100.369	19.918	24.671	0.519
1081.000	595.575	80.003	20.010	100.355	19.918	24.468	0.515
1081.501	595.846	80.005	20.011	100.343	19.917	24.883	0.495
1082.000	596.114	80.004	20.011	100.342	19.916	25.280	0.519
1082.500	596.344	80.004	20.010	100.347	19.918	24.634	0.519
1083.000	596.572	80.004	20.010	100.347	19.912	26.381	0.478
1083.500	596.870	80.005	20.010	100.348	19.916	25.162	0.492
1084.000	597.119	80.004	20.010	100.347	19.916	25.356	0.536
1084.500	597.288	80.005	20.011	100.345	19.912	26.343	0.483
1085.000	597.664	80.004	20.010	100.338	19.914	25.766	0.481
1085.500	597.874	80.005	20.009	100.338	19.912	26.437	0.566
1086.000	598.160	80.004	20.010	100.344	19.913	26.073	0.541
1086.500	598.418	80.004	20.010	100.354	19.916	25.066	0.520
1087.000	598.665	80.005	20.010	100.361	19.915	25.534	0.525
1087.500	598.905	80.005	20.010	100.366	19.915	25.419	0.496
1088.000	599.120	80.004	20.011	100.364	19.913	26.135	0.471
1088.500	599.410	80.004	20.011	100.352	19.911	26.729	0.480
1089.000	599.683	80.004	20.010	100.341	19.912	26.605	0.534
1089.500	599.945	80.005	20.010	100.333	19.913	26.240	0.550
1090.000	600.201	80.004	20.011	100.333	19.913	26.175	0.526
1090.500	600.422	80.005	20.010	100.343	19.912	26.604	0.497
1091.000	600.699	80.003	20.010	100.351	19.913	26.187	0.488
1091.500	600.883	80.005	20.010	100.353	19.913	26.290	0.479
1092.000	601.144	80.005	20.010	100.350	19.912	26.641	0.453
1092.500	601.415	80.005	20.011	100.338	19.910	27.011	0.489
1093.000	601.697	80.005	20.011	100.322	19.912	26.487	0.542
1093.500	601.905	80.006	20.011	100.319	19.912	26.593	0.521
1094.000	602.144	80.003	20.011	100.321	19.909	27.580	0.468
1094.500	602.484	80.005	20.010	100.332	19.911	26.817	0.513
1095.000	602.689	80.003	20.010	100.347	19.910	27.069	0.563
1095.500	602.945	80.005	20.010	100.363	19.912	26.487	0.504
1096.000	603.230	80.005	20.010	100.365	19.910	27.089	0.501
1096.500	603.435	80.004	20.010	100.363	19.911	26.763	0.515
1097.000	603.713	80.004	20.011	100.356	19.912	26.477	0.486
1097.500	604.007	80.004	20.011	100.349	19.912	26.578	0.527
1098.000	604.270	80.003	20.010	100.342	19.909	27.426	0.564
1098.500	604.503	80.005	20.010	100.345	19.913	26.020	0.526
1099.000	604.762	80.004	20.011	100.351	19.910	27.153	0.494
1099.500	605.009	80.005	20.011	100.360	19.908	27.735	0.499
1100.000	605.258	80.004	20.011	100.361	19.910	26.976	0.501
1100.500	605.488	80.004	20.011	100.361	19.912	26.593	0.488
1101.000	605.756	80.005	20.010	100.357	19.909	27.428	0.489
1101.500	605.944	80.003	20.010	100.350	19.911	26.871	0.477
1102.000	606.231	80.004	20.010	100.343	19.913	26.309	0.466
1102.500	606.517	80.006	20.010	100.344	19.913	26.222	0.524
1103.000	606.811	80.006	20.010	100.353	19.911	26.881	0.576
1103.500	607.040	80.005	20.009	100.363	19.913	26.253	0.551
1104.000	607.289	80.005	20.010	100.373	19.912	26.564	0.500
1104.500	607.532	80.005	20.009	100.380	19.910	27.016	0.485
1105.000	607.782	80.004	20.010	100.376	19.909	27.318	0.493
1105.500	608.030	80.005	20.010	100.366	19.907	28.088	0.495
1106.000	608.267	80.005	20.009	100.357	19.907	28.122	0.491
1106.500	608.513	80.004	20.010	100.347	19.909	27.526	0.484
1107.000	608.789	80.005	20.010	100.343	19.907	28.166	0.502
1107.500	609.011	80.003	20.009	100.350	19.909	27.486	0.510
1108.000	609.253	80.004	20.010	100.357	19.907	27.975	0.481
1108.500	609.538	80.004	20.010	100.357	19.906	28.388	0.496
1109.000	609.759	80.006	20.010	100.356	19.908	27.623	0.517
1109.500	609.991	80.004	20.010	100.350	19.905	28.718	0.480
1110.000	610.233	80.005	20.010	100.344	19.910	27.038	0.463
1110.500	610.482	80.006	20.010	100.341	19.909	27.499	0.482
1111.000	610.761	80.005	20.010	100.349	19.910	27.271	0.509
1111.500	610.979	80.005	20.009	100.357	19.911	26.650	0.513
1112.000	611.273	80.005	20.010	100.365	19.908	27.788	0.504
1112.500	611.499	80.004	20.009	100.365	19.908	27.897	0.515
1113.000	611.707	80.005	20.010	100.361	19.907	27.936	0.477
1113.500	611.940	80.005	20.010	100.346	19.907	28.177	0.438
1114.000	612.149	80.005	20.011	100.332	19.907	28.047	0.441
1114.500	612.484	80.004	20.010	100.323	19.906	28.432	0.493
1115.000	612.679	80.005	20.011	100.325	19.910	27.147	0.538
1115.500	612.927	80.004	20.010	100.327	19.905	28.584	0.487
1116.000	613.182	80.004	20.010	100.335	19.905	28.708	0.473
1116.500	613.401	80.007	20.010	100.341	19.904	29.100	0.488
1117.000	613.665	80.005	20.010	100.342	19.907	28.057	0.478
1117.500	613.922	80.005	20.010	100.336	19.902	29.626	0.502
1118.000	614.182	80.005	20.010	100.327	19.902	29.556	0.519
1118.500	614.404	80.005	20.011	100.319	19.904	29.189	0.499
1119.000	614.670	80.005	20.010	100.320	19.903	29.434	0.485
1119.500	614.937	80.005	20.010	100.320	19.903	29.437	0.510
1120.000	615.154	80.005	20.010	100.333	19.901	30.110	0.508
1120.500	615.372	80.005	20.010	100.347	19.903	29.238	0.459
1121.000	615.654	80.005	20.010	100.354	19.903	29.360	0.468
1121.500	615.828	80.004	20.011	100.354	19.904	28.925	0.479
1122.000	616.068	80.006	20.011	100.354	19.906	28.299	0.435
1122.500	616.336	80.006	20.010	100.347	19.904	28.945	0.461
1123.000	616.601	80.003	20.010	100.340	19.902	29.661	0.520
1123.500	616.837	80.007	20.010	100.345	19.902	29.689	0.517
1124.000	617.088	80.005	20.010	100.352	19.901	29.922	0.494
1124.500	617.295	80.004	20.010	100.360	19.902	29.641	0.472
1125.000	617.586	80.006	20.011	100.362	19.902	29.528	0.478
1125.500	617.779	80.004	20.010	100.363	19.900	30.429	0.491
1126.000	618.066	80.005	20.010	100.357	19.898	30.922	0.482
1126.500	618.341	80.005	20.011	100.349	19.898	30.797	0.521
1127.000	618.572	80.004	20.010	100.342	19.898	30.951	0.534
1127.500	618.770	80.005	20.011	100.339	19.900	30.246	0.468
1128.000	619.050	80.005	20.011	100.344	19.899	30.573	0.454
1128.501	619.321	80.004	20.010	100.351	19.901	30.109	0.514
1129.000	619.558	80.004	20.010	100.357	19.901	30.131	0.529
1129.500	619.782	80.006	20.010	100.358	19.900	30.416	0.484
1130.000	620.060	80.004	20.010	100.356	19.899	30.646	0.481
1130.500	620.313	80.005	20.010	100.350	19.897	31.246	0.516
1131.000	620.534	80.005	20.010	100.344	19.902	29.558	0.502
1131.500	620.758	80.004	20.010	100.337	19.898	30.836	0.459
1132.000	621.048	80.005	20.011	100.343	19.900	30.323	0.479
1132.500	621.206	80.003	20.010	100.352	19.898	30.806	0.481
1133.000	621.510	80.005	20.010	100.360	19.898	31.039	0.456
1133.500	621.773	80.004	20.010	100.366	19.900	30.370	0.515
1134.000	622.014	80.005	20.011	100.366	19.900	30.376	0.536
1134.500	622.257	80.004	20.011	100.360	19.899	30.787	0.494
1135.000	622.498	80.004	20.010	100.349	19.897	31.367	0.484
1135.500	622.780	80.004	20.011	100.338	19.899	30.486	0.503
1136.000	623.032	80.004	20.011	100.332	19.898	30.974	0.528
1136.500	623.231	80.005	20.009	100.336	19.902	29.658	0.493
1137.000	623.497	80.004	20.010	100.345	19.898	31.097	0.458
1137.500	623.756	80.005	20.010	100.356	19.896	31.535	0.496
1138.001	624.052	80.004	20.010	100.364	19.901	30.054	0.540
1138.500	624.244	80.005	20.010	100.364	19.898	30.901	0.521
1139.000	624.541	80.003	20.010	100.360	19.898	31.097	0.488
1139.500	624.790	80.005	20.010	100.351	19.902	29.842	0.518
1140.000	625.047	80.005	20.010	100.344	19.901	29.934	0.526
1140.500	625.288	80.004	20.010	100.342	19.901	29.850	0.501
1141.000	625.512	80.005	20.010	100.350	19.899	30.653	0.482
1141.500	625.749	80.005	20.010	100.358	19.901	29.939	0.463
1142.000	626.006	80.006	20.010	100.365	19.900	30.173	0.477
1142.500	626.295	80.004	20.010	100.368	19.897	31.190	0.520
1143.000	626.539	80.005	20.011	100.366	19.899	30.639	0.540
1143.500	626.770	80.006	20.010	100.359	19.897	31.131	0.503
1144.000	627.067	80.003	20.012	100.350	19.899	30.702	0.501
1144.500	627.238	80.006	20.011	100.345	19.899	30.694	0.498
1145.000	627.571	80.005	20.011	100.351	19.900	30.310	0.486
1145.500	627.828	80.005	20.011	100.359	19.897	31.280	0.547
1146.000	628.042	80.005	20.011	100.366	19.898	30.922	0.531
1146.500	628.294	80.006	20.010	100.372	19.899	30.570	0.468
1147.000	628.586	80.005	20.011	100.369	19.896	31.531	0.505
1147.500	628.808	80.004	20.011	100.361	19.897	31.164	0.529
1148.000	629.063	80.006	20.011	100.354	19.899	30.527	0.495
1148.500	629.345	80.005	20.010	100.352	19.896	31.565	0.507
1149.000	629.541	80.003	20.010	100.355	19.898	30.979	0.508
1149.500	629.792	80.006	20.010	100.366	19.898	30.882	0.462
1150.000	630.083	80.005	20.010	100.379	19.898	31.049	0.495
1150.500	630.332	80.008	20.010	100.395	19.898	30.862	0.541
1151.000	630.543	80.006	20.010	100.401	19.897	31.140	0.500
1151.500	630.817	80.004	20.010	100.402	19.897	31.362	0.473
1152.000	631.075	80.005	20.010	100.400	19.897	31.143	0.509
1152.500	631.302	80.005	20.009	100.395	19.895	32.014	0.509
1153.000	631.560	80.004	20.009	100.386	19.897	31.362	0.485
1153.500	631.779	80.005	20.009	100.375	19.894	32.323	0.481
1154.000	632.041	80.006	20.009	100.366	19.897	31.424	0.478
1154.500	632.290	80.005	20.010	100.357	19.895	31.903	0.496
1155.000	632.535	80.006	20.010	100.346	19.895	31.983	0.503
1155.500	632.774	80.005	20.010	100.331	19.896	31.452	0.489
1156.000	633.057	80.005	20.010	100.320	19.898	31.091	0.503
1156.500	633.263	80.004	20.010	100.313	19.899	30.739	0.506
1157.000	633.458	80.004	20.010	100.305	19.900	30.186	0.445
1157.500	633.724	80.005	20.010	100.301	19.904	29.005	0.431
1158.000	633.991	80.005	20.010	100.308	19.899	30.580	0.496
1158.500	634.181	80.005	20.010	100.314	19.900	30.450	0.495
1159.000	634.422	80.004	20.010	100.316	19.897	31.278	0.444
1159.500	634.660	80.004	20.010	100.318	19.897	31.131	0.455
1160.000	634.899	80.004	20.011	100.318	19.897	31.156	0.478
1160.500	635.100	80.005	20.011	100.311	19.897	31.121	0.459
1161.000	635.389	80.004	20.011	100.309	19.898	31.025	0.465
1161.500	635.635	80.004	20.010	100.316	19.896	31.560	0.512
1162.000	635.830	80.005	20.010	100.327	19.897	31.177	0.487
1162.500	636.095	80.004	20.010	100.341	19.897	31.391	0.450
1163.000	636.346	80.004	20.010	100.356	19.896	31.733	0.489
1163.501	636.545	80.005	20.010	100.365	19.896	31.585	0.484
1164.000	636.845	80.005	20.010	100.364	19.893	32.598	0.475
1164.500	637.041	80.004	20.010	100.359	19.895	32.025	0.497
1165.000	637.278	80.006	20.010	100.353	19.895	31.776	0.464
1165.500	637.508	80.004	20.011	100.346	19.896	31.744	0.449
1166.000	637.771	80.004	20.011	100.341	19.895	31.852	0.480
1166.500	638.024	80.004	20.010	100.340	19.895	32.058	0.505
1167.000	638.254	80.004	20.010	100.341	19.895	32.028	0.500
1167.500	638.492	80.005	20.010	100.338	19.894	32.330	0.476
1168.000	638.728	80.004	20.010	100.333	19.894	32.163	0.471
1168.500	638.946	80.003	20.010	100.325	19.892	32.732	0.464
1169.000	639.118	80.005	20.010	100.317	19.895	31.993	0.422
1169.500	639.354	80.005	20.010	100.316	19.893	32.537	0.399
1170.000	639.652	80.004	20.010	100.322	19.894	32.223	0.471
1170.500	639.889	80.005	20.010	100.334	19.900	30.172	0.535
1171.000	640.156	80.003	20.011	100.349	19.899	30.479	0.519
1171.500	640.393	80.005	20.010	100.367	19.897	31.308	0.504
1172.000	640.624	80.005	20.010	100.375	19.900	30.446	0.486
1172.500	640.921	80.005	20.010	100.378	19.900	30.245	0.498
1173.000	641.205	80.004	20.010	100.372	19.900	30.461	0.555
1173.500	641.519	80.005	20.011	100.369	19.898	30.824	0.589
1174.000	641.613	80.004	20.011	100.365	19.895	31.762	0.503
1174.500	641.860	80.005	20.011	100.366	19.897	31.137	0.375
1175.000	642.090	80.005	20.010	100.374	19.896	31.718	0.409
1175.500	642.389	80.004	20.011	100.389	19.896	31.548	0.503
1176.000	642.592	80.005	20.009	100.400	19.898	31.028	0.515
1176.500	642.789	80.004	20.010	100.401	19.894	32.370	0.451
1177.000	643.111	80.005	20.009	100.394	19.896	31.713	0.460
1177.500	643.340	80.006	20.009	100.380	19.895	32.010	0.535
1178.000	643.513	80.004	20.010	100.364	19.898	30.905	0.476
1178.500	643.818	80.005	20.009	100.349	19.895	31.886	0.440
1179.000	644.031	80.005	20.009	100.347	19.895	31.906	0.498
1179.500	644.278	80.004	20.009	100.356	19.896	31.719	0.489
1180.000	644.483	80.004	20.009	100.370	19.898	31.072	0.456
1180.500	644.756	80.005	20.009	100.381	19.897	31.278	0.464
1181.000	644.976	80.004	20.009	100.389	19.896	31.469	0.485
1181.500	645.217	80.004	20.009	100.389	19.897	31.408	0.478
1182.000	645.471	80.005	20.009	100.386	19.898	30.970	0.478
1182.501	645.721	80.004	20.009	100.372	19.897	31.217	0.499
1183.000	645.976	80.004	20.010	100.365	19.899	30.687	0.505
1183.500	646.243	80.005	20.010	100.366	19.898	30.884	0.514
1184.000	646.471	80.005	20.009	100.373	19.898	31.009	0.508
1184.500	646.749	80.005	20.009	100.382	19.896	31.589	0.500
1185.000	646.980	80.006	20.009	100.398	19.899	30.509	0.508
1185.500	647.202	80.004	20.009	100.405	19.896	31.518	0.481
1186.000	647.460	80.005	20.010	100.405	19.898	31.035	0.466
1186.500	647.737	80.004	20.009	100.395	19.895	31.764	0.507
1187.000	648.027	80.004	20.010	100.384	19.894	32.262	0.551
1187.500	648.225	80.004	20.009	100.376	19.892	32.903	0.528
1188.000	648.540	80.004	20.010	100.372	19.895	31.780	0.501
1188.500	648.787	80.006	20.010	100.372	19.894	32.183	0.537
1189.000	649.058	80.003	20.009	100.376	19.893	32.571	0.540
1189.500	649.268	80.004	20.010	100.379	19.894	32.260	0.499
1190.000	649.542	80.004	20.010	100.378	19.894	32.178	0.483
1190.500	649.787	80.005	20.009	100.375	19.895	32.034	0.502
1191.000	650.035	80.003	20.009	100.371	19.895	31.826	0.506
1191.500	650.264	80.005	20.010	100.369	19.893	32.499	0.485
1192.000	650.580	80.005	20.010	100.369	19.893	32.498	0.511
1192.500	650.751	80.004	20.010	100.375	19.894	32.079	0.516
1193.000	651.047	80.004	20.010	100.387	19.894	32.223	0.477
1193.500	651.288	80.005	20.010	100.396	19.892	32.754	0.502
1194.000	651.546	80.004	20.010	100.399	19.893	32.485	0.518
1194.500	651.799	80.004	20.010	100.398	19.894	32.079	0.505
1195.000	652.089	80.004	20.010	100.386	19.894	32.194	0.527
1195.501	652.347	80.004	20.010	100.373	19.892	32.719	0.546
1196.000	652.620	80.005	20.010	100.368	19.893	32.527	0.540
1196.500	652.876	80.004	20.011	100.371	19.894	32.072	0.530
1197.000	653.078	80.004	20.010	100.378	19.892	32.803	0.493
1197.501	653.380	80.005	20.010	100.393	19.894	32.223	0.481
1198.001	653.676	80.003	20.010	100.405	19.892	32.837	0.551
1198.501	653.938	80.005	20.010	100.405	19.891	33.240	0.578
1199.000	654.193	80.005	20.011	100.398	19.895	31.813	0.538
1199.500	654.426	80.005	20.010	100.390	19.890	33.404	0.503
1200.000	654.702	80.005	20.010	100.382	19.889	33.931	0.498
1200.500	654.932	80.003	20.010	100.375	19.892	32.967	0.507
1201.000	655.230	80.004	20.010	100.378	19.891	33.116	0.517
1201.500	655.492	80.005	20.010	100.388	19.891	33.090	0.544
1202.000	655.750	80.005	20.010	100.395	19.890	33.415	0.540
1202.500	656.016	80.005	20.010	100.396	19.890	33.604	0.522
1203.000	656.257	80.005	20.010	100.394	19.890	33.614	0.516
1203.500	656.479	80.004	20.011	100.386	19.889	33.725	0.485
1204.000	656.757	80.005	20.011	100.372	19.889	33.719	0.482
1204.500	656.994	80.005	20.011	100.360	19.890	33.525	0.508
1205.000	657.282	80.003	20.010	100.358	19.891	33.238	0.519
1205.500	657.565	80.005	20.009	100.361	19.890	33.646	0.548
1206.000	657.847	80.004	20.009	100.366	19.891	33.339	0.568
1206.500	658.057	80.004	20.010	100.375	19.891	33.040	0.529
1207.000	658.333	80.004	20.009	100.380	19.890	33.532	0.489
1207.500	658.652	80.004	20.009	100.381	19.891	33.304	0.540
1208.000	658.891	80.004	20.009	100.379	19.888	34.219	0.576
1208.500	659.127	80.005	20.009	100.370	19.891	33.337	0.517
1209.000	659.403	80.004	20.009	100.362	19.889	33.841	0.493
1209.500	659.641	80.004	20.009	100.358	19.892	33.019	0.513
1210.000	659.958	80.005	20.010	100.357	19.893	32.430	0.535
1210.500	660.200	80.004	20.009	100.364	19.894	32.234	0.557
1211.000	660.427	80.005	20.009	100.379	19.893	32.419	0.514
1211.500	660.740	80.005	20.009	100.390	19.893	32.544	0.505
1212.000	660.956	80.004	20.010	100.395	19.893	32.505	0.534
1212.500	661.213	80.004	20.009	100.396	19.895	32.030	0.501
1213.000	661.451	80.005	20.009	100.392	19.892	33.009	0.484
1213.500	661.707	80.006	20.010	100.385	19.893	32.702	0.495
1214.000	661.974	80.003	20.009	100.383	19.891	33.315	0.509
1214.500	662.182	80.004	20.009	100.386	19.890	33.610	0.499
1215.000	662.484	80.004	20.009	100.386	19.890	33.564	0.492
1215.500	662.641	80.004	20.010	100.384	19.888	34.066	0.484
1216.000	662.929	80.003	20.010	100.376	19.890	33.561	0.452
1216.500	663.195	80.003	20.009	100.363	19.890	33.413	0.500
1217.000	663.443	80.005	20.010	100.343	19.890	33.439	0.534
1217.500	663.696	80.005	20.009	100.331	19.888	33.991	0.507
1218.000	663.931	80.004	20.009	100.324	19.891	33.238	0.495
1218.500	664.208	80.005	20.009	100.329	19.891	33.169	0.500
1219.000	664.471	80.003	20.010	100.342	19.887	34.318	0.526
1219.500	664.727	80.005	20.009	100.360	19.889	33.982	0.529
1220.000	664.926	80.005	20.009	100.372	19.887	34.554	0.487
1220.500	665.236	80.003	20.009	100.380	19.888	34.076	0.482
1221.000	665.468	80.005	20.009	100.381	19.886	34.735	0.526
1221.500	665.708	80.004	20.010	100.375	19.887	34.520	0.507
1222.000	666.023	80.005	20.009	100.365	19.887	34.558	0.514
1222.500	666.260	80.004	20.010	100.357	19.885	35.021	0.554
1223.000	666.472	80.004	20.011	100.356	19.884	35.430	0.500
1223.500	666.741	80.005	20.010	100.357	19.884	35.373	0.465
1224.000	666.987	80.005	20.010	100.363	19.886	34.757	0.498
1224.500	667.218	80.003	20.010	100.372	19.884	35.497	0.495
1225.000	667.463	80.005	20.010	100.380	19.885	34.987	0.476
1225.500	667.659	80.004	20.010	100.375	19.884	35.404	0.459
1226.000	667.956	80.004	20.011	100.368	19.883	35.771	0.467
1226.500	668.187	80.005	20.011	100.360	19.882	36.169	0.511
1227.000	668.456	80.005	20.011	100.351	19.885	35.199	0.514
1227.500	668.712	80.004	20.010	100.344	19.883	35.776	0.512
1228.000	668.989	80.004	20.010	100.347	19.880	36.592	0.529
1228.500	669.221	80.004	20.010	100.351	19.883	35.812	0.521
1229.000	669.486	80.005	20.010	100.357	19.882	35.909	0.503
1229.500	669.699	80.005	20.010	100.359	19.882	35.959	0.488
1230.000	669.985	80.005	20.011	100.358	19.883	35.645	0.489
1230.500	670.201	80.004	20.010	100.349	19.882	36.116	0.501
1231.000	670.495	80.007	20.010	100.344	19.881	36.483	0.506
1231.500	670.723	80.005	20.011	100.338	19.879	36.874	0.516
1232.000	670.964	80.005	20.011	100.335	19.881	36.437	0.496
1232.500	671.201	80.003	20.011	100.341	19.880	36.577	0.473
1233.000	671.458	80.005	20.010	100.352	19.883	35.735	0.486
1233.500	671.752	80.005	20.010	100.360	19.879	36.988	0.523
1234.000	671.959	80.005	20.010	100.367	19.879	37.051	0.526
1234.500	672.200	80.004	20.009	100.370	19.879	37.021	0.474
1235.000	672.508	80.005	20.009	100.364	19.881	36.300	0.499
1235.500	672.744	80.005	20.009	100.352	19.881	36.499	0.547
1236.000	672.956	80.004	20.010	100.341	19.883	35.666	0.496
1236.500	673.180	80.003	20.010	100.333	19.879	37.146	0.442
1237.000	673.462	80.005	20.010	100.333	19.878	37.414	0.472
1237.500	673.724	80.005	20.010	100.340	19.879	36.909	0.525
1238.000	674.032	80.005	20.009	100.351	19.876	37.965	0.557
1238.500	674.225	80.004	20.010	100.363	19.880	36.784	0.535
1239.000	674.504	80.004	20.010	100.366	19.878	37.445	0.486
1239.500	674.749	80.005	20.010	100.363	19.879	36.989	0.498
1240.000	675.072	80.005	20.009	100.356	19.878	37.344	0.546
1240.500	675.330	80.005	20.010	100.344	19.879	37.040	0.575
1241.000	675.562	80.004	20.010	100.334	19.879	37.098	0.536
1241.500	675.811	80.006	20.009	100.331	19.876	37.974	0.485
1242.000	676.063	80.004	20.010	100.336	19.878	37.490	0.491
1242.500	676.353	80.004	20.009	100.345	19.879	37.179	0.522
1243.000	676.624	80.005	20.009	100.356	19.878	37.465	0.551
1243.500	676.888	80.004	20.010	100.366	19.879	36.974	0.548
1244.000	677.188	80.005	20.009	100.370	19.877	37.662	0.550
1244.500	677.401	80.003	20.010	100.365	19.878	37.430	0.538
1245.000	677.675	80.005	20.009	100.357	19.875	38.480	0.499
1245.500	677.957	80.005	20.010	100.349	19.875	38.308	0.521
1246.000	678.201	80.005	20.010	100.343	19.876	38.099	0.541
1246.500	678.470	80.005	20.010	100.344	19.876	37.872	0.520
1247.000	678.662	80.005	20.009	100.351	19.877	37.531	0.487
1247.500	678.961	80.004	20.010	100.360	19.874	38.486	0.476
1248.000	679.144	80.005	20.010	100.370	19.873	39.085	0.486
1248.500	679.469	80.005	20.010	100.377	19.873	38.955	0.495
1249.000	679.771	80.005	20.009	100.376	19.875	38.441	0.567
1249.500	680.008	80.004	20.010	100.369	19.874	38.529	0.583
1250.000	680.255	80.006	20.010	100.361	19.874	38.739	0.512
1250.500	680.528	80.003	20.010	100.351	19.873	39.040	0.502
1251.000	680.811	80.005	20.010	100.351	19.873	38.923	0.538
1251.500	681.073	80.004	20.010	100.359	19.875	38.327	0.551
1252.000	681.332	80.003	20.010	100.373	19.878	37.361	0.533
1252.500	681.515	80.007	20.010	100.385	19.878	37.411	0.482
1253.000	681.808	80.004	20.009	100.393	19.878	37.496	0.459
1253.500	682.076	80.006	20.010	100.394	19.878	37.309	0.518
1254.000	682.357	80.004	20.009	100.386	19.877	37.797	0.555
1254.500	682.629	80.005	20.010	100.375	19.876	37.930	0.551
1255.000	682.875	80.004	20.010	100.366	19.877	37.592	0.535
1255.500	683.093	80.005	20.010	100.366	19.880	36.869	0.492
1256.000	683.357	80.004	20.010	100.370	19.877	37.549	0.473
1256.500	683.637	80.004	20.010	100.380	19.881	36.493	0.513
1257.000	683.877	80.005	20.010	100.392	19.879	36.943	0.532
1257.500	684.041	80.005	20.009	100.404	19.879	37.037	0.462
1258.000	684.376	80.004	20.010	100.404	19.878	37.386	0.451
1258.500	684.655	80.005	20.010	100.398	19.878	37.326	0.557
1259.000	684.833	80.004	20.010	100.383	19.877	37.691	0.536
1259.500	685.101	80.004	20.010	100.374	19.879	36.982	0.452
1260.000	685.371	80.004	20.011	100.365	19.879	36.949	0.492
1260.500	685.588	80.005	20.010	100.367	19.878	37.258	0.512
1261.000	685.847	80.005	20.010	100.377	19.877	37.589	0.482
1261.500	686.101	80.004	20.010	100.390	19.879	36.899	0.494
1262.000	686.332	80.006	20.010	100.392	19.879	36.929	0.499
1262.500	686.619	80.004	20.010	100.393	19.879	37.045	0.502
1263.000	686.822	80.005	20.010	100.391	19.880	36.786	0.504
1263.500	687.087	80.004	20.010	100.383	19.878	37.500	0.479
1264.000	687.288	80.005	20.011	100.377	19.879	37.035	0.467
1264.500	687.567	80.005	20.010	100.377	19.875	38.188	0.473
1265.000	687.777	80.003	20.010	100.382	19.879	37.029	0.485
1265.500	688.091	80.006	20.009	100.391	19.876	38.105	0.506
1266.000	688.304	80.004	20.010	100.399	19.875	38.384	0.525
1266.500	688.591	80.005	20.010	100.407	19.875	38.435	0.514
1267.000	688.787	80.004	20.010	100.408	19.876	37.875	0.492
1267.500	689.068	80.006	20.010	100.401	19.876	37.916	0.480
1268.000	689.310	80.005	20.010	100.386	19.875	38.308	0.500
1268.500	689.543	80.006	20.011	100.371	19.876	37.906	0.499
1269.000	689.833	80.004	20.010	100.361	19.873	39.000	0.499
1269.500	690.067	80.007	20.010	100.360	19.874	38.675	0.523
1270.001	690.283	80.005	20.010	100.368	19.875	38.351	0.487
1270.500	690.533	80.007	20.010	100.384	19.876	37.915	0.458
1271.000	690.866	80.004	20.010	100.396	19.876	37.934	0.525
1271.500	691.047	80.005	20.010	100.399	19.878	37.219	0.549
1272.000	691.299	80.004	20.010	100.396	19.878	37.463	0.473
1272.500	691.516	80.005	20.011	100.382	19.875	38.145	0.451
1273.000	691.798	80.003	20.011	100.367	19.877	37.797	0.484
1273.500	692.027	80.005	20.010	100.360	19.875	38.367	0.505
1274.000	692.275	80.004	20.010	100.358	19.874	38.629	0.494
1274.500	692.523	80.006	20.010	100.361	19.873	38.860	0.487
1275.000	692.726	80.005	20.010	100.367	19.873	38.877	0.474
1275.500	692.992	80.005	20.009	100.369	19.871	39.510	0.460
1276.000	693.244	80.005	20.010	100.365	19.871	39.466	0.493
1276.500	693.534	80.004	20.010	100.356	19.870	40.035	0.530
1277.000	693.778	80.006	20.010	100.344	19.869	40.338	0.538
1277.500	694.022	80.005	20.011	100.333	19.868	40.496	0.511
1278.000	694.215	80.003	20.010	100.328	19.870	39.843	0.462
1278.500	694.513	80.006	20.010	100.328	19.869	40.323	0.463
1279.000	694.741	80.005	20.010	100.332	19.870	39.820	0.508
1279.500	694.989	80.005	20.010	100.340	19.868	40.563	0.501
1280.000	695.203	80.004	20.010	100.346	19.871	39.595	0.469
1280.500	695.453	80.005	20.010	100.346	19.869	40.094	0.463
1281.000	695.687	80.005	20.010	100.344	19.867	40.902	0.474
1281.500	695.916	80.004	20.011	100.337	19.870	39.803	0.473
1282.000	696.183	80.004	20.010	100.331	19.869	40.251	0.480
1282.500	696.352	80.006	20.010	100.330	19.869	40.077	0.467
1283.000	696.606	80.004	20.010	100.335	19.870	39.953	0.429
1283.500	696.864	80.004	20.010	100.345	19.871	39.688	0.467
1284.000	697.138	80.005	20.010	100.358	19.871	39.649	0.522
1284.500	697.300	80.003	20.009	100.366	19.872	39.239	0.484
1285.000	697.538	80.005	20.010	100.367	19.871	39.471	0.419
1285.500	697.767	80.005	20.010	100.363	19.871	39.551	0.434
1286.000	697.980	80.004	20.010	100.354	19.870	39.860	0.454
1286.500	698.251	80.005	20.011	100.341	19.870	39.857	0.463
1287.000	698.477	80.004	20.011	100.336	19.866	41.315	0.491
1287.500	698.752	80.004	20.011	100.338	19.868	40.663	0.499
1288.000	698.981	80.006	20.010	100.346	19.870	39.818	0.503
1288.500	699.204	80.004	20.010	100.355	19.870	39.835	0.478
1289.000	699.399	80.006	20.010	100.364	19.870	39.853	0.434
1289.500	699.671	80.004	20.009	100.364	19.869	40.187	0.442
1290.000	699.913	80.004	20.010	100.360	19.867	40.880	0.491
1290.500	700.080	80.005	20.009	100.351	19.869	40.160	0.462
1291.000	700.342	80.004	20.010	100.343	19.866	41.125	0.419
1291.500	700.597	80.005	20.010	100.340	19.866	41.093	0.473
1292.000	700.779	80.004	20.010	100.351	19.865	41.435	0.477
1292.500	700.991	80.005	20.010	100.365	19.866	41.081	0.415
1293.000	701.253	80.005	20.010	100.381	19.870	40.034	0.434
1293.500	701.467	80.006	20.010	100.393	19.865	41.344	0.475
1294.000	701.726	80.003	20.010	100.399	19.865	41.354	0.475
1294.500	701.966	80.005	20.010	100.395	19.865	41.627	0.486
1295.000	702.123	80.004	20.010	100.381	19.865	41.643	0.448
1295.500	702.405	80.005	20.010	100.367	19.866	41.228	0.418
1296.000	702.684	80.004	20.010	100.362	19.868	40.541	0.500
1296.500	702.927	80.005	20.010	100.361	19.865	41.635	0.541
1297.000	703.198	80.004	20.010	100.363	19.865	41.483	0.518
1297.500	703.375	80.004	20.010	100.371	19.867	41.002	0.481
1298.000	703.689	80.004	20.010	100.377	19.864	41.675	0.469
1298.500	703.872	80.004	20.010	100.374	19.866	41.103	0.494
1299.000	704.152	80.005	20.010	100.367	19.865	41.505	0.480
1299.500	704.402	80.004	20.011	100.359	19.864	41.731	0.497
1300.000	704.601	80.003	20.010	100.350	19.866	41.168	0.490
1300.500	704.932	80.004	20.011	100.343	19.865	41.618	0.490
1301.000	705.167	80.006	20.010	100.347	19.863	42.108	0.548
1301.500	705.404	80.003	20.010	100.354	19.862	42.519	0.518
1302.000	705.641	80.004	20.010	100.366	19.861	42.668	0.473
1302.500	705.866	80.005	20.010	100.373	19.861	42.765	0.469
1303.000	706.080	80.004	20.010	100.379	19.862	42.484	0.451
1303.500	706.363	80.003	20.010	100.371	19.862	42.541	0.467
1304.000	706.642	80.006	20.010	100.364	19.862	42.475	0.529
1304.500	706.900	80.003	20.010	100.353	19.863	42.106	0.550
1305.000	707.153	80.005	20.010	100.345	19.862	42.597	0.524
1305.500	707.373	80.005	20.010	100.339	19.863	42.275	0.492
1306.000	707.595	80.005	20.010	100.346	19.863	41.980	0.458
1306.500	707.887	80.004	20.010	100.354	19.860	42.960	0.478
1307.000	708.137	80.005	20.010	100.362	19.858	43.714	0.528
1307.500	708.382	80.004	20.010	100.369	19.859	43.562	0.519
1308.000	708.621	80.005	20.010	100.375	19.859	43.377	0.490
1308.500	708.861	80.005	20.010	100.370	19.860	43.233	0.481
1309.000	709.151	80.005	20.010	100.362	19.861	42.727	0.504
1309.501	709.446	80.004	20.010	100.353	19.861	42.766	0.557
1310.000	709.697	80.006	20.010	100.347	19.859	43.406	0.566
1310.500	709.955	80.004	20.010	100.346	19.860	43.076	0.528
1311.000	710.239	80.004	20.010	100.352	19.858	43.857	0.526
1311.500	710.459	80.007	20.010	100.360	19.859	43.540	0.523
1312.000	710.694	80.005	20.010	100.367	19.861	42.854	0.479
1312.500	710.979	80.005	20.010	100.374	19.858	43.706	0.487
1313.000	711.196	80.005	20.010	100.370	19.858	43.624	0.511
1313.500	711.529	80.004	20.010	100.361	19.862	42.428	0.526
1314.000	711.768	80.004	20.010	100.353	19.863	42.174	0.561
1314.500	712.003	80.005	20.010	100.348	19.864	41.932	0.523
1315.000	712.292	80.005	20.010	100.347	19.862	42.336	0.499
1315.500	712.568	80.004	20.010	100.353	19.863	42.194	0.545
1316.000	712.807	80.005	20.010	100.362	19.861	42.933	0.540
1316.500	713.069	80.003	20.011	100.369	19.861	42.786	0.508
1317.000	713.351	80.004	20.010	100.371	19.860	43.147	0.523
1317.500	713.599	80.004	20.010	100.365	19.860	43.037	0.537
1318.000	713.863	80.005	20.010	100.357	19.860	43.170	0.521
1318.500	714.113	80.004	20.010	100.347	19.859	43.424	0.513
1319.000	714.402	80.005	20.010	100.338	19.859	43.407	0.526
1319.500	714.662	80.004	20.010	100.334	19.862	42.349	0.544
1320.000	714.974	80.005	20.010	100.340	19.863	42.042	0.561
1320.500	715.207	80.005	20.009	100.349	19.861	42.645	0.559
1321.000	715.477	80.004	20.010	100.360	19.857	44.110	0.524
1321.500	715.798	80.005	20.010	100.371	19.862	42.570	0.547
1322.000	716.038	80.004	20.010	100.376	19.859	43.263	0.576
1322.500	716.318	80.005	20.009	100.372	19.859	43.283	0.541
1323.000	716.519	80.003	20.010	100.364	19.859	43.269	0.500
1323.500	716.813	80.005	20.010	100.352	19.861	42.739	0.488
1324.000	717.107	80.004	20.010	100.343	19.861	42.703	0.541
1324.500	717.364	80.004	20.010	100.345	19.863	42.182	0.569
1325.000	717.635	80.004	20.010	100.357	19.860	43.052	0.540
1325.500	717.946	80.005	20.010	100.370	19.863	42.047	0.555
1326.000	718.188	80.004	20.010	100.382	19.861	42.915	0.567
1326.500	718.462	80.005	20.010	100.389	19.861	42.876	0.534
1327.000	718.718	80.004	20.010	100.382	19.859	43.307	0.523
1327.500	718.977	80.004	20.010	100.368	19.863	42.112	0.522
1328.000	719.253	80.004	20.010	100.364	19.865	41.540	0.525
1328.500	719.510	80.004	20.010	100.364	19.863	42.045	0.534
1329.000	719.770	80.005	20.010	100.365	19.863	42.274	0.525
1329.500	720.104	80.004	20.010	100.371	19.860	43.116	0.556
1330.000	720.354	80.004	20.010	100.376	19.859	43.492	0.589
1330.500	720.631	80.005	20.010	100.373	19.860	43.191	0.556
1331.000	720.909	80.004	20.010	100.366	19.862	42.537	0.541
1331.500	721.174	80.004	20.010	100.358	19.862	42.401	0.549
1332.000	721.393	80.004	20.010	100.351	19.859	43.299	0.514
1332.500	721.672	80.005	20.010	100.345	19.861	42.929	0.491
1333.000	721.942	80.004	20.010	100.341	19.861	42.682	0.524
1333.500	722.154	80.004	20.010	100.342	19.860	43.055	0.515
1334.000	722.445	80.003	20.010	100.349	19.860	43.037	0.492
1334.500	722.705	80.004	20.010	100.357	19.859	43.277	0.527
1335.000	722.995	80.004	20.010	100.363	19.860	43.105	0.550
1335.500	723.340	80.005	20.010	100.362	19.858	43.738	0.593
1336.000	723.596	80.005	20.010	100.359	19.860	43.203	0.619
1336.500	723.855	80.002	20.010	100.355	19.858	43.723	0.558
1337.000	724.180	80.005	20.010	100.351	19.860	43.252	0.549
1337.500	724.406	80.004	20.010	100.351	19.859	43.440	0.567
1338.000	724.624	80.004	20.010	100.360	19.859	43.548	0.498
1338.500	724.949	80.004	20.010	100.367	19.861	42.905	0.494
1339.000	725.207	80.004	20.010	100.372	19.858	43.590	0.563
1339.500	725.493	80.004	20.009	100.376	19.859	43.335	0.563
1340.000	725.743	80.004	20.010	100.371	19.858	43.898	0.540
1340.500	726.069	80.005	20.010	100.362	19.859	43.299	0.556
1341.000	726.300	80.003	20.010	100.354	19.858	43.736	0.566
1341.500	726.592	80.004	20.010	100.346	19.859	43.506	0.540
1342.000	726.824	80.004	20.010	100.344	19.859	43.324	0.524
1342.500	727.101	80.005	20.010	100.351	19.860	43.219	0.516
1343.000	727.400	80.004	20.009	100.359	19.861	42.839	0.543
1343.500	727.655	80.004	20.010	100.368	19.861	42.920	0.566
1344.000	727.918	80.005	20.010	100.373	19.857	44.032	0.536
1344.500	728.203	80.004	20.010	100.373	19.859	43.563	0.533
1345.000	728.489	80.004	20.010	100.366	19.860	43.164	0.560
1345.500	728.702	80.005	20.010	100.358	19.860	43.063	0.535
1346.000	728.932	80.005	20.010	100.350	19.859	43.374	0.471
1346.500	729.237	80.003	20.011	100.352	19.860	43.163	0.489
1347.000	729.489	80.004	20.010	100.356	19.859	43.462	0.546
1347.500	729.751	80.005	20.010	100.364	19.858	43.844	0.536
1348.000	729.991	80.005	20.010	100.373	19.858	43.624	0.508
1348.500	730.227	80.005	20.010	100.380	19.858	43.700	0.489
1349.000	730.464	80.004	20.010	100.380	19.861	42.872	0.474
1349.500	730.763	80.004	20.009	100.376	19.859	43.573	0.504
1350.000	730.976	80.005	20.010	100.369	19.859	43.537	0.524
1350.500	731.264	80.003	20.010	100.363	19.860	43.184	0.506
1351.000	731.501	80.005	20.010	100.363	19.858	43.673	0.513
1351.500	731.757	80.004	20.010	100.364	19.858	43.635	0.509
1352.000	731.966	80.004	20.010	100.366	19.860	43.226	0.479
1352.500	732.201	80.005	20.010	100.373	19.858	43.682	0.454
1353.000	732.501	80.005	20.010	100.375	19.861	42.766	0.490
1353.500	732.708	80.005	20.009	100.367	19.859	43.346	0.521
1354.000	732.984	80.004	20.010	100.360	19.859	43.457	0.495
1354.500	733.233	80.004	20.010	100.360	19.859	43.429	0.504
1355.000	733.456	80.005	20.011	100.361	19.858	43.714	0.499
1355.500	733.713	80.005	20.010	100.370	19.856	44.470	0.476
1356.000	733.927	80.005	20.010	100.385	19.858	43.629	0.475
1356.500	734.208	80.004	20.010	100.400	19.858	43.706	0.483
1357.000	734.428	80.005	20.010	100.402	19.859	43.393	0.497
1357.500	734.700	80.004	20.010	100.398	19.859	43.477	0.496
1358.000	734.933	80.005	20.010	100.384	19.857	43.925	0.498
1358.500	735.212	80.004	20.010	100.369	19.856	44.435	0.509
1359.000	735.420	80.004	20.010	100.354	19.855	44.734	0.500
1359.500	735.682	80.005	20.010	100.350	19.856	44.286	0.479
1360.000	735.906	80.004	20.009	100.352	19.856	44.488	0.478
1360.500	736.111	80.004	20.010	100.359	19.860	43.243	0.457
1361.000	736.454	80.005	20.010	100.367	19.857	44.207	0.488
1361.500	736.689	80.005	20.010	100.372	19.857	43.935	0.563
1362.000	736.963	80.005	20.010	100.366	19.858	43.905	0.543
1362.500	737.178	80.003	20.010	100.358	19.857	44.099	0.500
1363.000	737.419	80.006	20.010	100.353	19.857	44.077	0.473
1363.500	737.612	80.003	20.010	100.353	19.855	44.547	0.445
1364.000	737.759	80.007	20.010	100.355	19.858	43.880	0.387
1364.500	737.960	80.004	20.010	100.362	19.856	44.250	0.344
1365.000	738.448	80.004	20.010	100.371	19.855	44.686	0.519
1365.500	738.564	80.005	20.010	100.377	19.859	43.383	0.647
1366.000	738.897	80.004	20.010	100.373	19.858	43.773	0.526
1366.500	739.136	80.004	20.010	100.366	19.859	43.492	0.510
1367.000	739.426	80.005	20.010	100.358	19.859	43.519	0.550
1367.500	739.656	80.004	20.010	100.355	19.859	43.303	0.525
1368.000	739.856	80.005	20.010	100.356	19.861	42.900	0.475
1368.500	740.097	80.002	20.010	100.367	19.858	43.832	0.435
1369.000	740.351	80.006	20.009	100.378	19.857	44.137	0.468
1369.500	740.555	80.004	20.010	100.385	19.857	44.026	0.476
1370.000	740.806	80.005	20.010	100.380	19.857	43.941	0.457
1370.500	741.088	80.005	20.010	100.372	19.858	43.762	0.494
1371.000	741.272	80.005	20.010	100.358	19.860	43.150	0.500
1371.500	741.581	80.004	20.010	100.350	19.857	44.187	0.480
1372.000	741.785	80.004	20.010	100.351	19.859	43.581	0.503
1372.500	742.023	80.005	20.010	100.363	19.859	43.448	0.477
1373.000	742.266	80.004	20.010	100.377	19.857	43.916	0.461
1373.500	742.531	80.004	20.010	100.394	19.856	44.254	0.495
