Sample Weight (mg):	2.01
Heating Rate (C/s):	0.5
Combustor Temp (C):	900
N2 Flow Rate (cc/min):	80
O2 Flow Rate (cc/min):	20
Time (s)	Temperature (C)	N2 flow rate (cc/min)	O2 flow rate (cc/min)	Flow Rate (cc/min)	Oxygen (%)	HRR (W/g)	Heating rate (C/s)
-0.001	86.426	80.004	20.011	100.210	20.058	3.081	-0.101
0.499	86.355	80.004	20.010	100.212	20.060	2.817	-0.104
0.999	86.294	80.005	20.010	100.208	20.063	2.237	-0.116
1.499	86.266	80.003	20.011	100.199	20.059	2.890	-0.111
1.999	86.202	80.005	20.011	100.191	20.061	2.587	-0.090
2.499	86.181	80.004	20.010	100.186	20.063	2.274	-0.089
2.999	86.154	80.004	20.010	100.185	20.062	2.396	-0.067
3.499	86.110	80.005	20.011	100.191	20.065	1.938	-0.059
3.999	86.059	80.003	20.010	100.199	20.060	2.716	-0.083
4.499	86.062	80.005	20.010	100.207	20.063	2.274	-0.072
4.999	86.036	80.005	20.010	100.215	20.060	2.702	-0.036
5.499	85.936	80.003	20.010	100.220	20.060	2.732	-0.075
5.999	85.898	80.004	20.011	100.213	20.063	2.303	-0.132
6.499	85.916	80.004	20.010	100.206	20.061	2.590	-0.079
6.999	85.865	80.005	20.011	100.199	20.061	2.643	-0.026
7.499	85.845	80.004	20.010	100.190	20.062	2.504	-0.052
7.999	85.856	80.005	20.010	100.184	20.064	2.188	-0.040
8.499	85.833	80.004	20.010	100.191	20.063	2.277	-0.011
8.999	85.791	80.004	20.010	100.198	20.063	2.386	-0.039
9.499	85.728	80.003	20.010	100.207	20.064	2.185	-0.084
9.999	85.772	80.006	20.010	100.216	20.064	2.205	-0.062
10.499	85.752	80.004	20.010	100.223	20.061	2.604	0.002
10.999	85.747	80.004	20.010	100.220	20.061	2.600	-0.001
11.499	85.724	80.005	20.010	100.212	20.063	2.241	-0.026
11.999	85.691	80.004	20.010	100.203	20.062	2.524	-0.042
12.499	85.700	80.004	20.010	100.194	20.059	2.883	-0.040
12.999	85.706	80.005	20.011	100.186	20.064	2.126	-0.005
13.499	85.674	80.004	20.010	100.183	20.059	2.999	-0.006
13.999	85.632	80.004	20.010	100.190	20.059	2.890	-0.050
14.499	85.615	80.004	20.010	100.199	20.058	3.029	-0.067
14.999	85.588	80.005	20.010	100.207	20.058	3.082	-0.051
15.499	85.575	80.004	20.010	100.220	20.059	2.890	-0.041
15.999	85.563	80.005	20.010	100.228	20.056	3.437	-0.032
16.499	85.546	80.005	20.010	100.227	20.057	3.292	-0.027
16.999	85.543	80.004	20.010	100.224	20.054	3.658	-0.025
17.499	85.500	80.003	20.010	100.216	20.054	3.727	-0.033
17.999	85.526	80.005	20.010	100.204	20.054	3.759	-0.032
18.499	85.550	80.005	20.010	100.195	20.052	4.079	0.016
18.999	85.513	80.003	20.010	100.188	20.055	3.611	0.018
19.499	85.495	80.004	20.010	100.189	20.054	3.631	-0.034
19.999	85.511	80.005	20.011	100.196	20.055	3.596	-0.029
20.499	85.533	80.005	20.010	100.204	20.057	3.194	0.018
20.999	85.535	80.004	20.010	100.213	20.057	3.244	0.032
21.499	85.450	80.005	20.009	100.222	20.055	3.514	-0.029
21.999	85.481	80.004	20.011	100.224	20.056	3.330	-0.068
22.499	85.445	80.003	20.010	100.224	20.054	3.728	-0.030
22.999	85.487	80.004	20.010	100.225	20.055	3.606	0.000
23.499	85.549	80.004	20.010	100.221	20.056	3.421	0.054
23.999	85.512	80.005	20.010	100.217	20.051	4.152	0.064
24.499	85.484	80.004	20.010	100.210	20.063	2.333	-0.020
24.999	85.498	80.004	20.010	100.209	20.063	2.382	-0.040
25.499	85.542	80.005	20.010	100.206	20.056	3.378	0.022
25.999	85.558	80.004	20.010	100.209	20.058	3.088	0.059
26.499	85.512	80.005	20.010	100.212	20.057	3.296	0.015
26.999	85.550	80.004	20.010	100.218	20.059	2.940	-0.019
27.499	85.526	80.003	20.010	100.220	20.057	3.168	0.003
27.999	85.545	80.005	20.010	100.222	20.059	2.914	0.004
28.499	85.580	80.005	20.011	100.222	20.059	2.977	0.025
28.999	85.587	80.004	20.010	100.217	20.057	3.240	0.049
29.499	85.577	80.004	20.010	100.211	20.058	3.092	0.019
29.999	85.608	80.005	20.010	100.203	20.054	3.678	0.008
30.499	85.599	80.005	20.010	100.194	20.059	2.999	0.022
30.999	85.587	80.005	20.011	100.187	20.057	3.273	0.001
31.499	85.613	80.004	20.010	100.184	20.056	3.382	-0.003
31.999	85.612	80.005	20.010	100.190	20.058	3.033	0.019
32.499	85.741	80.004	20.011	100.199	20.057	3.313	0.076
32.999	85.631	80.004	20.010	100.215	20.062	2.483	0.074
33.499	85.713	80.003	20.010	100.230	20.056	3.337	-0.004
33.999	85.695	80.004	20.011	100.245	20.057	3.251	0.018
34.499	85.709	80.004	20.011	100.249	20.059	2.994	0.030
34.999	85.799	80.004	20.010	100.248	20.057	3.198	0.050
35.499	85.783	80.004	20.010	100.240	20.057	3.181	0.089
35.999	85.844	80.005	20.011	100.227	20.065	1.971	0.060
36.499	85.829	80.005	20.011	100.212	20.070	1.282	0.045
36.999	85.899	80.005	20.010	100.201	20.069	1.312	0.050
37.499	85.857	80.004	20.010	100.196	20.069	1.368	0.041
37.999	85.908	80.004	20.011	100.195	20.069	1.434	0.018
38.499	85.929	80.003	20.010	100.200	20.069	1.313	0.041
38.999	85.907	80.004	20.010	100.214	20.067	1.616	0.036
39.499	85.985	80.006	20.010	100.230	20.064	2.177	0.027
39.999	85.966	80.004	20.010	100.239	20.058	3.127	0.057
40.499	85.971	80.004	20.010	100.248	20.056	3.364	0.023
41.000	86.040	80.003	20.011	100.248	20.057	3.232	0.030
41.500	86.147	80.004	20.010	100.243	20.058	3.156	0.124
41.999	86.155	80.005	20.011	100.235	20.057	3.281	0.145
42.499	86.164	80.004	20.011	100.231	20.056	3.443	0.066
42.999	86.159	80.005	20.010	100.223	20.053	3.843	0.011
43.499	86.250	80.005	20.010	100.221	20.063	2.365	0.045
43.999	86.303	80.003	20.010	100.224	20.068	1.472	0.115
44.499	86.316	80.004	20.010	100.231	20.057	3.306	0.105
44.999	86.325	80.004	20.010	100.239	20.054	3.669	0.044
45.499	86.421	80.005	20.010	100.253	20.057	3.243	0.064
45.999	86.421	80.004	20.009	100.267	20.056	3.388	0.101
46.499	86.429	80.005	20.010	100.271	20.062	2.438	0.052
46.999	86.457	80.004	20.011	100.272	20.059	2.889	0.022
47.499	86.460	80.006	20.010	100.273	20.060	2.744	0.033
47.999	86.591	80.003	20.010	100.262	20.070	1.171	0.082
48.499	86.628	80.004	20.011	100.249	20.061	2.681	0.151
48.999	86.602	80.005	20.011	100.242	20.058	3.133	0.090
49.499	86.726	80.004	20.010	100.241	20.055	3.496	0.055
49.999	86.745	80.005	20.010	100.244	20.060	2.851	0.121
50.499	86.854	80.004	20.010	100.257	20.069	1.393	0.136
50.999	86.883	80.004	20.010	100.275	20.069	1.310	0.133
51.499	86.941	80.004	20.009	100.293	20.054	3.756	0.112
51.999	86.895	80.005	20.011	100.305	20.055	3.532	0.049
52.499	86.962	80.004	20.010	100.310	20.056	3.367	0.016
52.999	87.038	80.003	20.010	100.307	20.052	4.093	0.082
53.499	87.029	80.005	20.010	100.296	20.054	3.756	0.105
53.999	87.141	80.005	20.010	100.286	20.047	4.790	0.086
54.499	87.204	80.003	20.011	100.280	20.050	4.351	0.139
54.999	87.297	80.005	20.010	100.282	20.049	4.549	0.165
55.499	87.379	80.004	20.009	100.290	20.051	4.163	0.166
55.999	87.471	80.005	20.010	100.304	20.049	4.425	0.175
56.499	87.551	80.005	20.010	100.318	20.050	4.415	0.173
56.999	87.636	80.005	20.010	100.329	20.051	4.139	0.168
57.499	87.640	80.003	20.010	100.335	20.046	4.949	0.127
57.999	87.671	80.003	20.010	100.336	20.044	5.263	0.062
58.500	87.752	80.003	20.010	100.331	20.044	5.224	0.074
58.999	87.836	80.005	20.010	100.320	20.042	5.522	0.139
59.499	87.834	80.004	20.010	100.305	20.040	5.955	0.124
59.999	87.850	80.005	20.010	100.289	20.040	5.842	0.048
60.499	87.993	80.003	20.010	100.276	20.040	5.947	0.086
60.999	88.094	80.005	20.010	100.274	20.036	6.547	0.201
61.499	88.178	80.004	20.009	100.278	20.035	6.681	0.215
61.999	88.238	80.003	20.010	100.287	20.035	6.651	0.165
62.499	88.278	80.004	20.010	100.302	20.036	6.595	0.122
62.999	88.342	80.004	20.010	100.325	20.033	7.064	0.102
63.499	88.375	80.005	20.009	100.341	20.031	7.295	0.100
63.999	88.596	80.004	20.010	100.353	20.031	7.262	0.175
64.499	88.692	80.004	20.010	100.362	20.026	8.142	0.286
64.999	88.743	80.004	20.010	100.366	20.027	7.908	0.233
65.499	88.827	80.003	20.010	100.365	20.025	8.182	0.141
65.999	88.893	80.005	20.010	100.367	20.025	8.183	0.142
66.499	88.931	80.003	20.010	100.370	20.027	7.958	0.127
66.999	89.052	80.003	20.009	100.377	20.023	8.568	0.131
67.499	89.105	80.005	20.010	100.383	20.024	8.356	0.167
67.999	89.186	80.003	20.010	100.389	20.020	9.038	0.154
68.499	89.257	80.004	20.010	100.397	20.018	9.285	0.143
68.999	89.361	80.004	20.009	100.407	20.016	9.674	0.163
69.499	89.479	80.003	20.010	100.421	20.018	9.321	0.199
69.999	89.582	80.004	20.010	100.437	20.018	9.401	0.222
70.499	89.716	80.004	20.010	100.455	20.017	9.488	0.229
70.999	89.773	80.004	20.010	100.470	20.020	8.988	0.214
71.499	89.896	80.004	20.010	100.482	20.017	9.494	0.186
71.999	90.015	80.004	20.010	100.489	20.018	9.376	0.211
72.499	90.108	80.003	20.009	100.488	20.016	9.630	0.227
72.999	90.212	80.004	20.009	100.477	20.015	9.742	0.204
73.499	90.383	80.004	20.010	100.460	20.016	9.567	0.236
73.999	90.577	80.004	20.009	100.444	20.017	9.421	0.320
74.499	90.610	80.005	20.010	100.431	20.016	9.664	0.296
74.999	90.743	80.004	20.010	100.422	20.015	9.845	0.196
75.499	90.907	80.006	20.010	100.418	20.015	9.835	0.231
75.999	90.974	80.004	20.010	100.419	20.016	9.640	0.264
76.499	91.110	80.003	20.009	100.420	20.016	9.637	0.217
76.999	91.181	80.004	20.009	100.427	20.013	10.163	0.205
77.499	91.410	80.005	20.009	100.435	20.014	9.936	0.254
77.999	91.473	80.005	20.010	100.441	20.020	9.045	0.296
78.499	91.675	80.004	20.010	100.447	20.031	7.377	0.278
78.999	91.804	80.003	20.010	100.454	20.022	8.669	0.298
79.499	91.926	80.004	20.010	100.450	20.013	10.050	0.291
79.999	91.995	80.004	20.010	100.441	20.016	9.627	0.221
80.499	92.169	80.004	20.009	100.430	20.017	9.504	0.217
80.999	92.292	80.004	20.009	100.417	20.017	9.506	0.270
81.499	92.475	80.003	20.010	100.405	20.016	9.680	0.301
81.999	92.645	80.003	20.010	100.401	20.012	10.221	0.330
82.499	92.711	80.005	20.010	100.402	20.013	10.095	0.295
82.999	92.946	80.004	20.010	100.410	20.011	10.346	0.268
83.499	93.034	80.004	20.010	100.426	20.012	10.314	0.312
83.999	93.194	80.005	20.009	100.441	20.010	10.506	0.286
84.499	93.394	80.004	20.009	100.449	20.013	10.097	0.304
84.999	93.529	80.004	20.010	100.457	20.013	10.167	0.347
85.499	93.665	80.004	20.009	100.459	20.016	9.715	0.303
85.999	93.773	80.004	20.010	100.458	20.014	9.973	0.258
86.499	94.022	80.004	20.010	100.452	20.014	9.967	0.301
86.999	94.165	80.004	20.009	100.446	20.014	9.904	0.374
87.499	94.311	80.005	20.010	100.438	20.012	10.314	0.340
87.999	94.503	80.004	20.010	100.430	20.014	9.893	0.313
88.499	94.646	80.004	20.009	100.422	20.013	10.101	0.336
88.999	94.843	80.005	20.010	100.421	20.012	10.311	0.338
89.499	95.004	80.005	20.010	100.426	20.011	10.483	0.349
90.001	95.195	80.004	20.010	100.434	20.013	10.066	0.355
90.500	95.312	80.005	20.010	100.443	20.009	10.680	0.330
90.999	95.525	80.004	20.009	100.453	20.011	10.485	0.319
91.499	95.644	80.004	20.009	100.462	20.011	10.437	0.331
91.999	95.907	80.004	20.009	100.463	20.012	10.200	0.357
92.499	95.984	80.004	20.009	100.463	20.013	10.152	0.361
92.999	96.167	80.005	20.010	100.456	20.013	10.137	0.301
93.499	96.374	80.005	20.010	100.448	20.013	10.043	0.325
93.999	96.503	80.004	20.010	100.436	20.013	10.053	0.362
94.499	96.724	80.005	20.010	100.428	20.012	10.212	0.343
94.999	96.895	80.005	20.010	100.421	20.013	10.067	0.371
95.499	97.176	80.005	20.010	100.419	20.012	10.338	0.422
95.999	97.326	80.003	20.010	100.417	20.012	10.331	0.442
96.499	97.466	80.004	20.009	100.423	20.015	9.872	0.361
96.999	97.674	80.005	20.009	100.427	20.015	9.753	0.319
97.499	97.817	80.004	20.010	100.434	20.010	10.611	0.350
97.999	98.078	80.003	20.009	100.443	20.009	10.710	0.377
98.499	98.290	80.004	20.009	100.451	20.010	10.528	0.438
98.999	98.473	80.004	20.009	100.453	20.007	10.994	0.434
99.499	98.626	80.004	20.010	100.456	20.013	10.125	0.366
99.999	98.866	80.003	20.010	100.456	20.008	10.836	0.364
100.499	99.058	80.003	20.009	100.454	20.011	10.433	0.413
100.999	99.231	80.004	20.009	100.448	20.012	10.231	0.399
101.499	99.412	80.004	20.009	100.441	20.014	10.015	0.359
101.999	99.670	80.004	20.010	100.432	20.014	9.894	0.397
102.499	99.825	80.005	20.010	100.428	20.012	10.243	0.426
102.999	100.010	80.005	20.010	100.422	20.013	10.103	0.376
103.499	100.268	80.004	20.010	100.420	20.013	10.158	0.391
103.999	100.364	80.004	20.009	100.423	20.015	9.746	0.399
104.499	100.692	80.004	20.009	100.432	20.015	9.757	0.389
104.999	100.823	80.004	20.010	100.443	20.015	9.722	0.441
105.499	101.110	80.005	20.009	100.458	20.017	9.525	0.439
105.999	101.277	80.004	20.009	100.475	20.019	9.182	0.436
106.499	101.521	80.005	20.009	100.487	20.016	9.691	0.432
106.999	101.728	80.004	20.009	100.495	20.018	9.265	0.431
107.499	101.943	80.004	20.010	100.497	20.021	8.841	0.437
107.999	102.125	80.004	20.009	100.496	20.020	8.952	0.410
108.499	102.388	80.004	20.009	100.496	20.018	9.287	0.421
108.999	102.594	80.005	20.009	100.499	20.014	9.874	0.457
109.499	102.786	80.004	20.009	100.499	20.012	10.244	0.434
109.999	103.028	80.003	20.009	100.497	20.013	10.037	0.416
110.499	103.209	80.004	20.010	100.491	20.013	10.143	0.429
110.999	103.455	80.005	20.010	100.484	20.014	10.002	0.425
111.499	103.688	80.004	20.009	100.481	20.012	10.258	0.453
111.999	103.932	80.004	20.009	100.482	20.011	10.474	0.478
112.499	104.078	80.004	20.009	100.484	20.008	10.943	0.433
112.999	104.356	80.004	20.009	100.492	20.009	10.801	0.407
113.499	104.528	80.004	20.009	100.493	20.008	10.850	0.437
113.999	104.752	80.004	20.009	100.486	20.007	10.984	0.423
114.499	104.997	80.005	20.009	100.471	20.008	10.956	0.433
114.999	105.126	80.004	20.009	100.455	20.007	11.070	0.422
115.499	105.456	80.004	20.010	100.439	20.005	11.417	0.417
115.999	105.709	80.003	20.009	100.428	20.008	10.959	0.521
116.499	105.929	80.005	20.010	100.421	20.004	11.436	0.528
116.999	106.181	80.005	20.009	100.427	20.007	11.071	0.472
117.499	106.426	80.004	20.009	100.435	20.004	11.502	0.484
117.999	106.619	80.005	20.009	100.448	20.008	10.897	0.467
118.500	106.904	80.005	20.009	100.463	20.005	11.354	0.458
118.999	107.116	80.004	20.009	100.474	20.004	11.536	0.488
119.499	107.326	80.004	20.009	100.476	20.006	11.178	0.460
119.999	107.573	80.004	20.009	100.473	20.005	11.383	0.439
120.499	107.825	80.005	20.009	100.461	20.005	11.299	0.478
120.999	108.091	80.004	20.009	100.444	20.005	11.338	0.508
121.499	108.321	80.004	20.009	100.432	20.005	11.422	0.506
121.999	108.570	80.005	20.009	100.423	20.004	11.488	0.487
122.499	108.851	80.004	20.010	100.420	20.005	11.340	0.505
122.999	109.115	80.005	20.010	100.427	20.003	11.645	0.538
123.499	109.400	80.003	20.010	100.437	20.006	11.167	0.547
123.999	109.623	80.005	20.009	100.447	20.006	11.132	0.529
124.499	109.843	80.003	20.009	100.458	20.006	11.168	0.476
124.999	110.085	80.004	20.009	100.471	20.006	11.205	0.453
125.499	110.310	80.004	20.009	100.475	20.005	11.376	0.464
125.999	110.498	80.005	20.009	100.472	20.003	11.639	0.440
126.499	110.748	80.004	20.010	100.463	20.004	11.584	0.426
126.999	111.099	80.004	20.009	100.452	20.005	11.355	0.520
127.499	111.277	80.004	20.009	100.436	20.003	11.685	0.565
127.999	111.510	80.005	20.009	100.424	20.004	11.546	0.470
128.500	111.781	80.004	20.009	100.425	20.002	11.874	0.457
129.000	112.058	80.003	20.009	100.433	20.004	11.565	0.526
129.500	112.312	80.004	20.009	100.448	20.006	11.208	0.540
130.000	112.560	80.003	20.008	100.463	20.004	11.506	0.517
130.499	112.919	80.004	20.010	100.474	20.003	11.622	0.555
130.999	113.117	80.004	20.010	100.476	20.009	10.773	0.581
131.500	113.337	80.004	20.010	100.482	20.003	11.707	0.487
132.000	113.616	80.004	20.009	100.482	20.001	11.965	0.459
132.499	113.865	80.005	20.009	100.475	20.005	11.379	0.514
132.999	114.213	80.003	20.009	100.472	20.003	11.724	0.563
133.499	114.389	80.006	20.009	100.467	20.000	12.145	0.561
133.999	114.758	80.004	20.009	100.455	20.004	11.563	0.534
134.499	114.956	80.004	20.009	100.444	20.003	11.659	0.556
134.999	115.259	80.006	20.009	100.443	20.004	11.527	0.534
135.499	115.540	80.005	20.009	100.445	20.004	11.486	0.543
135.999	115.876	80.004	20.009	100.453	20.002	11.848	0.600
136.499	116.116	80.006	20.009	100.465	20.003	11.744	0.596
136.999	116.369	80.004	20.008	100.474	20.004	11.493	0.535
137.499	116.607	80.005	20.009	100.477	20.005	11.377	0.492
137.999	116.859	80.005	20.010	100.476	20.004	11.503	0.491
138.499	117.160	80.005	20.009	100.472	20.005	11.378	0.522
138.999	117.518	80.004	20.009	100.460	20.004	11.546	0.606
139.499	117.714	80.003	20.009	100.445	20.005	11.430	0.606
139.999	118.019	80.005	20.009	100.434	20.005	11.396	0.527
140.499	118.226	80.004	20.009	100.430	20.002	11.850	0.507
140.999	118.516	80.005	20.009	100.430	20.003	11.726	0.504
141.499	118.834	80.004	20.009	100.437	20.002	11.821	0.552
141.999	119.115	80.004	20.009	100.445	20.002	11.748	0.604
142.499	119.437	80.005	20.009	100.451	20.004	11.515	0.601
142.999	119.743	80.003	20.009	100.455	20.002	11.873	0.615
143.499	119.973	80.006	20.009	100.456	20.001	11.916	0.582
143.999	120.217	80.003	20.009	100.455	20.005	11.394	0.506
144.499	120.510	80.004	20.010	100.450	20.005	11.335	0.505
144.999	120.830	80.005	20.009	100.448	20.005	11.400	0.575
145.499	121.031	80.004	20.009	100.441	20.005	11.352	0.567
145.999	121.360	80.004	20.010	100.424	20.005	11.285	0.526
146.499	121.701	80.004	20.010	100.408	20.005	11.367	0.600
146.999	121.951	80.005	20.010	100.403	20.009	10.745	0.630
147.499	122.197	80.004	20.010	100.402	20.008	10.901	0.543
147.999	122.490	80.004	20.009	100.409	20.008	10.885	0.518
148.499	122.769	80.005	20.009	100.427	20.009	10.661	0.555
148.999	123.099	80.006	20.009	100.444	20.009	10.768	0.590
149.499	123.427	80.004	20.008	100.454	20.009	10.742	0.634
149.999	123.659	80.005	20.010	100.456	20.011	10.478	0.609
150.500	123.963	80.004	20.010	100.454	20.012	10.254	0.548
151.000	124.245	80.004	20.009	100.454	20.010	10.531	0.561
151.500	124.519	80.004	20.009	100.458	20.008	10.930	0.571
151.999	124.725	80.004	20.009	100.457	20.012	10.193	0.518
152.499	125.061	80.006	20.009	100.452	20.011	10.420	0.511
152.999	125.302	80.003	20.010	100.444	20.012	10.234	0.559
153.500	125.683	80.004	20.009	100.432	20.008	10.904	0.600
154.000	125.905	80.006	20.010	100.413	20.011	10.421	0.613
154.499	126.222	80.005	20.010	100.407	20.008	10.851	0.571
155.000	126.475	80.005	20.009	100.408	20.007	11.092	0.555
155.500	126.802	80.005	20.009	100.415	20.010	10.565	0.575
156.000	127.081	80.005	20.009	100.424	20.009	10.757	0.593
156.499	127.371	80.005	20.009	100.432	20.009	10.758	0.587
156.999	127.633	80.004	20.009	100.431	20.008	10.960	0.561
157.499	127.869	80.004	20.009	100.429	20.016	9.711	0.525
157.999	128.277	80.004	20.009	100.422	20.006	11.197	0.570
158.499	128.487	80.006	20.009	100.408	20.007	11.037	0.631
158.999	128.831	80.006	20.010	100.399	20.008	10.875	0.587
159.499	129.093	80.004	20.010	100.391	20.010	10.531	0.580
159.999	129.300	80.006	20.009	100.384	20.006	11.220	0.537
160.499	129.636	80.005	20.009	100.383	20.008	10.881	0.506
160.999	130.020	80.005	20.009	100.392	20.010	10.509	0.632
161.500	130.285	80.006	20.009	100.400	20.009	10.807	0.685
162.000	130.543	80.005	20.009	100.408	20.008	10.894	0.586
162.499	130.889	80.004	20.009	100.417	20.005	11.282	0.563
162.999	131.160	80.005	20.009	100.419	20.006	11.266	0.610
163.499	131.421	80.004	20.009	100.420	20.004	11.510	0.574
163.999	131.752	80.006	20.009	100.415	20.009	10.741	0.562
164.499	132.070	80.005	20.009	100.409	20.005	11.347	0.621
164.999	132.383	80.004	20.009	100.401	20.010	10.560	0.640
165.499	132.652	80.004	20.009	100.393	20.007	10.972	0.607
165.999	132.882	80.005	20.009	100.385	20.005	11.338	0.541
166.500	133.228	80.004	20.009	100.382	20.003	11.651	0.538
167.000	133.579	80.006	20.009	100.380	20.002	11.782	0.636
167.499	133.832	80.004	20.010	100.381	20.006	11.217	0.650
167.999	134.094	80.005	20.009	100.388	20.004	11.485	0.560
168.500	134.417	80.005	20.010	100.395	20.007	11.056	0.551
169.000	134.694	80.005	20.009	100.403	20.003	11.687	0.592
169.499	134.994	80.005	20.009	100.412	20.006	11.129	0.588
169.999	135.252	80.005	20.009	100.413	20.007	10.984	0.567
170.499	135.515	80.004	20.009	100.411	20.006	11.186	0.540
170.999	135.855	80.004	20.009	100.404	20.009	10.789	0.562
171.499	136.149	80.005	20.009	100.397	20.007	11.115	0.618
171.999	136.412	80.003	20.009	100.389	20.008	10.933	0.596
172.499	136.653	80.005	20.009	100.383	20.006	11.256	0.531
172.999	136.962	80.005	20.009	100.379	20.004	11.434	0.527
173.500	137.227	80.006	20.009	100.386	20.008	10.863	0.562
174.000	137.538	80.004	20.009	100.393	20.008	10.853	0.575
174.500	137.853	80.005	20.009	100.401	20.020	9.074	0.601
175.000	138.127	80.005	20.009	100.418	20.012	10.280	0.607
175.499	138.472	80.005	20.010	100.430	20.010	10.521	0.604
175.999	138.678	80.005	20.010	100.431	20.019	9.184	0.585
176.499	138.940	80.003	20.010	100.432	20.005	11.390	0.509
176.999	139.278	80.005	20.010	100.431	20.005	11.297	0.534
177.499	139.618	80.005	20.009	100.424	20.007	10.962	0.639
177.999	139.859	80.005	20.009	100.413	20.008	10.928	0.630
178.499	140.121	80.004	20.009	100.405	20.010	10.581	0.542
178.999	140.462	80.005	20.009	100.398	20.009	10.669	0.553
179.499	140.693	80.004	20.009	100.390	20.010	10.563	0.587
179.999	140.981	80.006	20.010	100.383	20.010	10.580	0.545
180.499	141.358	80.005	20.010	100.380	20.005	11.309	0.592
180.999	141.575	80.005	20.010	100.382	20.008	10.838	0.629
181.499	141.869	80.004	20.010	100.387	20.010	10.515	0.553
181.999	142.131	80.005	20.010	100.392	20.008	10.859	0.533
182.499	142.435	80.005	20.010	100.394	20.009	10.698	0.561
182.999	142.948	80.003	20.010	100.395	20.010	10.629	0.692
183.499	143.020	80.005	20.010	100.395	20.009	10.709	0.701
183.999	143.277	80.003	20.010	100.390	20.008	10.880	0.456
184.499	143.547	80.004	20.010	100.386	20.008	10.902	0.428
184.999	143.899	80.004	20.009	100.379	20.011	10.389	0.574
185.499	144.187	80.005	20.010	100.375	20.010	10.520	0.631
186.000	144.500	80.003	20.009	100.372	20.010	10.605	0.621
186.500	144.665	80.005	20.010	100.371	20.010	10.492	0.540
186.999	145.083	80.004	20.010	100.370	20.013	10.056	0.531
187.499	145.357	80.006	20.011	100.375	20.010	10.518	0.637
187.999	145.606	80.004	20.010	100.380	20.011	10.419	0.608
188.499	145.879	80.004	20.010	100.386	20.007	10.975	0.523
188.999	146.139	80.004	20.009	100.389	20.009	10.801	0.527
189.499	146.471	80.004	20.009	100.390	20.011	10.469	0.563
189.999	146.693	80.004	20.009	100.386	20.011	10.423	0.573
190.499	146.981	80.004	20.009	100.376	20.009	10.769	0.532
190.999	147.248	80.004	20.010	100.364	20.009	10.666	0.532
191.500	147.556	80.004	20.010	100.355	20.009	10.768	0.565
192.000	147.774	80.004	20.010	100.346	20.011	10.364	0.550
192.500	148.094	80.003	20.009	100.344	20.007	10.960	0.532
193.000	148.374	80.005	20.009	100.347	20.007	10.970	0.569
193.499	148.625	80.003	20.009	100.348	20.005	11.359	0.566
193.999	148.923	80.005	20.010	100.354	20.004	11.487	0.540
194.499	149.219	80.004	20.009	100.363	20.005	11.337	0.571
194.999	149.546	80.004	20.009	100.369	20.002	11.774	0.608
195.499	149.866	80.005	20.009	100.373	20.004	11.495	0.635
196.000	150.081	80.004	20.010	100.378	20.004	11.558	0.592
196.500	150.324	80.005	20.009	100.379	19.999	12.361	0.496
197.000	150.692	80.005	20.009	100.372	20.000	12.202	0.534
197.500	150.905	80.004	20.009	100.365	20.001	11.930	0.596
197.999	151.244	80.004	20.009	100.356	20.001	12.031	0.567
198.499	151.484	80.005	20.009	100.348	19.999	12.204	0.566
199.000	151.766	80.006	20.010	100.334	20.000	12.094	0.550
199.500	152.066	80.003	20.009	100.328	20.000	12.116	0.551
200.000	152.331	80.005	20.010	100.326	20.002	11.760	0.573
200.500	152.671	80.004	20.009	100.327	20.001	11.933	0.585
200.999	152.943	80.005	20.009	100.329	19.998	12.482	0.609
201.499	153.247	80.004	20.009	100.341	20.003	11.699	0.594
201.999	153.485	80.006	20.009	100.353	19.997	12.558	0.559
202.499	153.750	80.005	20.009	100.360	19.996	12.746	0.522
202.999	154.035	80.005	20.009	100.362	20.000	12.079	0.527
203.499	154.323	80.004	20.009	100.361	19.998	12.506	0.562
203.999	154.584	80.006	20.010	100.355	19.996	12.775	0.561
204.499	154.850	80.003	20.009	100.345	19.996	12.718	0.538
204.999	155.142	80.005	20.009	100.332	19.996	12.753	0.543
205.499	155.392	80.004	20.010	100.322	19.997	12.575	0.550
205.999	155.690	80.005	20.010	100.320	19.993	13.200	0.545
206.499	156.095	80.004	20.009	100.319	19.993	13.234	0.626
207.000	156.285	80.004	20.009	100.319	19.993	13.146	0.649
207.500	156.533	80.005	20.009	100.329	19.990	13.699	0.517
207.999	156.801	80.004	20.009	100.344	19.990	13.755	0.477
208.499	157.073	80.004	20.009	100.353	19.990	13.617	0.528
208.999	157.375	80.004	20.009	100.362	19.994	13.122	0.557
209.499	157.557	80.005	20.010	100.366	19.990	13.639	0.529
209.999	157.889	80.005	20.010	100.364	19.987	14.082	0.499
210.500	158.119	80.004	20.009	100.353	19.987	14.219	0.538
211.000	158.438	80.005	20.009	100.338	19.986	14.348	0.555
211.499	158.722	80.004	20.009	100.323	19.987	14.207	0.575
211.999	158.921	80.004	20.010	100.313	19.986	14.302	0.543
212.499	159.211	80.004	20.009	100.309	19.985	14.506	0.486
212.999	159.482	80.005	20.009	100.311	19.986	14.325	0.525
213.500	159.783	80.004	20.010	100.320	19.983	14.693	0.567
214.000	160.034	80.005	20.010	100.333	19.983	14.830	0.562
214.499	160.318	80.004	20.009	100.348	19.983	14.841	0.543
214.999	160.532	80.004	20.010	100.358	19.982	14.930	0.517
215.500	160.857	80.005	20.009	100.360	19.981	15.128	0.519
216.001	161.128	80.005	20.009	100.357	19.980	15.246	0.568
216.500	161.361	80.004	20.009	100.343	19.978	15.601	0.550
216.999	161.644	80.004	20.010	100.329	19.983	14.838	0.510
217.499	161.860	80.005	20.010	100.317	19.980	15.285	0.507
217.999	162.147	80.004	20.010	100.312	19.981	15.063	0.501
218.500	162.371	80.004	20.010	100.313	19.979	15.333	0.507
219.000	162.735	80.006	20.010	100.322	19.979	15.390	0.550
219.499	162.961	80.004	20.010	100.329	19.977	15.701	0.589
220.000	163.195	80.005	20.010	100.340	19.976	15.871	0.526
220.500	163.551	80.004	20.010	100.350	19.978	15.536	0.525
221.000	163.824	80.005	20.009	100.355	19.974	16.110	0.609
221.500	164.051	80.005	20.010	100.354	19.973	16.259	0.565
222.000	164.338	80.004	20.009	100.355	19.972	16.486	0.507
222.500	164.596	80.005	20.009	100.345	19.971	16.575	0.529
222.999	164.806	80.006	20.009	100.333	19.970	16.841	0.506
223.499	165.135	80.005	20.010	100.317	19.968	17.083	0.503
223.999	165.333	80.005	20.010	100.301	19.965	17.491	0.533
224.499	165.608	80.005	20.010	100.284	19.967	17.180	0.500
225.000	165.847	80.005	20.010	100.276	19.968	17.087	0.494
225.500	166.194	80.005	20.010	100.275	19.969	16.917	0.550
225.999	166.389	80.004	20.009	100.278	19.966	17.384	0.564
226.499	166.726	80.005	20.009	100.289	19.967	17.215	0.537
226.999	166.980	80.005	20.009	100.300	19.964	17.702	0.561
227.499	167.230	80.004	20.010	100.308	19.967	17.327	0.548
227.999	167.457	80.005	20.009	100.310	19.964	17.795	0.491
228.499	167.780	80.005	20.009	100.311	19.966	17.409	0.513
228.999	167.953	80.005	20.010	100.307	19.963	17.929	0.523
229.499	168.266	80.004	20.010	100.298	19.964	17.762	0.491
229.999	168.443	80.005	20.010	100.286	19.963	17.899	0.488
230.499	168.745	80.005	20.010	100.278	19.964	17.684	0.484
230.999	169.060	80.004	20.010	100.271	19.962	17.970	0.548
231.499	169.273	80.005	20.010	100.270	19.963	17.941	0.573
231.999	169.493	80.005	20.010	100.277	19.962	18.017	0.481
232.499	169.847	80.005	20.010	100.285	19.963	17.921	0.503
232.999	170.113	80.004	20.009	100.293	19.966	17.401	0.597
233.499	170.301	80.005	20.010	100.302	19.961	18.151	0.537
233.999	170.581	80.004	20.009	100.304	19.960	18.356	0.461
234.499	170.817	80.005	20.010	100.304	19.963	17.917	0.492
234.999	171.100	80.005	20.009	100.303	19.961	18.236	0.518
235.499	171.344	80.005	20.010	100.301	19.961	18.178	0.523
235.999	171.619	80.004	20.010	100.293	19.960	18.375	0.523
236.499	171.904	80.006	20.009	100.284	19.960	18.368	0.539
236.999	172.061	80.004	20.010	100.276	19.961	18.266	0.501
237.499	172.487	80.005	20.009	100.269	19.962	18.095	0.513
238.000	172.713	80.004	20.010	100.267	19.961	18.213	0.617
238.500	172.905	80.005	20.010	100.274	19.962	18.085	0.535
238.999	173.203	80.005	20.009	100.286	19.962	18.043	0.454
239.499	173.482	80.004	20.009	100.301	19.958	18.718	0.534
239.999	173.719	80.004	20.009	100.314	19.963	17.924	0.546
240.499	173.964	80.003	20.010	100.319	19.961	18.232	0.499
240.999	174.211	80.006	20.010	100.319	19.966	17.422	0.487
241.499	174.473	80.004	20.010	100.316	19.963	17.830	0.501
241.999	174.795	80.005	20.009	100.309	19.965	17.556	0.547
242.499	175.010	80.003	20.010	100.301	19.965	17.623	0.560
242.999	175.275	80.004	20.010	100.293	19.968	17.167	0.509
243.499	175.571	80.005	20.009	100.287	19.968	17.097	0.521
244.000	175.758	80.005	20.010	100.285	19.967	17.186	0.522
244.500	176.045	80.005	20.010	100.285	19.965	17.566	0.478
244.999	176.292	80.003	20.010	100.288	19.965	17.640	0.504
245.499	176.568	80.005	20.010	100.301	19.966	17.364	0.529
246.000	176.843	80.005	20.010	100.312	19.967	17.281	0.537
246.500	177.016	80.006	20.009	100.317	19.969	16.933	0.500
247.000	177.401	80.003	20.009	100.318	19.967	17.311	0.503
247.499	177.593	80.005	20.009	100.319	19.971	16.690	0.567
247.999	177.871	80.003	20.009	100.311	19.971	16.684	0.524
248.499	178.132	80.005	20.009	100.304	19.969	16.897	0.505
248.999	178.368	80.004	20.009	100.299	19.970	16.819	0.517
249.499	178.666	80.004	20.010	100.297	19.971	16.576	0.515
250.000	178.887	80.005	20.010	100.296	19.975	16.037	0.527
250.500	179.133	80.005	20.009	100.296	19.974	16.103	0.493
250.999	179.454	80.004	20.010	100.297	19.975	16.047	0.517
251.499	179.656	80.005	20.010	100.300	19.976	15.867	0.545
251.999	179.917	80.003	20.010	100.304	19.979	15.446	0.493
252.499	180.158	80.005	20.009	100.312	19.978	15.624	0.483
252.999	180.415	80.005	20.009	100.320	19.979	15.394	0.500
253.499	180.646	80.004	20.009	100.329	19.978	15.502	0.493
253.999	180.922	80.004	20.009	100.334	19.978	15.493	0.497
254.499	181.114	80.005	20.009	100.332	19.983	14.823	0.487
254.999	181.314	80.005	20.009	100.326	19.982	14.994	0.430
255.499	181.628	80.004	20.009	100.318	19.983	14.775	0.453
255.999	181.912	80.005	20.009	100.310	19.987	14.173	0.556
256.499	182.186	80.004	20.009	100.305	19.984	14.568	0.578
256.999	182.369	80.005	20.010	100.307	19.983	14.785	0.507
257.499	182.694	80.004	20.010	100.312	19.985	14.442	0.483
257.999	182.912	80.007	20.010	100.320	19.989	13.913	0.526
258.499	183.194	80.004	20.010	100.327	19.991	13.532	0.521
258.999	183.415	80.006	20.009	100.341	19.991	13.590	0.502
259.499	183.705	80.004	20.009	100.353	19.993	13.205	0.507
259.999	183.922	80.005	20.009	100.359	19.992	13.361	0.509
260.499	184.218	80.004	20.009	100.361	19.996	12.740	0.510
260.999	184.460	80.005	20.009	100.362	19.992	13.327	0.525
261.499	184.740	80.004	20.010	100.353	19.992	13.425	0.530
261.999	184.966	80.005	20.010	100.338	19.996	12.766	0.514
262.499	185.182	80.006	20.010	100.326	19.994	13.122	0.474
262.999	185.392	80.005	20.009	100.322	19.996	12.734	0.434
263.499	185.748	80.004	20.009	100.322	19.997	12.575	0.496
263.999	185.926	80.005	20.009	100.323	19.997	12.532	0.550
264.499	186.220	80.005	20.009	100.331	19.995	12.824	0.502
264.999	186.515	80.005	20.009	100.338	19.998	12.463	0.530
265.499	186.670	80.005	20.009	100.340	19.999	12.316	0.520
265.999	186.994	80.004	20.009	100.341	19.999	12.219	0.465
266.499	187.215	80.004	20.009	100.342	20.001	11.998	0.512
266.999	187.504	80.004	20.009	100.342	20.002	11.747	0.527
267.500	187.766	80.005	20.009	100.340	20.005	11.409	0.531
268.000	187.999	80.005	20.009	100.337	20.002	11.869	0.523
268.499	188.290	80.005	20.009	100.328	20.004	11.468	0.509
268.999	188.499	80.005	20.009	100.320	20.005	11.401	0.512
269.499	188.771	80.004	20.009	100.313	20.004	11.460	0.491
270.000	188.985	80.005	20.010	100.311	20.006	11.263	0.483
270.500	189.257	80.005	20.009	100.313	20.009	10.654	0.486
270.999	189.490	80.004	20.010	100.322	20.007	10.992	0.496
271.499	189.802	80.006	20.009	100.337	20.011	10.403	0.525
271.999	190.010	80.004	20.009	100.352	20.009	10.746	0.532
272.499	190.276	80.006	20.009	100.361	20.007	11.073	0.497
273.000	190.550	80.004	20.009	100.364	20.011	10.349	0.508
273.500	190.759	80.006	20.009	100.365	20.011	10.471	0.512
273.999	191.013	80.004	20.009	100.362	20.010	10.530	0.473
274.499	191.240	80.006	20.009	100.354	20.012	10.249	0.472
274.999	191.595	80.003	20.009	100.338	20.012	10.318	0.532
275.499	191.788	80.005	20.009	100.328	20.014	9.922	0.565
275.999	192.078	80.005	20.010	100.318	20.015	9.850	0.516
276.500	192.293	80.005	20.009	100.310	20.016	9.582	0.494
277.000	192.542	80.006	20.009	100.312	20.014	9.893	0.484
277.500	192.848	80.004	20.009	100.324	20.016	9.665	0.509
278.000	192.983	80.005	20.009	100.339	20.017	9.467	0.498
278.500	193.245	80.005	20.009	100.354	20.017	9.414	0.419
278.999	193.562	80.005	20.009	100.366	20.020	8.978	0.488
279.499	193.826	80.005	20.009	100.369	20.019	9.179	0.580
280.000	193.884	80.005	20.009	100.364	20.015	9.808	0.452
280.500	194.206	80.004	20.009	100.353	20.018	9.306	0.351
280.999	194.464	80.005	20.009	100.339	20.019	9.200	0.480
281.499	194.765	80.005	20.009	100.324	20.016	9.583	0.569
281.999	195.024	80.006	20.010	100.314	20.020	9.046	0.559
282.499	195.284	80.003	20.010	100.313	20.022	8.680	0.539
283.000	195.525	80.006	20.010	100.318	20.019	9.186	0.510
283.500	195.787	80.005	20.010	100.329	20.022	8.741	0.502
283.999	196.047	80.005	20.009	100.343	20.021	8.919	0.513
284.499	196.304	80.006	20.009	100.357	20.023	8.613	0.519
284.999	196.446	80.004	20.009	100.358	20.019	9.210	0.458
285.499	196.793	80.005	20.009	100.358	20.017	9.473	0.444
285.999	197.081	80.004	20.009	100.354	20.018	9.327	0.562
286.499	197.273	80.005	20.009	100.346	20.022	8.676	0.558
286.999	197.598	80.006	20.009	100.341	20.023	8.590	0.499
287.499	197.751	80.004	20.010	100.341	20.023	8.612	0.498
288.000	197.988	80.005	20.010	100.341	20.021	8.840	0.435
288.500	198.240	80.004	20.010	100.339	20.026	8.121	0.439
289.000	198.537	80.006	20.010	100.339	20.023	8.472	0.519
289.500	198.817	80.004	20.010	100.339	20.025	8.182	0.563
290.000	199.028	80.005	20.010	100.339	20.028	7.800	0.534
290.499	199.255	80.005	20.009	100.339	20.022	8.701	0.464
290.999	199.519	80.005	20.009	100.340	20.023	8.526	0.465
291.499	199.793	80.005	20.009	100.339	20.021	8.793	0.515
291.999	199.956	80.005	20.009	100.335	20.025	8.211	0.488
292.499	200.216	80.006	20.009	100.328	20.023	8.534	0.429
293.000	200.514	80.004	20.009	100.321	20.019	9.124	0.490
293.500	200.757	80.004	20.010	100.313	20.021	8.873	0.549
294.000	201.073	80.005	20.010	100.308	20.020	8.952	0.550
294.500	201.302	80.006	20.010	100.310	20.025	8.207	0.552
295.000	201.538	80.005	20.009	100.316	20.025	8.178	0.505
295.499	201.858	80.004	20.009	100.323	20.025	8.238	0.511
295.999	201.997	80.004	20.009	100.331	20.025	8.199	0.508
296.499	202.251	80.005	20.010	100.337	20.028	7.777	0.426
296.999	202.570	80.005	20.009	100.342	20.027	7.906	0.483
297.499	202.802	80.005	20.009	100.344	20.024	8.441	0.562
298.000	203.039	80.004	20.009	100.343	20.025	8.265	0.510
298.500	203.196	80.006	20.010	100.337	20.022	8.753	0.431
298.999	203.588	80.004	20.010	100.328	20.025	8.178	0.472
299.500	203.752	80.005	20.010	100.316	20.025	8.168	0.552
300.000	204.036	80.006	20.010	100.309	20.027	7.881	0.502
300.499	204.233	80.004	20.010	100.301	20.026	8.139	0.464
300.999	204.522	80.005	20.010	100.300	20.025	8.176	0.483
301.499	204.798	80.004	20.009	100.305	20.024	8.358	0.526
301.999	205.081	80.005	20.009	100.313	20.026	8.114	0.563
302.500	205.261	80.005	20.009	100.321	20.025	8.266	0.511
303.000	205.635	80.004	20.009	100.329	20.021	8.928	0.509
303.499	205.827	80.006	20.010	100.336	20.024	8.400	0.560
303.999	206.079	80.004	20.010	100.333	20.025	8.231	0.504
304.499	206.318	80.006	20.010	100.325	20.022	8.749	0.467
304.999	206.661	80.003	20.009	100.318	20.023	8.465	0.537
305.500	206.865	80.005	20.010	100.308	20.024	8.337	0.565
306.000	207.078	80.005	20.010	100.302	20.023	8.588	0.482
306.499	207.360	80.006	20.009	100.300	20.024	8.312	0.456
306.999	207.563	80.004	20.010	100.301	20.024	8.411	0.490
307.499	207.793	80.005	20.010	100.303	20.023	8.470	0.459
307.999	208.069	80.003	20.009	100.313	20.025	8.154	0.469
308.500	208.337	80.005	20.009	100.320	20.027	7.933	0.525
309.000	208.498	80.005	20.009	100.328	20.026	8.074	0.487
309.499	208.805	80.006	20.009	100.336	20.023	8.483	0.449
310.000	209.014	80.005	20.010	100.342	20.026	8.123	0.492
310.500	209.242	80.006	20.009	100.340	20.025	8.267	0.476
311.000	209.516	80.004	20.010	100.333	20.026	8.065	0.469
311.499	209.806	80.005	20.011	100.325	20.028	7.699	0.534
311.999	210.082	80.005	20.010	100.318	20.027	7.858	0.565
312.499	210.304	80.005	20.010	100.315	20.030	7.457	0.532
313.000	210.627	80.005	20.009	100.317	20.025	8.289	0.521
313.500	210.814	80.004	20.009	100.324	20.027	7.965	0.527
314.000	211.114	80.005	20.009	100.332	20.028	7.721	0.499
314.500	211.366	80.005	20.009	100.338	20.029	7.617	0.519
314.999	211.609	80.006	20.009	100.340	20.027	7.966	0.524
315.499	211.832	80.005	20.010	100.336	20.026	8.131	0.481
316.000	212.045	80.004	20.009	100.330	20.030	7.447	0.450
316.500	212.327	80.006	20.010	100.321	20.028	7.698	0.465
317.000	212.526	80.005	20.010	100.314	20.028	7.744	0.489
317.499	212.830	80.004	20.009	100.312	20.030	7.511	0.492
317.999	213.070	80.005	20.010	100.316	20.028	7.762	0.523
318.500	213.292	80.005	20.009	100.322	20.028	7.770	0.503
319.000	213.542	80.004	20.010	100.330	20.029	7.529	0.467
319.499	213.805	80.004	20.009	100.338	20.030	7.434	0.492
319.999	214.059	80.006	20.009	100.338	20.028	7.757	0.515
320.499	214.381	80.005	20.010	100.337	20.026	8.103	0.546
320.999	214.467	80.006	20.010	100.338	20.026	8.026	0.492
321.499	214.813	80.006	20.010	100.339	20.026	8.009	0.420
322.000	215.018	80.005	20.010	100.336	20.028	7.764	0.492
322.500	215.267	80.005	20.010	100.330	20.028	7.754	0.503
322.999	215.526	80.005	20.010	100.322	20.029	7.553	0.481
323.499	215.823	80.005	20.009	100.314	20.030	7.409	0.532
323.999	216.008	80.006	20.010	100.308	20.028	7.722	0.519
324.500	216.308	80.004	20.010	100.309	20.032	7.161	0.484
325.000	216.557	80.004	20.010	100.319	20.028	7.794	0.517
325.499	216.823	80.004	20.009	100.328	20.027	7.966	0.532
325.999	217.103	80.005	20.009	100.335	20.028	7.695	0.531
326.499	217.325	80.004	20.009	100.337	20.028	7.718	0.524
326.999	217.623	80.004	20.010	100.329	20.030	7.520	0.511
327.500	217.828	80.005	20.008	100.318	20.029	7.619	0.512
328.000	218.047	80.005	20.009	100.308	20.027	7.873	0.463
328.499	218.321	80.005	20.009	100.299	20.026	8.067	0.458
328.999	218.568	80.005	20.010	100.294	20.029	7.569	0.507
329.500	218.829	80.005	20.009	100.296	20.028	7.775	0.515
330.000	219.022	80.005	20.010	100.295	20.031	7.301	0.481
330.500	219.304	80.005	20.009	100.304	20.031	7.262	0.464
331.000	219.581	80.004	20.009	100.313	20.031	7.368	0.517
331.500	219.787	80.005	20.009	100.322	20.034	6.906	0.521
331.999	220.141	80.003	20.009	100.330	20.032	7.064	0.521
332.500	220.345	80.004	20.009	100.339	20.028	7.766	0.559
333.000	220.589	80.005	20.010	100.334	20.031	7.353	0.503
333.499	220.835	80.005	20.010	100.326	20.026	8.078	0.469
333.999	221.084	80.004	20.010	100.314	20.030	7.507	0.493
334.499	221.364	80.006	20.009	100.308	20.025	8.296	0.512
335.000	221.627	80.005	20.009	100.300	20.025	8.237	0.536
335.500	221.850	80.005	20.009	100.298	20.026	8.076	0.514
336.000	222.068	80.005	20.010	100.300	20.025	8.198	0.464
336.500	222.321	80.004	20.009	100.304	20.024	8.426	0.456
337.000	222.626	80.004	20.009	100.305	20.025	8.238	0.514
337.500	222.834	80.005	20.009	100.305	20.022	8.713	0.535
337.999	223.060	80.006	20.009	100.303	20.024	8.458	0.474
338.499	223.419	80.003	20.009	100.301	20.022	8.697	0.510
338.999	223.650	80.006	20.009	100.301	20.025	8.221	0.588
339.500	223.876	80.005	20.009	100.299	20.024	8.392	0.523
340.000	224.180	80.005	20.010	100.298	20.028	7.832	0.493
340.500	224.390	80.004	20.009	100.294	20.026	8.043	0.522
341.000	224.692	80.004	20.009	100.290	20.027	7.925	0.513
341.499	224.900	80.005	20.009	100.289	20.028	7.762	0.511
341.999	225.113	80.005	20.009	100.292	20.028	7.710	0.466
342.499	225.381	80.005	20.009	100.303	20.031	7.357	0.451
342.999	225.740	80.006	20.008	100.316	20.029	7.664	0.554
343.499	225.920	80.006	20.009	100.328	20.028	7.828	0.582
343.999	226.163	80.003	20.009	100.336	20.027	7.874	0.481
344.499	226.460	80.006	20.009	100.336	20.029	7.583	0.482
344.999	226.627	80.003	20.009	100.327	20.028	7.724	0.502
345.500	226.945	80.006	20.009	100.319	20.031	7.329	0.474
346.000	227.265	80.004	20.009	100.311	20.027	7.916	0.562
346.500	227.512	80.006	20.009	100.303	20.027	7.956	0.603
347.000	227.686	80.005	20.010	100.300	20.026	8.082	0.494
347.499	228.009	80.004	20.009	100.302	20.031	7.218	0.459
347.999	228.257	80.004	20.009	100.304	20.030	7.380	0.534
348.499	228.500	80.006	20.009	100.312	20.031	7.221	0.531
348.999	228.644	80.006	20.009	100.321	20.031	7.369	0.439
349.499	229.010	80.005	20.008	100.327	20.031	7.293	0.449
349.999	229.263	80.004	20.009	100.326	20.028	7.732	0.565
350.499	229.547	80.005	20.009	100.319	20.028	7.722	0.578
350.999	229.739	80.004	20.009	100.306	20.029	7.577	0.506
351.499	229.957	80.005	20.009	100.291	20.029	7.571	0.443
351.999	230.250	80.004	20.009	100.278	20.033	7.060	0.461
352.499	230.451	80.005	20.009	100.271	20.033	7.054	0.502
352.999	230.810	80.004	20.009	100.273	20.033	6.982	0.527
353.499	230.951	80.005	20.010	100.279	20.030	7.398	0.530
353.999	231.202	80.005	20.009	100.291	20.032	7.127	0.446
354.499	231.502	80.005	20.009	100.304	20.033	7.034	0.472
354.999	231.729	80.004	20.009	100.317	20.032	7.201	0.539
355.499	231.984	80.004	20.009	100.320	20.031	7.345	0.504
355.999	232.245	80.006	20.009	100.319	20.035	6.616	0.499
356.499	232.493	80.005	20.009	100.314	20.034	6.838	0.512
356.999	232.729	80.005	20.009	100.307	20.035	6.687	0.496
357.499	233.040	80.004	20.009	100.294	20.036	6.592	0.516
357.999	233.322	80.005	20.010	100.292	20.030	7.381	0.570
358.499	233.554	80.006	20.010	100.292	20.036	6.448	0.553
358.999	233.773	80.004	20.009	100.294	20.034	6.771	0.482
359.500	234.045	80.005	20.009	100.299	20.032	7.074	0.471
360.000	234.267	80.005	20.009	100.310	20.037	6.410	0.493
360.500	234.516	80.005	20.009	100.315	20.036	6.577	0.483
360.999	234.731	80.006	20.009	100.317	20.036	6.441	0.467
361.499	235.045	80.006	20.009	100.314	20.032	7.116	0.496
361.999	235.231	80.006	20.010	100.310	20.034	6.882	0.515
362.499	235.529	80.004	20.009	100.304	20.034	6.820	0.492
362.999	235.879	80.006	20.009	100.300	20.036	6.454	0.566
363.499	236.062	80.004	20.009	100.299	20.033	7.019	0.590
363.999	236.335	80.005	20.009	100.305	20.034	6.785	0.495
364.500	236.614	80.005	20.009	100.313	20.033	6.940	0.504
365.000	236.824	80.005	20.009	100.323	20.031	7.244	0.521
365.500	237.039	80.005	20.009	100.331	20.032	7.118	0.457
365.999	237.327	80.005	20.009	100.338	20.032	7.160	0.464
366.499	237.569	80.004	20.009	100.338	20.034	6.849	0.516
366.999	237.897	80.005	20.009	100.331	20.033	6.925	0.550
367.499	238.122	80.004	20.009	100.320	20.034	6.747	0.562
367.999	238.409	80.005	20.009	100.304	20.033	7.021	0.533
368.499	238.603	80.005	20.010	100.295	20.034	6.752	0.497
368.999	238.914	80.005	20.009	100.295	20.031	7.228	0.493
369.500	239.127	80.005	20.008	100.302	20.034	6.782	0.514
370.000	239.436	80.005	20.009	100.313	20.034	6.798	0.522
370.499	239.636	80.005	20.009	100.329	20.032	7.062	0.515
370.999	239.946	80.004	20.009	100.339	20.035	6.658	0.510
371.499	240.222	80.005	20.009	100.342	20.036	6.499	0.548
371.999	240.502	80.004	20.009	100.339	20.036	6.545	0.571
372.500	240.774	80.007	20.009	100.331	20.035	6.632	0.554
373.000	240.987	80.005	20.009	100.319	20.031	7.239	0.519
373.499	241.250	80.007	20.009	100.304	20.033	7.013	0.480
374.000	241.395	80.005	20.010	100.287	20.033	6.944	0.442
374.500	241.737	80.006	20.009	100.277	20.034	6.898	0.448
374.999	241.987	80.005	20.009	100.274	20.032	7.192	0.540
375.499	242.208	80.005	20.009	100.277	20.031	7.238	0.532
375.999	242.485	80.005	20.010	100.287	20.032	7.214	0.485
376.499	242.758	80.005	20.009	100.297	20.034	6.798	0.524
376.999	243.040	80.005	20.009	100.302	20.031	7.243	0.552
377.499	243.251	80.004	20.010	100.305	20.034	6.785	0.524
377.999	243.526	80.006	20.009	100.304	20.035	6.664	0.489
378.500	243.737	80.005	20.010	100.294	20.036	6.586	0.486
379.000	244.035	80.005	20.009	100.283	20.033	6.939	0.498
379.500	244.235	80.004	20.010	100.276	20.036	6.526	0.503
379.999	244.463	80.004	20.009	100.276	20.035	6.717	0.462
380.500	244.718	80.004	20.010	100.278	20.031	7.336	0.455
381.000	245.070	80.005	20.009	100.287	20.030	7.404	0.546
381.499	245.260	80.004	20.009	100.300	20.030	7.479	0.575
382.000	245.465	80.005	20.009	100.311	20.032	7.074	0.468
382.500	245.736	80.005	20.009	100.312	20.030	7.519	0.435
382.999	246.030	80.005	20.009	100.304	20.029	7.652	0.521
383.499	246.285	80.004	20.009	100.294	20.030	7.474	0.557
383.999	246.523	80.005	20.010	100.281	20.032	7.105	0.521
384.500	246.766	80.005	20.009	100.272	20.032	7.203	0.487
385.000	247.020	80.005	20.009	100.271	20.033	6.936	0.489
385.499	247.296	80.004	20.009	100.277	20.028	7.760	0.513
385.999	247.583	80.005	20.009	100.288	20.030	7.433	0.547
386.499	247.852	80.005	20.009	100.303	20.032	7.067	0.559
386.999	248.060	80.005	20.009	100.316	20.033	6.975	0.517
387.500	248.312	80.005	20.009	100.320	20.035	6.698	0.469
388.000	248.637	80.004	20.009	100.321	20.036	6.458	0.519
388.499	248.754	80.005	20.009	100.312	20.031	7.270	0.509
388.999	249.065	80.005	20.009	100.303	20.035	6.716	0.435
389.499	249.346	80.005	20.008	100.297	20.034	6.768	0.511
390.000	249.511	80.005	20.010	100.299	20.034	6.788	0.519
390.500	249.785	80.005	20.009	100.308	20.034	6.775	0.442
390.999	250.078	80.005	20.010	100.322	20.036	6.491	0.503
391.500	250.349	80.004	20.009	100.332	20.035	6.699	0.566
392.000	250.544	80.005	20.009	100.334	20.035	6.707	0.514
392.499	250.855	80.005	20.009	100.330	20.034	6.783	0.486
392.999	251.114	80.005	20.010	100.315	20.035	6.619	0.539
393.499	251.297	80.006	20.010	100.298	20.036	6.573	0.506
393.999	251.587	80.006	20.009	100.284	20.031	7.305	0.457
394.499	251.754	80.005	20.009	100.279	20.030	7.487	0.466
394.999	252.043	80.004	20.009	100.279	20.031	7.338	0.456
395.499	252.294	80.005	20.009	100.284	20.031	7.337	0.498
395.999	252.584	80.005	20.009	100.292	20.033	6.990	0.541
396.499	252.793	80.006	20.009	100.298	20.029	7.640	0.520
396.999	253.002	80.004	20.009	100.300	20.031	7.244	0.458
397.499	253.250	80.005	20.009	100.294	20.028	7.700	0.437
397.999	253.504	80.005	20.010	100.287	20.029	7.630	0.479
398.499	253.862	80.004	20.009	100.279	20.032	7.076	0.557
398.999	254.022	80.006	20.009	100.272	20.030	7.475	0.565
399.499	254.272	80.006	20.009	100.271	20.029	7.533	0.464
399.999	254.549	80.004	20.009	100.278	20.032	7.160	0.469
400.499	254.776	80.005	20.009	100.286	20.031	7.291	0.515
400.999	254.991	80.005	20.009	100.294	20.030	7.426	0.473
401.499	255.293	80.005	20.009	100.301	20.030	7.370	0.479
401.999	255.612	80.005	20.009	100.302	20.029	7.549	0.569
402.500	255.807	80.005	20.009	100.299	20.032	7.177	0.568
403.000	256.125	80.005	20.009	100.296	20.033	7.022	0.514
403.500	256.292	80.006	20.010	100.296	20.029	7.570	0.499
404.000	256.510	80.005	20.009	100.297	20.029	7.652	0.435
404.499	256.829	80.006	20.009	100.303	20.028	7.698	0.460
404.999	257.053	80.004	20.009	100.315	20.029	7.631	0.540
405.499	257.310	80.006	20.009	100.324	20.025	8.181	0.512
405.999	257.562	80.005	20.009	100.332	20.027	7.973	0.495
406.499	257.854	80.005	20.009	100.336	20.027	7.924	0.527
406.999	258.105	80.005	20.010	100.335	20.026	8.143	0.543
407.499	258.337	80.004	20.010	100.332	20.026	8.002	0.513
408.000	258.639	80.006	20.009	100.326	20.024	8.323	0.509
408.500	258.863	80.005	20.009	100.318	20.026	8.082	0.530
408.999	259.145	80.006	20.009	100.315	20.026	8.059	0.516
409.499	259.334	80.005	20.009	100.312	20.025	8.187	0.489
409.999	259.581	80.004	20.009	100.313	20.026	8.143	0.453
410.499	259.811	80.004	20.009	100.313	20.023	8.499	0.456
410.999	260.097	80.006	20.010	100.314	20.022	8.621	0.497
411.500	260.368	80.006	20.009	100.314	20.022	8.727	0.537
412.000	260.620	80.005	20.009	100.310	20.021	8.793	0.540
412.500	260.821	80.006	20.009	100.295	20.023	8.533	0.488
412.999	261.127	80.004	20.010	100.285	20.022	8.643	0.480
413.499	261.418	80.005	20.009	100.276	20.019	9.210	0.552
413.999	261.649	80.005	20.009	100.270	20.022	8.741	0.560
414.499	261.931	80.005	20.009	100.272	20.020	9.040	0.518
414.999	262.170	80.005	20.009	100.280	20.022	8.707	0.517
415.499	262.377	80.005	20.009	100.289	20.021	8.904	0.483
415.999	262.659	80.005	20.008	100.298	20.019	9.230	0.467
416.499	262.875	80.004	20.009	100.302	20.016	9.633	0.493
416.999	263.150	80.006	20.009	100.295	20.018	9.393	0.494
417.499	263.351	80.005	20.010	100.287	20.020	9.077	0.483
417.999	263.644	80.005	20.009	100.279	20.017	9.483	0.485
418.499	263.914	80.005	20.010	100.271	20.020	9.002	0.529
419.000	264.169	80.006	20.009	100.271	20.016	9.700	0.544
419.500	264.368	80.004	20.009	100.279	20.017	9.521	0.489
419.999	264.666	80.005	20.008	100.291	20.011	10.378	0.476
420.499	264.877	80.004	20.009	100.302	20.017	9.543	0.503
420.999	265.149	80.005	20.009	100.311	20.015	9.830	0.496
421.499	265.316	80.006	20.009	100.311	20.020	8.967	0.461
422.000	265.601	80.005	20.009	100.310	20.027	7.929	0.446
422.500	265.891	80.005	20.009	100.303	20.023	8.541	0.513
422.999	266.114	80.004	20.010	100.291	20.016	9.657	0.544
423.499	266.355	80.005	20.009	100.287	20.009	10.769	0.488
423.999	266.625	80.005	20.009	100.287	20.012	10.273	0.487
424.499	266.854	80.006	20.009	100.288	20.008	10.941	0.506
424.999	267.184	80.004	20.009	100.294	20.008	10.860	0.529
425.499	267.398	80.005	20.009	100.305	20.007	11.084	0.551
425.999	267.620	80.005	20.008	100.309	20.009	10.767	0.490
426.500	267.836	80.005	20.009	100.309	20.008	10.910	0.437
427.000	268.119	80.006	20.009	100.304	20.006	11.118	0.469
427.499	268.393	80.006	20.010	100.294	20.005	11.343	0.529
428.000	268.667	80.004	20.009	100.285	20.007	10.961	0.553
428.500	268.902	80.005	20.009	100.279	20.006	11.201	0.528
429.000	269.160	80.005	20.009	100.275	20.003	11.699	0.500
429.500	269.390	80.005	20.009	100.278	20.006	11.223	0.490
429.999	269.668	80.005	20.009	100.285	20.001	12.017	0.499
430.499	269.943	80.006	20.009	100.291	20.001	11.934	0.530
431.000	270.208	80.003	20.009	100.297	19.996	12.784	0.546
431.500	270.372	80.005	20.009	100.301	20.001	12.000	0.485
432.000	270.623	80.005	20.009	100.293	20.001	12.024	0.423
432.500	270.894	80.005	20.009	100.285	19.999	12.272	0.468
433.000	271.117	80.004	20.009	100.277	19.997	12.593	0.507
433.499	271.377	80.005	20.009	100.269	19.999	12.310	0.488
433.999	271.687	80.004	20.009	100.269	19.998	12.448	0.526
434.499	271.899	80.005	20.009	100.281	19.996	12.699	0.546
434.999	272.176	80.004	20.009	100.297	19.995	12.910	0.506
435.499	272.393	80.006	20.009	100.312	19.996	12.686	0.492
435.999	272.710	80.006	20.009	100.325	19.991	13.579	0.514
436.499	272.894	80.005	20.009	100.326	19.992	13.435	0.517
436.999	273.169	80.005	20.009	100.317	19.991	13.487	0.480
437.499	273.373	80.005	20.009	100.302	19.992	13.322	0.469
437.999	273.571	80.006	20.010	100.287	19.991	13.533	0.440
438.499	273.814	80.006	20.009	100.282	19.991	13.533	0.422
438.999	274.067	80.003	20.009	100.282	20.001	12.028	0.469
439.499	274.322	80.006	20.009	100.287	19.999	12.255	0.502
439.999	274.596	80.005	20.009	100.293	19.995	12.870	0.518
440.499	274.881	80.004	20.009	100.299	19.984	14.610	0.544
440.999	275.191	80.004	20.009	100.299	19.986	14.369	0.577
441.499	275.431	80.006	20.009	100.298	19.982	14.897	0.573
441.999	275.663	80.005	20.008	100.294	19.984	14.661	0.511
442.499	275.848	80.004	20.009	100.286	19.983	14.718	0.444
442.999	276.197	80.005	20.009	100.279	19.984	14.637	0.476
443.499	276.447	80.004	20.009	100.272	19.985	14.440	0.567
444.000	276.670	80.005	20.009	100.271	19.982	14.955	0.536
444.500	276.976	80.004	20.009	100.275	19.980	15.160	0.501
445.000	277.176	80.004	20.009	100.284	19.983	14.782	0.517
445.500	277.433	80.004	20.009	100.291	19.981	15.035	0.481
445.999	277.628	80.005	20.009	100.298	19.981	15.060	0.455
446.499	277.924	80.005	20.009	100.301	19.979	15.323	0.472
446.999	278.087	80.004	20.009	100.299	19.977	15.625	0.475
447.499	278.368	80.004	20.010	100.298	19.972	16.460	0.451
447.999	278.660	80.006	20.009	100.298	19.975	15.963	0.508
448.500	278.919	80.004	20.009	100.298	19.976	15.895	0.562
449.000	279.167	80.005	20.009	100.298	19.975	16.021	0.530
449.499	279.383	80.005	20.009	100.301	19.973	16.349	0.486
449.999	279.703	80.005	20.009	100.300	19.968	17.074	0.500
450.499	279.912	80.004	20.008	100.300	19.979	15.308	0.533
450.999	280.142	80.006	20.009	100.300	19.982	14.917	0.484
451.499	280.397	80.005	20.009	100.295	19.981	15.136	0.462
451.999	280.646	80.006	20.008	100.288	19.983	14.700	0.494
452.500	280.851	80.004	20.009	100.280	19.968	17.152	0.479
453.000	281.164	80.006	20.009	100.271	19.971	16.619	0.486
453.499	281.375	80.005	20.010	100.264	19.970	16.769	0.521
453.999	281.702	80.005	20.009	100.261	19.968	17.158	0.531
454.499	281.890	80.005	20.010	100.262	19.966	17.427	0.527
454.999	282.046	80.005	20.010	100.270	19.964	17.718	0.430
455.499	282.291	80.005	20.009	100.279	19.961	18.168	0.372
455.999	282.649	80.004	20.009	100.288	19.962	18.022	0.502
456.499	282.897	80.005	20.009	100.296	19.958	18.710	0.605
456.999	283.127	80.005	20.009	100.302	19.958	18.666	0.542
457.499	283.354	80.007	20.009	100.301	19.959	18.517	0.468
457.999	283.629	80.005	20.009	100.292	19.959	18.480	0.479
458.499	283.893	80.005	20.009	100.283	19.958	18.729	0.521
458.999	284.128	80.006	20.010	100.275	19.964	17.784	0.519
459.499	284.406	80.006	20.009	100.267	19.967	17.261	0.506
459.999	284.612	80.004	20.010	100.261	19.965	17.519	0.498
460.499	284.897	80.005	20.009	100.265	19.954	19.270	0.487
460.999	285.190	80.005	20.009	100.271	19.956	19.005	0.535
461.499	285.410	80.006	20.009	100.277	19.955	19.090	0.546
461.999	285.647	80.005	20.009	100.285	19.953	19.381	0.485
462.500	285.868	80.004	20.009	100.290	19.953	19.391	0.457
463.000	286.162	80.007	20.010	100.286	19.948	20.273	0.486
463.499	286.336	80.004	20.009	100.278	19.950	19.962	0.491
463.999	286.629	80.005	20.009	100.268	19.949	20.016	0.468
464.499	286.814	80.004	20.009	100.252	19.950	19.890	0.473
464.999	287.165	80.004	20.009	100.244	19.950	19.912	0.507
465.499	287.352	80.005	20.009	100.244	19.947	20.429	0.537
465.999	287.595	80.005	20.009	100.248	19.947	20.305	0.484
466.499	287.809	80.006	20.009	100.259	19.946	20.518	0.443
466.999	288.066	80.005	20.010	100.275	19.947	20.375	0.464
467.499	288.299	80.005	20.008	100.287	19.947	20.403	0.480
467.999	288.612	80.004	20.009	100.295	19.946	20.450	0.518
468.499	288.878	80.005	20.008	100.301	19.947	20.411	0.563
469.000	289.089	80.006	20.010	100.297	19.949	20.027	0.529
469.500	289.401	80.004	20.009	100.290	19.944	20.857	0.500
469.999	289.633	80.005	20.009	100.283	19.944	20.876	0.533
470.499	289.912	80.005	20.009	100.278	19.946	20.555	0.527
470.999	290.081	80.005	20.009	100.278	19.945	20.675	0.480
471.500	290.348	80.003	20.009	100.283	19.945	20.661	0.442
472.000	290.571	80.004	20.008	100.291	19.946	20.481	0.463
472.499	290.824	80.005	20.009	100.299	19.944	20.758	0.483
472.999	291.143	80.004	20.009	100.304	19.944	20.789	0.524
473.499	291.366	80.004	20.008	100.303	19.943	21.002	0.557
474.000	291.604	80.006	20.009	100.299	19.942	21.095	0.501
474.500	291.906	80.004	20.009	100.291	19.941	21.334	0.500
475.000	292.178	80.006	20.009	100.280	19.945	20.702	0.557
475.500	292.384	80.006	20.009	100.264	19.942	21.149	0.526
475.999	292.656	80.005	20.009	100.254	19.941	21.352	0.478
476.499	292.934	80.006	20.009	100.250	19.942	21.133	0.514
476.999	293.156	80.005	20.008	100.257	19.939	21.593	0.525
477.499	293.395	80.006	20.008	100.267	19.939	21.565	0.480
478.000	293.639	80.005	20.009	100.282	19.937	21.906	0.472
478.500	293.813	80.007	20.009	100.294	19.934	22.323	0.451
479.000	294.140	80.005	20.009	100.297	19.938	21.694	0.460
479.500	294.407	80.005	20.009	100.291	19.937	21.999	0.547
479.999	294.614	80.005	20.009	100.284	19.937	21.912	0.534
480.499	294.814	80.006	20.009	100.277	19.937	21.946	0.441
480.999	295.082	80.006	20.009	100.268	19.936	22.123	0.438
481.499	295.341	80.007	20.009	100.269	19.935	22.228	0.497
481.999	295.564	80.005	20.009	100.277	19.935	22.211	0.504
482.499	295.831	80.006	20.009	100.287	19.935	22.290	0.486
482.999	296.105	80.005	20.008	100.302	19.938	21.772	0.516
483.499	296.324	80.006	20.009	100.313	19.935	22.280	0.517
483.999	296.619	80.005	20.009	100.316	19.936	22.115	0.503
484.499	296.797	80.006	20.009	100.315	19.937	21.895	0.493
484.999	297.109	80.006	20.009	100.306	19.934	22.358	0.482
485.499	297.349	80.005	20.009	100.291	19.936	22.048	0.521
486.000	297.647	80.005	20.009	100.280	19.937	21.962	0.545
486.500	297.869	80.006	20.009	100.274	19.935	22.216	0.529
486.999	298.110	80.005	20.009	100.275	19.936	22.156	0.491
487.499	298.365	80.005	20.009	100.282	19.933	22.552	0.480
487.999	298.661	80.007	20.009	100.291	19.935	22.310	0.524
488.499	298.933	80.004	20.009	100.300	19.933	22.561	0.560
488.999	299.159	80.006	20.008	100.305	19.932	22.633	0.533
489.499	299.414	80.004	20.009	100.300	19.930	22.965	0.489
489.999	299.665	80.006	20.009	100.292	19.928	23.376	0.493
490.500	299.896	80.005	20.009	100.283	19.929	23.121	0.494
491.000	300.181	80.006	20.009	100.274	19.928	23.264	0.499
491.499	300.444	80.006	20.009	100.268	19.926	23.631	0.532
491.999	300.652	80.006	20.009	100.271	19.925	23.731	0.509
492.499	300.908	80.005	20.009	100.278	19.925	23.743	0.467
492.999	301.156	80.006	20.009	100.286	19.922	24.216	0.484
493.499	301.467	80.005	20.009	100.294	19.921	24.481	0.532
493.999	301.642	80.005	20.009	100.300	19.922	24.302	0.523
494.499	301.906	80.006	20.009	100.300	19.922	24.233	0.462
494.999	302.197	80.004	20.009	100.297	19.919	24.655	0.497
495.499	302.410	80.005	20.009	100.295	19.919	24.767	0.529
495.999	302.679	80.006	20.009	100.295	19.920	24.611	0.492
496.499	302.953	80.006	20.009	100.294	19.920	24.514	0.512
496.999	303.162	80.005	20.009	100.293	19.915	25.312	0.513
497.500	303.418	80.006	20.009	100.300	19.916	25.263	0.474
498.000	303.663	80.005	20.009	100.304	19.916	25.158	0.483
498.499	303.937	80.006	20.009	100.305	19.916	25.181	0.510
498.999	304.207	80.007	20.009	100.306	19.916	25.137	0.532
499.499	304.439	80.005	20.009	100.307	19.914	25.565	0.523
499.999	304.696	80.007	20.008	100.303	19.915	25.376	0.495
500.499	304.956	80.007	20.009	100.301	19.912	25.850	0.503
500.999	305.251	80.005	20.009	100.298	19.911	25.969	0.536
501.500	305.555	80.006	20.009	100.298	19.909	26.251	0.577
502.000	305.802	80.005	20.009	100.298	19.911	26.025	0.575
502.500	306.016	80.006	20.008	100.304	19.908	26.485	0.506
502.999	306.278	80.005	20.009	100.313	19.908	26.453	0.469
503.499	306.524	80.006	20.009	100.322	19.906	26.767	0.492
504.000	306.778	80.006	20.008	100.329	19.904	27.067	0.504
504.500	307.069	80.005	20.009	100.331	19.903	27.256	0.522
504.999	307.259	80.005	20.009	100.322	19.900	27.611	0.513
505.499	307.514	80.006	20.009	100.305	19.899	27.898	0.463
505.999	307.722	80.005	20.009	100.294	19.897	28.142	0.454
506.499	308.022	80.006	20.009	100.285	19.897	28.230	0.485
506.999	308.274	80.006	20.009	100.282	19.894	28.615	0.530
507.499	308.481	80.005	20.009	100.285	19.891	29.137	0.506
507.999	308.732	80.006	20.008	100.297	19.891	29.050	0.459
508.499	308.979	80.006	20.009	100.309	19.890	29.155	0.478
508.999	309.276	80.006	20.008	100.319	19.888	29.477	0.521
509.499	309.526	80.006	20.009	100.325	19.882	30.419	0.545
509.999	309.756	80.004	20.009	100.326	19.883	30.375	0.514
510.499	310.036	80.004	20.009	100.316	19.883	30.368	0.495
510.999	310.261	80.006	20.009	100.302	19.879	31.013	0.508
511.499	310.499	80.004	20.009	100.291	19.879	31.016	0.484
512.000	310.762	80.006	20.009	100.284	19.878	31.070	0.482
512.500	311.037	80.005	20.009	100.284	19.873	31.918	0.520
512.999	311.293	80.004	20.009	100.290	19.871	32.152	0.535
513.499	311.554	80.005	20.009	100.302	19.867	32.876	0.524
513.999	311.760	80.005	20.008	100.314	19.865	33.117	0.492
514.499	312.086	80.006	20.009	100.320	19.862	33.612	0.499
514.999	312.303	80.005	20.009	100.315	19.862	33.619	0.538
515.499	312.541	80.005	20.009	100.305	19.856	34.520	0.499
515.999	312.832	80.006	20.009	100.284	19.859	34.083	0.492
516.499	313.035	80.005	20.009	100.264	19.855	34.695	0.512
516.999	313.298	80.006	20.009	100.252	19.851	35.364	0.480
517.499	313.578	80.004	20.010	100.254	19.848	35.693	0.505
517.999	313.857	80.005	20.010	100.263	19.843	36.509	0.551
518.499	314.117	80.006	20.009	100.277	19.843	36.543	0.549
518.999	314.370	80.005	20.009	100.289	19.842	36.741	0.526
519.500	314.637	80.005	20.009	100.296	19.836	37.581	0.516
520.000	314.831	80.006	20.009	100.291	19.831	38.442	0.491
520.500	315.070	80.005	20.009	100.284	19.828	38.927	0.447
520.999	315.369	80.004	20.009	100.270	19.822	39.797	0.486
521.500	315.612	80.006	20.009	100.254	19.821	40.011	0.540
522.000	315.869	80.006	20.009	100.240	19.821	40.044	0.521
522.499	316.100	80.005	20.009	100.237	19.815	40.962	0.494
522.999	316.396	80.005	20.009	100.235	19.815	40.828	0.507
523.499	316.570	80.005	20.009	100.244	19.811	41.556	0.498
523.999	316.894	80.006	20.009	100.251	19.807	42.213	0.484
524.499	317.171	80.005	20.009	100.260	19.804	42.665	0.550
524.999	317.397	80.006	20.008	100.265	19.797	43.655	0.552
525.499	317.622	80.004	20.009	100.266	19.795	44.014	0.477
525.999	317.819	80.005	20.009	100.264	19.791	44.614	0.437
526.499	318.062	80.005	20.009	100.261	19.788	45.097	0.431
527.000	318.327	80.005	20.009	100.252	19.785	45.552	0.474
527.500	318.666	80.005	20.009	100.242	19.782	45.981	0.556
527.999	318.920	80.005	20.009	100.236	19.778	46.597	0.598
528.499	319.152	80.007	20.009	100.230	19.772	47.639	0.540
528.999	319.395	80.006	20.009	100.232	19.767	48.426	0.480
529.500	319.676	80.004	20.009	100.240	19.766	48.499	0.499
530.000	319.921	80.006	20.009	100.249	19.758	49.740	0.525
530.499	320.162	80.005	20.009	100.256	19.757	49.962	0.506
530.999	320.372	80.006	20.009	100.259	19.753	50.482	0.469
531.500	320.617	80.005	20.009	100.252	19.749	51.168	0.453
532.000	320.898	80.006	20.010	100.245	19.744	51.963	0.490
532.499	321.143	80.005	20.009	100.236	19.738	52.869	0.526
533.000	321.374	80.005	20.009	100.228	19.735	53.349	0.501
533.500	321.627	80.005	20.009	100.229	19.731	53.959	0.480
534.000	321.842	80.006	20.009	100.237	19.725	54.917	0.477
534.499	322.154	80.004	20.009	100.245	19.723	55.245	0.497
534.999	322.380	80.004	20.008	100.253	19.719	55.811	0.532
535.499	322.669	80.006	20.010	100.256	19.714	56.556	0.526
535.999	322.910	80.005	20.009	100.252	19.709	57.426	0.522
536.499	323.147	80.006	20.009	100.243	19.704	58.107	0.504
536.999	323.366	80.005	20.009	100.229	19.698	59.047	0.467
537.499	323.622	80.006	20.009	100.214	19.693	59.825	0.466
537.999	323.898	80.004	20.009	100.202	19.691	60.163	0.504
538.500	324.129	80.006	20.009	100.195	19.683	61.483	0.520
539.000	324.398	80.004	20.009	100.187	19.680	61.913	0.504
539.499	324.669	80.005	20.009	100.192	19.675	62.632	0.520
539.999	324.924	80.005	20.009	100.200	19.670	63.389	0.533
540.499	325.146	80.004	20.009	100.209	19.666	64.111	0.501
540.999	325.400	80.006	20.009	100.215	19.658	65.221	0.476
541.499	325.657	80.006	20.009	100.222	19.653	66.018	0.493
541.999	325.901	80.005	20.009	100.215	19.650	66.472	0.506
542.499	326.194	80.006	20.009	100.208	19.648	66.922	0.519
543.000	326.420	80.005	20.009	100.200	19.642	67.858	0.528
543.500	326.689	80.006	20.009	100.195	19.637	68.630	0.507
544.000	326.951	80.006	20.009	100.195	19.631	69.502	0.513
544.500	327.145	80.005	20.009	100.203	19.626	70.207	0.494
544.999	327.349	80.004	20.009	100.209	19.622	70.891	0.427
545.499	327.563	80.006	20.009	100.216	19.614	72.127	0.408
545.999	327.871	80.004	20.009	100.220	19.608	73.107	0.470
546.499	328.116	80.006	20.009	100.220	19.604	73.684	0.537
547.000	328.332	80.005	20.009	100.211	19.598	74.571	0.507
547.500	328.626	80.005	20.009	100.204	19.594	75.217	0.486
547.999	328.817	80.005	20.009	100.196	19.589	76.103	0.497
548.499	329.076	80.006	20.009	100.191	19.582	77.079	0.467
548.999	329.291	80.006	20.009	100.192	19.577	77.882	0.462
549.499	329.535	80.005	20.009	100.200	19.569	79.126	0.466
549.999	329.807	80.004	20.009	100.202	19.563	80.110	0.488
550.499	330.057	80.006	20.009	100.203	19.560	80.469	0.519
550.999	330.328	80.006	20.009	100.201	19.553	81.604	0.521
551.500	330.542	80.004	20.009	100.193	19.547	82.493	0.503
552.000	330.772	80.006	20.009	100.184	19.542	83.319	0.465
552.499	330.999	80.005	20.009	100.181	19.535	84.424	0.450
552.999	331.335	80.005	20.009	100.180	19.532	84.963	0.510
553.499	331.584	80.006	20.009	100.181	19.527	85.652	0.574
553.999	331.815	80.006	20.009	100.186	19.521	86.628	0.532
554.499	332.104	80.005	20.009	100.194	19.513	87.848	0.499
554.999	332.263	80.005	20.009	100.203	19.508	88.538	0.484
555.499	332.535	80.006	20.009	100.206	19.502	89.557	0.440
555.999	332.750	80.006	20.008	100.206	19.501	89.762	0.459
556.499	333.038	80.005	20.009	100.198	19.494	90.820	0.495
556.999	333.332	80.005	20.010	100.183	19.483	92.468	0.543
557.499	333.499	80.005	20.009	100.167	19.481	92.819	0.521
557.999	333.791	80.005	20.009	100.157	19.476	93.529	0.460
558.499	334.063	80.005	20.009	100.153	19.482	92.709	0.512
558.999	334.328	80.005	20.009	100.157	19.473	93.986	0.550
559.499	334.551	80.005	20.008	100.170	19.467	95.001	0.512
559.999	334.778	80.006	20.009	100.185	19.458	96.404	0.469
560.500	335.009	80.006	20.009	100.198	19.458	96.322	0.454
561.000	335.287	80.005	20.009	100.202	19.449	97.829	0.483
561.500	335.560	80.004	20.009	100.202	19.436	99.740	0.530
562.000	335.721	80.005	20.009	100.197	19.431	100.589	0.493
562.499	335.973	80.005	20.009	100.191	19.423	101.846	0.424
562.999	336.220	80.006	20.009	100.185	19.419	102.493	0.456
563.500	336.493	80.005	20.009	100.189	19.412	103.550	0.509
564.000	336.765	80.005	20.009	100.196	19.405	104.555	0.532
564.499	337.018	80.005	20.008	100.203	19.403	104.870	0.535
564.999	337.262	80.005	20.009	100.206	19.396	105.985	0.511
565.499	337.472	80.006	20.009	100.206	19.389	107.052	0.476
565.999	337.741	80.005	20.009	100.198	19.385	107.684	0.467
566.499	338.022	80.004	20.009	100.182	19.392	106.677	0.515
566.999	338.254	80.004	20.009	100.168	19.382	108.203	0.531
567.500	338.446	80.006	20.009	100.158	19.368	110.411	0.468
568.000	338.691	80.005	20.009	100.156	19.363	111.240	0.431
568.500	338.992	80.005	20.009	100.164	19.356	112.198	0.491
569.000	339.202	80.005	20.009	100.180	19.353	112.662	0.528
569.500	339.422	80.005	20.009	100.195	19.348	113.463	0.471
569.999	339.728	80.005	20.009	100.207	19.342	114.478	0.479
570.499	339.990	80.005	20.008	100.208	19.336	115.334	0.548
570.999	340.244	80.005	20.009	100.196	19.332	116.086	0.542
571.499	340.560	80.005	20.009	100.179	19.326	116.989	0.543
572.000	340.746	80.006	20.008	100.163	19.319	117.950	0.536
572.500	340.924	80.006	20.009	100.150	19.315	118.660	0.433
572.999	341.236	80.005	20.009	100.146	19.310	119.445	0.428
573.499	341.483	80.005	20.009	100.154	19.304	120.407	0.525
573.999	341.701	80.006	20.009	100.169	19.299	121.176	0.512
574.499	341.928	80.005	20.009	100.180	19.295	121.817	0.455
574.999	342.202	80.004	20.009	100.188	19.290	122.582	0.473
575.499	342.450	80.006	20.009	100.193	19.285	123.317	0.511
575.999	342.711	80.003	20.009	100.191	19.281	124.049	0.515
576.499	342.981	80.006	20.009	100.181	19.277	124.662	0.520
576.999	343.172	80.005	20.009	100.171	19.271	125.503	0.497
577.500	343.380	80.005	20.009	100.164	19.269	125.847	0.430
578.000	343.682	80.005	20.008	100.163	19.265	126.418	0.454
578.500	343.897	80.005	20.009	100.169	19.261	127.107	0.513
579.000	344.200	80.006	20.009	100.180	19.255	127.934	0.517
579.499	344.458	80.006	20.009	100.193	19.249	128.928	0.539
579.999	344.703	80.004	20.009	100.200	19.244	129.711	0.533
580.499	344.978	80.006	20.009	100.200	19.239	130.443	0.512
580.999	345.212	80.004	20.009	100.196	19.234	131.206	0.514
581.499	345.517	80.005	20.009	100.190	19.232	131.573	0.524
581.999	345.730	80.006	20.009	100.183	19.226	132.450	0.528
582.499	345.946	80.005	20.010	100.183	19.224	132.764	0.474
582.999	346.204	80.005	20.009	100.190	19.220	133.492	0.452
583.499	346.566	80.005	20.009	100.198	19.216	134.047	0.547
583.999	346.774	80.004	20.009	100.204	19.213	134.466	0.595
584.499	346.986	80.004	20.010	100.204	19.210	135.077	0.495
584.999	347.247	80.005	20.009	100.200	19.206	135.619	0.446
585.499	347.492	80.006	20.009	100.193	19.203	136.077	0.490
585.999	347.795	80.006	20.009	100.185	19.201	136.497	0.527
586.499	348.051	80.005	20.009	100.186	19.197	137.094	0.553
586.999	348.187	80.005	20.009	100.195	19.197	137.029	0.476
587.499	348.453	80.006	20.010	100.205	19.193	137.665	0.397
587.999	348.731	80.004	20.009	100.221	19.187	138.706	0.473
588.499	348.981	80.005	20.008	100.245	19.183	139.270	0.536
588.999	349.246	80.006	20.010	100.253	19.178	140.124	0.522
589.499	349.496	80.006	20.009	100.248	19.176	140.439	0.515
589.999	349.692	80.004	20.010	100.240	19.167	141.757	0.481
590.499	349.967	80.004	20.010	100.222	19.165	142.108	0.458
590.999	350.228	80.005	20.009	100.208	19.159	143.098	0.503
591.499	350.503	80.005	20.008	100.208	19.158	143.256	0.536
591.999	350.777	80.005	20.009	100.213	19.151	144.344	0.543
592.499	351.062	80.005	20.009	100.217	19.144	145.425	0.554
593.000	351.279	80.004	20.009	100.218	19.141	145.825	0.531
593.500	351.511	80.006	20.009	100.209	19.136	146.567	0.476
593.999	351.803	80.005	20.009	100.195	19.135	146.749	0.486
594.500	351.996	80.005	20.009	100.196	19.130	147.505	0.505
595.000	352.254	80.005	20.009	100.196	19.125	148.221	0.468
595.499	352.501	80.006	20.009	100.197	19.121	148.880	0.478
595.999	352.717	80.006	20.009	100.202	19.115	149.937	0.484
596.499	353.001	80.005	20.009	100.210	19.113	150.187	0.481
596.999	353.203	80.005	20.009	100.218	19.105	151.461	0.493
597.500	353.497	80.006	20.009	100.231	19.101	152.057	0.491
598.000	353.739	80.006	20.009	100.246	19.097	152.670	0.516
598.500	354.038	80.004	20.009	100.258	19.090	153.748	0.539
598.999	354.228	80.006	20.009	100.267	19.082	154.880	0.515
599.499	354.508	80.005	20.010	100.267	19.074	156.151	0.479
599.999	354.753	80.005	20.010	100.266	19.068	157.075	0.498
600.499	354.988	80.005	20.009	100.265	19.064	157.746	0.503
600.999	355.277	80.005	20.009	100.264	19.058	158.627	0.501
601.499	355.498	80.005	20.009	100.269	19.052	159.589	0.517
601.999	355.780	80.005	20.009	100.276	19.046	160.457	0.507
602.499	355.984	80.005	20.009	100.285	19.036	162.086	0.494
602.999	356.239	80.006	20.010	100.298	19.030	162.953	0.472
603.499	356.517	80.005	20.009	100.311	19.023	164.082	0.496
603.999	356.748	80.004	20.008	100.318	19.019	164.780	0.521
604.499	356.977	80.006	20.009	100.313	19.011	166.009	0.485
605.000	357.244	80.005	20.009	100.299	19.005	166.945	0.478
605.500	357.501	80.004	20.009	100.277	18.999	167.962	0.509
606.000	357.693	80.006	20.009	100.257	18.994	168.645	0.486
606.499	357.941	80.005	20.009	100.240	18.987	169.707	0.445
606.999	358.214	80.005	20.009	100.238	18.985	170.077	0.481
607.499	358.428	80.004	20.009	100.246	18.981	170.633	0.504
607.999	358.662	80.004	20.009	100.262	18.977	171.179	0.467
608.499	358.926	80.005	20.009	100.277	18.978	171.122	0.473
608.999	359.190	80.004	20.009	100.282	18.970	172.334	0.513
609.499	359.415	80.005	20.009	100.278	18.968	172.659	0.509
609.999	359.697	80.005	20.010	100.267	18.964	173.234	0.498
610.500	359.952	80.005	20.009	100.251	18.962	173.567	0.522
611.000	360.192	80.006	20.009	100.236	18.961	173.613	0.516
611.499	360.441	80.006	20.009	100.228	18.956	174.471	0.492
611.999	360.661	80.006	20.009	100.231	18.955	174.586	0.479
612.500	360.875	80.004	20.009	100.238	18.948	175.531	0.451
613.000	361.200	80.005	20.009	100.245	18.939	176.933	0.486
613.499	361.445	80.006	20.009	100.245	18.933	177.802	0.554
613.999	361.654	80.005	20.008	100.241	18.926	178.934	0.512
614.499	361.957	80.005	20.010	100.226	18.911	181.288	0.483
614.999	362.176	80.005	20.009	100.210	18.903	182.714	0.517
615.499	362.400	80.005	20.009	100.202	18.895	183.960	0.483
615.999	362.675	80.005	20.009	100.203	18.887	185.195	0.471
616.499	362.883	80.004	20.008	100.206	18.884	185.732	0.491
616.999	363.114	80.005	20.009	100.220	18.881	186.219	0.461
617.499	363.415	80.004	20.011	100.244	18.882	186.126	0.485
617.999	363.612	80.005	20.009	100.271	18.882	186.086	0.515
618.499	363.818	80.006	20.008	100.286	18.883	186.011	0.451
619.000	364.047	80.006	20.010	100.278	18.891	184.868	0.419
619.500	364.304	80.006	20.009	100.257	18.893	184.598	0.460
620.000	364.553	80.003	20.010	100.235	18.897	183.976	0.496
620.500	364.847	80.005	20.009	100.212	18.901	183.422	0.525
620.999	365.009	80.004	20.009	100.197	18.909	182.169	0.500
621.499	365.250	80.006	20.009	100.205	18.914	181.372	0.430
621.999	365.570	80.006	20.008	100.218	18.922	180.176	0.482
622.499	365.795	80.003	20.008	100.215	18.930	178.875	0.553
622.999	366.029	80.004	20.009	100.201	18.939	177.487	0.502
623.499	366.290	80.005	20.009	100.188	18.944	176.816	0.477
623.999	366.554	80.005	20.009	100.171	18.951	175.707	0.510
624.500	366.795	80.006	20.009	100.151	18.955	175.103	0.516
625.000	366.981	80.006	20.009	100.130	18.964	173.821	0.466
625.500	367.277	80.005	20.009	100.109	18.969	173.042	0.454
626.000	367.531	80.006	20.009	100.094	18.977	171.740	0.515
626.500	367.759	80.005	20.009	100.090	18.980	171.238	0.516
626.999	368.042	80.006	20.009	100.103	18.988	170.104	0.497
627.499	368.296	80.005	20.009	100.125	18.991	169.605	0.524
627.999	368.607	80.004	20.009	100.152	18.998	168.425	0.551
628.499	368.772	80.005	20.009	100.179	19.002	167.904	0.521
628.999	369.041	80.005	20.009	100.200	19.007	167.087	0.455
629.499	369.325	80.004	20.009	100.217	19.012	166.359	0.493
630.000	369.614	80.005	20.009	100.232	19.015	165.829	0.563
630.500	369.782	80.005	20.009	100.255	19.022	164.699	0.515
630.999	369.986	80.005	20.010	100.278	19.023	164.603	0.415
631.499	370.301	80.005	20.009	100.308	19.023	164.616	0.445
631.999	370.562	80.004	20.009	100.340	19.029	163.595	0.547
632.499	370.867	80.004	20.008	100.372	19.031	163.230	0.571
632.999	371.097	80.005	20.009	100.397	19.036	162.566	0.550
633.499	371.392	80.006	20.009	100.413	19.039	162.059	0.530
633.999	371.571	80.004	20.009	100.422	19.041	161.703	0.500
634.499	371.811	80.006	20.009	100.423	19.042	161.558	0.446
634.999	372.020	80.005	20.009	100.422	19.047	160.781	0.433
635.499	372.362	80.004	20.009	100.428	19.049	160.418	0.500
635.999	372.577	80.006	20.008	100.444	19.054	159.590	0.554
636.499	372.825	80.004	20.010	100.459	19.056	159.371	0.510
637.000	373.053	80.005	20.009	100.481	19.059	158.893	0.470
637.500	373.366	80.005	20.009	100.505	19.060	158.801	0.508
637.999	373.592	80.005	20.009	100.523	19.065	157.940	0.540
638.500	373.825	80.006	20.009	100.530	19.070	157.237	0.499
639.000	374.067	80.005	20.008	100.530	19.075	156.425	0.467
639.499	374.318	80.005	20.010	100.524	19.075	156.418	0.485
639.999	374.627	80.005	20.009	100.514	19.081	155.403	0.527
640.499	374.814	80.004	20.009	100.509	19.080	155.534	0.528
640.999	375.041	80.005	20.009	100.511	19.084	154.940	0.455
641.499	375.332	80.005	20.009	100.521	19.085	154.799	0.466
641.999	375.576	80.005	20.009	100.535	19.093	153.600	0.526
642.499	375.810	80.005	20.009	100.542	19.096	153.139	0.506
642.999	376.060	80.005	20.009	100.544	19.096	153.076	0.481
643.499	376.330	80.006	20.009	100.534	19.102	152.270	0.502
643.999	376.533	80.006	20.009	100.522	19.102	152.238	0.497
644.499	376.829	80.005	20.009	100.508	19.107	151.334	0.486
644.999	377.011	80.005	20.009	100.500	19.109	151.060	0.489
645.499	377.289	80.005	20.009	100.495	19.112	150.573	0.469
646.000	377.553	80.003	20.009	100.497	19.116	149.900	0.501
646.500	377.783	80.005	20.009	100.499	19.120	149.277	0.518
647.000	377.978	80.005	20.009	100.493	19.122	149.112	0.459
647.500	378.273	80.006	20.009	100.487	19.126	148.481	0.457
647.999	378.522	80.004	20.009	100.478	19.130	147.845	0.517
648.499	378.767	80.006	20.009	100.470	19.135	147.018	0.519
648.999	378.988	80.006	20.010	100.463	19.140	146.301	0.480
649.499	379.276	80.005	20.009	100.462	19.141	146.010	0.487
650.000	379.479	80.004	20.009	100.467	19.146	145.326	0.500
650.500	379.748	80.005	20.009	100.476	19.152	144.335	0.481
651.000	380.012	80.005	20.008	100.483	19.153	144.167	0.502
651.499	380.242	80.005	20.009	100.492	19.158	143.417	0.513
651.999	380.484	80.005	20.009	100.495	19.160	143.238	0.483
652.499	380.786	80.006	20.009	100.488	19.167	142.073	0.508
652.999	380.971	80.006	20.009	100.473	19.172	141.410	0.516
653.499	381.289	80.004	20.009	100.457	19.176	140.691	0.495
653.999	381.547	80.005	20.009	100.443	19.181	139.762	0.540
654.500	381.765	80.005	20.009	100.439	19.186	138.969	0.526
655.000	382.005	80.005	20.009	100.439	19.191	138.172	0.467
655.499	382.242	80.006	20.009	100.448	19.196	137.426	0.467
655.999	382.529	80.004	20.008	100.464	19.201	136.722	0.501
656.499	382.747	80.006	20.009	100.477	19.207	135.760	0.514
656.999	383.046	80.004	20.009	100.478	19.214	134.735	0.511
657.499	383.266	80.005	20.010	100.472	19.221	133.626	0.518
657.999	383.519	80.006	20.010	100.461	19.227	132.780	0.496
658.500	383.795	80.005	20.009	100.453	19.231	132.219	0.501
659.000	384.035	80.005	20.009	100.447	19.237	131.268	0.522
659.500	384.267	80.005	20.009	100.453	19.241	130.692	0.494
660.000	384.514	80.004	20.009	100.466	19.249	129.447	0.476
660.500	384.766	80.004	20.009	100.482	19.256	128.263	0.489
660.999	385.047	80.005	20.008	100.487	19.262	127.387	0.516
661.499	385.290	80.005	20.009	100.485	19.267	126.564	0.528
662.000	385.531	80.005	20.009	100.471	19.273	125.535	0.504
662.500	385.796	80.005	20.010	100.458	19.279	124.577	0.495
662.999	385.996	80.005	20.009	100.453	19.288	123.227	0.486
663.499	386.285	80.006	20.009	100.457	19.294	122.361	0.477
663.999	386.519	80.004	20.009	100.474	19.297	121.868	0.506
664.499	386.856	80.005	20.008	100.497	19.304	120.751	0.546
665.000	387.062	80.006	20.010	100.515	19.309	119.900	0.557
665.500	387.282	80.002	20.007	100.526	19.317	118.671	0.485
665.999	387.605	80.006	20.011	100.541	19.324	117.618	0.485
666.499	387.792	80.006	20.012	100.488	19.331	116.469	0.526
666.999	388.060	80.006	20.009	100.445	19.340	115.052	0.483
667.499	388.325	80.005	20.009	100.421	19.345	114.307	0.494
667.999	388.579	80.005	20.008	100.409	19.351	113.356	0.526
668.499	388.779	80.006	20.008	100.392	19.360	112.063	0.486
668.999	389.041	80.005	20.007	100.437	19.367	110.900	0.458
669.499	389.293	80.006	20.013	100.444	19.373	109.957	0.489
669.999	389.530	80.005	20.009	100.453	19.382	108.656	0.502
670.499	389.803	80.005	20.007	100.496	19.390	107.327	0.499
670.999	390.051	80.005	20.008	100.534	19.399	105.928	0.515
671.499	390.339	80.006	20.008	100.554	19.406	104.861	0.528
671.999	390.568	80.003	20.009	100.596	19.412	103.958	0.526
672.499	390.845	80.006	20.009	100.614	19.420	102.731	0.512
672.999	391.162	80.005	20.009	100.584	19.428	101.466	0.550
673.499	391.395	80.005	20.009	100.556	19.432	100.744	0.572
674.000	391.663	80.004	20.009	100.543	19.438	99.836	0.525
674.500	391.914	80.006	20.009	100.536	19.446	98.698	0.510
674.999	392.115	80.004	20.009	100.527	19.453	97.498	0.486
675.499	392.399	80.006	20.009	100.520	19.462	96.151	0.469
675.999	392.635	80.005	20.009	100.511	19.468	95.239	0.503
676.499	392.903	80.005	20.009	100.505	19.475	94.148	0.512
677.000	393.124	80.005	20.009	100.507	19.481	93.136	0.496
677.500	393.392	80.006	20.009	100.516	19.486	92.412	0.489
677.999	393.634	80.005	20.009	100.522	19.494	91.120	0.500
678.499	393.932	80.004	20.009	100.529	19.502	89.830	0.525
678.999	394.189	80.006	20.008	100.531	19.510	88.667	0.547
679.499	394.393	80.005	20.009	100.523	19.515	87.893	0.507
679.999	394.668	80.005	20.009	100.515	19.522	86.707	0.470
680.499	394.922	80.005	20.009	100.514	19.530	85.442	0.504
680.999	395.187	80.006	20.009	100.518	19.536	84.532	0.524
681.500	395.456	80.004	20.009	100.529	19.544	83.350	0.527
682.000	395.737	80.005	20.009	100.545	19.553	81.977	0.542
682.500	395.977	80.006	20.009	100.557	19.559	80.995	0.535
683.000	396.211	80.005	20.009	100.559	19.566	79.925	0.497
683.500	396.484	80.006	20.009	100.550	19.573	78.884	0.491
683.999	396.743	80.005	20.009	100.537	19.580	77.758	0.520
684.499	396.985	80.006	20.009	100.528	19.585	76.915	0.516
685.000	397.209	80.008	20.010	100.524	19.594	75.591	0.483
685.500	397.465	80.003	20.008	100.530	19.604	73.997	0.473
685.999	397.701	80.004	20.010	100.558	19.609	73.129	0.486
686.500	398.009	80.006	20.010	100.557	19.614	72.332	0.518
687.000	398.279	80.006	20.009	100.555	19.621	71.318	0.561
687.499	398.458	80.005	20.009	100.555	19.626	70.466	0.513
687.999	398.768	80.005	20.009	100.548	19.637	68.866	0.469
688.499	399.016	80.006	20.009	100.526	19.641	68.196	0.524
688.999	399.309	80.005	20.009	100.533	19.647	67.274	0.550
689.499	399.521	80.005	20.009	100.536	19.653	66.290	0.522
689.999	399.791	80.005	20.008	100.544	19.663	64.785	0.494
690.499	399.984	80.006	20.009	100.551	19.669	63.786	0.473
690.999	400.276	80.007	20.009	100.559	19.674	63.020	0.474
691.499	400.559	80.004	20.009	100.566	19.683	61.581	0.530
691.999	400.787	80.006	20.009	100.567	19.688	60.833	0.543
692.499	401.064	80.006	20.009	100.560	19.696	59.659	0.509
693.000	401.312	80.005	20.008	100.553	19.702	58.681	0.515
693.500	401.553	80.006	20.009	100.547	19.709	57.572	0.506
694.000	401.798	80.005	20.009	100.547	19.714	56.820	0.487
694.499	402.039	80.007	20.009	100.556	19.721	55.737	0.486
694.999	402.285	80.005	20.009	100.564	19.726	54.915	0.486
695.499	402.568	80.006	20.009	100.572	19.734	53.636	0.508
695.999	402.766	80.006	20.008	100.578	19.740	52.783	0.506
696.499	403.058	80.005	20.009	100.572	19.746	51.877	0.485
696.999	403.279	80.006	20.009	100.561	19.752	50.858	0.501
697.499	403.527	80.005	20.009	100.553	19.757	50.094	0.491
697.999	403.765	80.006	20.009	100.547	19.763	49.132	0.478
698.500	403.976	80.006	20.009	100.546	19.770	48.069	0.467
699.000	404.233	80.004	20.009	100.553	19.774	47.402	0.458
699.499	404.466	80.004	20.009	100.562	19.780	46.549	0.479
699.999	404.671	80.006	20.008	100.569	19.787	45.351	0.464
700.499	404.900	80.005	20.009	100.575	19.791	44.702	0.436
701.000	405.202	80.005	20.009	100.571	19.794	44.297	0.483
701.500	405.376	80.007	20.009	100.564	19.800	43.401	0.504
702.000	405.683	80.005	20.009	100.555	19.803	42.857	0.479
702.499	405.890	80.006	20.009	100.547	19.809	41.920	0.497
702.999	406.158	80.004	20.008	100.546	19.812	41.514	0.494
703.499	406.399	80.006	20.009	100.551	19.820	40.259	0.492
703.999	406.658	80.005	20.009	100.559	19.827	39.092	0.505
704.500	406.872	80.006	20.009	100.568	19.834	38.130	0.487
705.000	407.175	80.006	20.009	100.572	19.836	37.668	0.495
705.500	407.372	80.004	20.009	100.566	19.841	36.960	0.509
705.999	407.633	80.006	20.009	100.558	19.845	36.300	0.479
706.499	407.929	80.006	20.009	100.550	19.850	35.527	0.507
706.999	408.165	80.005	20.008	100.542	19.854	34.860	0.544
707.499	408.381	80.006	20.009	100.545	19.860	33.951	0.493
707.999	408.609	80.006	20.008	100.552	19.860	33.912	0.448
708.499	408.909	80.005	20.009	100.560	19.868	32.702	0.486
708.999	409.146	80.006	20.008	100.567	19.874	31.800	0.532
709.500	409.377	80.005	20.009	100.573	19.877	31.267	0.503
710.000	409.619	80.005	20.009	100.566	19.880	30.871	0.471
710.499	409.861	80.007	20.009	100.559	19.887	29.701	0.478
711.000	410.082	80.008	20.009	100.552	19.889	29.530	0.474
711.500	410.321	80.004	20.009	100.551	19.891	29.140	0.462
711.999	410.614	80.006	20.008	100.553	19.895	28.462	0.496
712.499	410.867	80.006	20.009	100.561	19.898	28.121	0.539
712.999	411.106	80.005	20.009	100.564	19.904	27.142	0.519
713.499	411.314	80.004	20.008	100.563	19.906	26.801	0.470
713.999	411.588	80.006	20.009	100.553	19.910	26.116	0.464
714.499	411.826	80.004	20.009	100.537	19.914	25.524	0.497
715.000	412.105	80.006	20.009	100.525	19.917	25.145	0.515
715.500	412.366	80.005	20.009	100.522	19.919	24.730	0.529
715.999	412.593	80.006	20.009	100.522	19.922	24.265	0.514
716.499	412.876	80.005	20.009	100.527	19.925	23.798	0.499
717.000	413.066	80.004	20.008	100.535	19.926	23.654	0.492
717.500	413.327	80.005	20.009	100.536	19.930	23.043	0.462
717.999	413.546	80.005	20.009	100.528	19.931	22.919	0.466
718.499	413.761	80.005	20.009	100.519	19.937	21.906	0.457
718.999	414.023	80.006	20.009	100.511	19.938	21.811	0.455
719.499	414.279	80.005	20.009	100.504	19.941	21.310	0.498
719.999	414.516	80.006	20.008	100.505	19.945	20.766	0.506
720.499	414.756	80.005	20.009	100.507	19.946	20.570	0.485
720.999	415.048	80.004	20.009	100.508	19.950	19.989	0.505
721.500	415.251	80.006	20.009	100.506	19.952	19.619	0.513
722.000	415.515	80.005	20.009	100.499	19.956	18.919	0.481
722.500	415.781	80.004	20.009	100.485	19.957	18.779	0.499
723.000	416.074	80.006	20.009	100.475	19.960	18.320	0.545
723.500	416.268	80.006	20.009	100.474	19.962	18.051	0.523
723.999	416.552	80.006	20.009	100.477	19.965	17.573	0.482
724.500	416.811	80.005	20.009	100.489	19.966	17.500	0.511
725.000	417.063	80.005	20.009	100.498	19.971	16.667	0.527
725.499	417.337	80.005	20.009	100.507	19.973	16.367	0.519
725.999	417.577	80.005	20.009	100.504	19.974	16.227	0.520
726.499	417.805	80.006	20.009	100.503	19.977	15.648	0.491
726.999	418.046	80.004	20.009	100.498	19.981	15.119	0.468
727.499	418.282	80.005	20.009	100.496	19.979	15.358	0.473
727.999	418.492	80.006	20.009	100.500	19.986	14.325	0.462
728.499	418.791	80.005	20.008	100.508	19.986	14.316	0.478
728.999	419.048	80.006	20.008	100.512	19.987	14.190	0.532
729.499	419.307	80.005	20.010	100.509	19.989	13.876	0.535
730.000	419.529	80.007	20.009	100.502	19.988	14.076	0.499
730.500	419.803	80.006	20.009	100.489	19.988	13.962	0.489
731.000	420.053	80.005	20.009	100.478	19.993	13.229	0.510
731.500	420.278	80.006	20.010	100.473	19.994	13.070	0.499
732.000	420.569	80.006	20.009	100.475	19.995	12.857	0.495
732.500	420.736	80.007	20.009	100.482	19.997	12.623	0.487
733.000	421.009	80.005	20.009	100.484	19.999	12.303	0.449
733.500	421.266	80.005	20.009	100.480	20.000	12.147	0.485
733.999	421.499	80.006	20.009	100.467	20.001	11.915	0.510
734.499	421.746	80.005	20.009	100.451	20.003	11.713	0.485
734.999	421.942	80.004	20.009	100.435	20.002	11.831	0.462
735.499	422.233	80.006	20.009	100.428	20.002	11.867	0.465
735.999	422.477	80.006	20.009	100.430	20.000	12.155	0.511
736.499	422.776	80.004	20.009	100.437	20.004	11.582	0.539
736.999	423.017	80.005	20.008	100.444	20.005	11.410	0.541
737.499	423.264	80.005	20.009	100.445	20.004	11.453	0.514
737.999	423.499	80.006	20.009	100.438	20.006	11.229	0.485
738.499	423.735	80.006	20.009	100.424	20.009	10.729	0.477
738.999	423.928	80.006	20.009	100.412	20.010	10.570	0.450
739.499	424.174	80.005	20.009	100.404	20.013	10.114	0.434
740.000	424.467	80.006	20.009	100.403	20.014	9.999	0.490
740.500	424.642	80.007	20.009	100.408	20.014	9.983	0.504
740.999	424.884	80.006	20.009	100.415	20.015	9.771	0.442
741.500	425.131	80.005	20.009	100.419	20.017	9.510	0.453
742.000	425.422	80.005	20.009	100.420	20.017	9.480	0.513
742.500	425.629	80.006	20.009	100.412	20.019	9.159	0.518
743.000	425.898	80.006	20.009	100.402	20.022	8.745	0.487
743.499	426.074	80.005	20.009	100.394	20.021	8.884	0.460
743.999	426.377	80.005	20.009	100.389	20.021	8.887	0.462
744.499	426.605	80.006	20.009	100.390	20.021	8.779	0.505
744.999	426.818	80.006	20.008	100.397	20.021	8.928	0.486
745.500	427.106	80.005	20.009	100.404	20.020	9.000	0.471
746.000	427.350	80.005	20.009	100.404	20.023	8.512	0.517
746.500	427.579	80.006	20.009	100.402	20.024	8.422	0.502
747.000	427.841	80.005	20.009	100.393	20.024	8.365	0.482
747.500	428.033	80.006	20.009	100.385	20.021	8.853	0.473
747.999	428.302	80.005	20.009	100.379	20.024	8.375	0.458
748.499	428.580	80.005	20.009	100.380	20.021	8.916	0.504
748.999	428.853	80.005	20.009	100.386	20.022	8.774	0.549
749.499	429.082	80.007	20.009	100.392	20.022	8.757	0.526
749.999	429.291	80.006	20.008	100.397	20.022	8.664	0.470
750.499	429.548	80.006	20.009	100.397	20.023	8.597	0.452
750.999	429.802	80.005	20.009	100.395	20.023	8.554	0.489
751.500	430.014	80.007	20.009	100.389	20.023	8.510	0.488
752.000	430.247	80.006	20.009	100.382	20.025	8.293	0.455
752.499	430.449	80.006	20.008	100.379	20.027	7.951	0.439
752.999	430.728	80.005	20.009	100.381	20.029	7.602	0.458
753.499	431.025	80.006	20.009	100.382	20.027	7.902	0.529
753.999	431.243	80.006	20.009	100.382	20.027	7.885	0.546
754.499	431.483	80.006	20.009	100.379	20.030	7.377	0.486
754.999	431.744	80.005	20.009	100.370	20.032	7.143	0.479
755.500	431.988	80.007	20.009	100.360	20.032	7.097	0.503
756.000	432.254	80.007	20.009	100.352	20.031	7.220	0.508
756.500	432.491	80.007	20.009	100.348	20.033	6.920	0.507
757.000	432.768	80.006	20.009	100.352	20.035	6.614	0.509
757.499	433.025	80.006	20.009	100.360	20.036	6.485	0.524
757.999	433.238	80.006	20.009	100.363	20.035	6.695	0.502
758.499	433.500	80.006	20.009	100.363	20.035	6.652	0.473
758.999	433.753	80.005	20.009	100.358	20.034	6.853	0.495
759.500	433.994	80.005	20.009	100.350	20.034	6.757	0.504
760.000	434.197	80.007	20.009	100.343	20.036	6.464	0.469
760.499	434.453	80.005	20.009	100.340	20.035	6.656	0.452
760.999	434.725	80.005	20.009	100.342	20.034	6.880	0.493
761.499	434.902	80.007	20.008	100.342	20.036	6.444	0.488
761.999	435.217	80.005	20.009	100.343	20.036	6.562	0.471
762.499	435.449	80.006	20.009	100.336	20.037	6.397	0.520
762.999	435.693	80.006	20.009	100.327	20.038	6.206	0.511
763.499	435.888	80.005	20.009	100.318	20.041	5.711	0.457
763.999	436.153	80.006	20.009	100.310	20.037	6.391	0.450
764.499	436.351	80.005	20.009	100.304	20.040	5.963	0.462
764.999	436.600	80.005	20.009	100.311	20.038	6.223	0.455
765.500	436.763	80.005	20.008	100.319	20.040	5.956	0.429
766.000	437.063	80.007	20.008	100.327	20.040	5.873	0.437
766.499	437.390	80.005	20.010	100.328	20.039	6.027	0.545
766.999	437.481	80.007	20.008	100.327	20.041	5.743	0.523
767.500	437.917	80.004	20.010	100.322	20.039	6.066	0.472
768.000	438.105	80.006	20.009	100.323	20.040	5.938	0.575
768.499	438.281	80.005	20.009	100.327	20.042	5.569	0.494
768.999	438.585	80.005	20.009	100.340	20.039	5.975	0.422
769.500	438.832	80.005	20.009	100.348	20.040	5.952	0.516
770.000	439.121	80.005	20.009	100.353	20.041	5.734	0.544
770.500	439.403	80.005	20.009	100.350	20.043	5.410	0.553
770.999	439.606	80.006	20.009	100.340	20.041	5.667	0.528
771.499	439.843	80.005	20.009	100.333	20.042	5.597	0.463
771.999	440.105	80.006	20.009	100.330	20.043	5.469	0.470
772.499	440.332	80.005	20.009	100.331	20.043	5.433	0.494
772.999	440.578	80.004	20.009	100.333	20.043	5.391	0.481
773.499	440.866	80.006	20.009	100.340	20.042	5.510	0.503
773.999	441.087	80.007	20.009	100.341	20.043	5.448	0.521
774.499	441.332	80.005	20.009	100.336	20.044	5.299	0.488
774.999	441.555	80.006	20.010	100.328	20.041	5.781	0.467
775.499	441.812	80.005	20.009	100.324	20.043	5.375	0.474
775.999	442.087	80.004	20.009	100.323	20.044	5.296	0.506
776.499	442.335	80.004	20.009	100.325	20.042	5.517	0.528
776.999	442.558	80.007	20.009	100.331	20.044	5.327	0.497
777.500	442.792	80.004	20.009	100.339	20.043	5.479	0.464
778.000	443.062	80.006	20.009	100.342	20.042	5.538	0.480
778.499	443.325	80.004	20.009	100.335	20.042	5.604	0.518
779.000	443.582	80.005	20.009	100.326	20.043	5.385	0.526
779.500	443.823	80.006	20.009	100.317	20.044	5.328	0.509
779.999	444.125	80.005	20.009	100.308	20.044	5.314	0.521
780.499	444.338	80.005	20.009	100.304	20.046	4.957	0.529
780.999	444.594	80.005	20.009	100.311	20.044	5.195	0.492
781.499	444.836	80.007	20.009	100.320	20.046	4.938	0.484
781.999	445.078	80.005	20.009	100.328	20.048	4.579	0.491
782.499	445.334	80.007	20.009	100.329	20.048	4.688	0.491
782.999	445.591	80.006	20.010	100.327	20.049	4.486	0.505
783.499	445.847	80.004	20.008	100.315	20.047	4.878	0.513
783.999	446.071	80.006	20.009	100.306	20.045	5.131	0.496
784.499	446.361	80.006	20.009	100.300	20.048	4.643	0.497
784.999	446.571	80.005	20.009	100.306	20.048	4.587	0.507
785.500	446.858	80.005	20.008	100.315	20.046	4.918	0.498
786.000	447.095	80.006	20.009	100.329	20.050	4.397	0.511
786.499	447.338	80.005	20.008	100.337	20.049	4.542	0.502
787.000	447.646	80.006	20.008	100.345	20.050	4.281	0.515
787.500	447.899	80.006	20.010	100.341	20.048	4.637	0.556
787.999	448.169	80.006	20.009	100.337	20.051	4.205	0.542
788.499	448.391	80.005	20.009	100.334	20.050	4.294	0.507
788.999	448.654	80.007	20.009	100.338	20.050	4.334	0.488
789.499	448.919	80.005	20.008	100.345	20.046	4.915	0.506
789.999	449.175	80.005	20.008	100.356	20.047	4.737	0.524
790.500	449.395	80.005	20.008	100.366	20.046	4.926	0.499
791.000	449.623	80.006	20.009	100.365	20.048	4.649	0.462
791.499	449.879	80.005	20.009	100.352	20.048	4.603	0.466
791.999	450.082	80.005	20.009	100.331	20.044	5.252	0.472
792.499	450.377	80.005	20.009	100.312	20.047	4.876	0.478
792.999	450.662	80.006	20.009	100.297	20.047	4.771	0.539
793.499	450.854	80.006	20.009	100.293	20.045	5.042	0.528
793.999	451.106	80.006	20.009	100.301	20.045	5.062	0.461
794.500	451.365	80.005	20.009	100.315	20.045	5.184	0.478
795.000	451.632	80.006	20.009	100.319	20.044	5.250	0.518
795.499	451.862	80.007	20.009	100.314	20.045	5.161	0.511
796.000	452.143	80.005	20.009	100.303	20.045	5.130	0.504
796.500	452.364	80.005	20.009	100.289	20.044	5.262	0.507
796.999	452.661	80.006	20.009	100.276	20.047	4.837	0.510
797.499	452.874	80.007	20.009	100.274	20.045	5.038	0.514
797.999	453.134	80.005	20.009	100.282	20.044	5.272	0.491
798.499	453.416	80.005	20.009	100.293	20.046	4.910	0.508
798.999	453.648	80.006	20.008	100.299	20.046	4.976	0.528
799.499	453.862	80.005	20.009	100.304	20.043	5.494	0.480
799.999	454.131	80.006	20.009	100.300	20.043	5.351	0.465
800.499	454.334	80.006	20.009	100.295	20.046	5.034	0.477
800.999	454.614	80.006	20.009	100.291	20.043	5.393	0.478
801.500	454.820	80.005	20.009	100.290	20.045	5.064	0.484
802.000	455.139	80.005	20.009	100.295	20.044	5.302	0.505
802.500	455.356	80.005	20.009	100.307	20.046	5.008	0.530
803.000	455.621	80.007	20.008	100.318	20.046	5.035	0.509
803.499	455.835	80.004	20.011	100.320	20.046	5.002	0.480
803.999	456.090	80.006	20.008	100.328	20.047	4.738	0.474
804.499	456.318	80.005	20.009	100.326	20.047	4.833	0.476
804.999	456.611	80.006	20.009	100.322	20.043	5.367	0.502
805.499	456.830	80.006	20.009	100.322	20.045	5.110	0.517
805.999	457.084	80.005	20.009	100.332	20.048	4.708	0.492
806.500	457.344	80.007	20.009	100.339	20.045	5.045	0.493
807.000	457.579	80.006	20.009	100.346	20.045	5.115	0.504
807.499	457.814	80.005	20.009	100.350	20.046	4.963	0.483
808.000	458.070	80.006	20.009	100.350	20.048	4.610	0.481
808.500	458.341	80.005	20.009	100.340	20.047	4.736	0.509
809.000	458.554	80.006	20.009	100.327	20.048	4.659	0.505
809.500	458.786	80.006	20.009	100.321	20.049	4.504	0.464
809.999	459.031	80.006	20.009	100.321	20.049	4.550	0.461
810.499	459.300	80.005	20.009	100.321	20.047	4.787	0.496
810.999	459.509	80.006	20.009	100.328	20.047	4.755	0.496
811.499	459.759	80.006	20.009	100.336	20.047	4.785	0.468
811.999	460.037	80.006	20.009	100.338	20.048	4.591	0.493
812.499	460.304	80.006	20.009	100.331	20.047	4.833	0.537
812.999	460.514	80.006	20.009	100.324	20.050	4.331	0.511
813.499	460.772	80.006	20.010	100.316	20.049	4.492	0.472
813.999	461.048	80.005	20.008	100.310	20.048	4.578	0.501
814.500	461.269	80.006	20.009	100.313	20.047	4.772	0.515
815.000	461.530	80.005	20.008	100.319	20.047	4.821	0.489
815.500	461.803	80.006	20.009	100.326	20.049	4.554	0.508
815.999	462.035	80.004	20.009	100.333	20.048	4.703	0.520
816.499	462.288	80.005	20.009	100.334	20.045	5.040	0.495
816.999	462.511	80.006	20.009	100.328	20.047	4.789	0.480
817.500	462.840	80.006	20.009	100.321	20.044	5.278	0.514
818.000	463.073	80.007	20.009	100.312	20.045	5.073	0.557
818.499	463.275	80.006	20.009	100.312	20.043	5.403	0.499
818.999	463.550	80.005	20.009	100.316	20.047	4.835	0.456
819.499	463.807	80.005	20.009	100.327	20.046	4.983	0.504
819.999	464.085	80.005	20.009	100.341	20.045	5.154	0.533
820.499	464.333	80.007	20.009	100.350	20.049	4.518	0.530
820.999	464.553	80.005	20.009	100.352	20.050	4.359	0.498
821.499	464.775	80.006	20.009	100.351	20.050	4.393	0.455
821.999	465.083	80.007	20.009	100.341	20.052	4.083	0.485
822.499	465.311	80.006	20.009	100.328	20.050	4.301	0.533
822.999	465.563	80.006	20.009	100.326	20.049	4.545	0.508
823.499	465.826	80.006	20.009	100.328	20.049	4.505	0.497
823.999	466.054	80.005	20.009	100.337	20.049	4.534	0.503
824.500	466.281	80.007	20.009	100.351	20.053	3.861	0.473
825.000	466.555	80.005	20.008	100.367	20.054	3.657	0.479
825.500	466.794	80.005	20.009	100.375	20.054	3.759	0.507
826.000	467.122	80.006	20.008	100.375	20.054	3.740	0.540
826.499	467.315	80.006	20.009	100.367	20.053	3.903	0.544
827.000	467.556	80.007	20.009	100.358	20.053	3.895	0.478
827.500	467.761	80.006	20.009	100.349	20.052	4.051	0.440
828.000	468.066	80.006	20.009	100.342	20.056	3.443	0.478
828.499	468.304	80.005	20.008	100.344	20.055	3.558	0.526
829.000	468.582	80.007	20.009	100.350	20.054	3.648	0.529
829.500	468.827	80.005	20.009	100.359	20.056	3.422	0.520
829.999	469.082	80.005	20.008	100.368	20.054	3.664	0.512
830.499	469.334	80.007	20.009	100.376	20.054	3.714	0.503
830.999	469.554	80.007	20.008	100.373	20.055	3.530	0.490
831.499	469.775	80.005	20.009	100.367	20.053	3.887	0.457
832.000	470.065	80.005	20.009	100.360	20.055	3.630	0.476
832.500	470.304	80.006	20.009	100.351	20.051	4.132	0.520
833.000	470.537	80.006	20.009	100.344	20.053	3.864	0.500
833.500	470.750	80.007	20.009	100.344	20.052	4.078	0.459
833.999	471.006	80.007	20.009	100.350	20.054	3.754	0.458
834.499	471.231	80.005	20.008	100.358	20.054	3.682	0.475
834.999	471.528	80.005	20.009	100.366	20.053	3.890	0.501
835.499	471.758	80.007	20.009	100.369	20.056	3.442	0.524
835.999	471.977	80.006	20.009	100.368	20.054	3.785	0.489
836.499	472.301	80.006	20.009	100.361	20.055	3.492	0.496
836.999	472.520	80.005	20.009	100.353	20.055	3.604	0.542
837.500	472.790	80.006	20.008	100.348	20.053	3.913	0.516
838.000	473.006	80.006	20.008	100.354	20.051	4.177	0.488
838.499	473.235	80.007	20.010	100.364	20.051	4.249	0.466
838.999	473.496	80.004	20.008	100.377	20.051	4.163	0.468
839.499	473.743	80.006	20.011	100.407	20.050	4.302	0.499
839.999	473.983	80.007	20.012	100.364	20.047	4.797	0.497
840.500	474.209	80.005	20.010	100.319	20.047	4.794	0.476
841.000	474.517	80.005	20.009	100.287	20.050	4.306	0.500
841.499	474.705	80.004	20.010	100.258	20.047	4.732	0.515
842.000	474.967	80.006	20.009	100.221	20.048	4.633	0.473
842.500	475.147	80.005	20.010	100.253	20.048	4.635	0.446
843.000	475.365	80.004	20.010	100.272	20.048	4.592	0.420
843.500	475.701	80.005	20.009	100.304	20.048	4.708	0.476
843.999	475.939	80.006	20.010	100.332	20.048	4.602	0.564
844.499	476.203	80.006	20.010	100.347	20.051	4.206	0.538
844.999	476.437	80.005	20.010	100.355	20.048	4.658	0.500
845.499	476.716	80.006	20.009	100.365	20.049	4.431	0.505
846.000	476.946	80.005	20.010	100.347	20.047	4.863	0.511
846.500	477.207	80.005	20.010	100.326	20.048	4.632	0.500
847.000	477.409	80.005	20.010	100.315	20.047	4.790	0.477
847.500	477.670	80.005	20.010	100.315	20.048	4.661	0.463
848.000	477.963	80.005	20.009	100.326	20.048	4.714	0.509
848.499	478.226	80.006	20.010	100.342	20.051	4.173	0.555
848.999	478.441	80.005	20.009	100.353	20.047	4.846	0.517
849.499	478.712	80.007	20.009	100.357	20.049	4.464	0.482
849.999	478.933	80.005	20.009	100.352	20.048	4.616	0.489
850.500	479.190	80.005	20.010	100.340	20.046	4.936	0.485
851.000	479.451	80.006	20.009	100.324	20.046	4.966	0.498
851.499	479.692	80.006	20.009	100.313	20.048	4.576	0.510
852.000	479.991	80.006	20.009	100.306	20.049	4.546	0.521
852.500	480.245	80.006	20.009	100.310	20.048	4.579	0.547
853.000	480.492	80.003	20.009	100.317	20.048	4.710	0.527
853.500	480.719	80.006	20.009	100.324	20.047	4.763	0.488
853.999	480.938	80.005	20.008	100.329	20.048	4.667	0.460
854.500	481.218	80.005	20.008	100.337	20.047	4.859	0.473
855.000	481.417	80.005	20.009	100.333	20.046	4.892	0.488
855.499	481.752	80.005	20.009	100.326	20.047	4.804	0.506
855.999	481.885	80.005	20.009	100.319	20.044	5.203	0.501
856.499	482.153	80.004	20.009	100.314	20.043	5.368	0.434
857.000	482.477	80.005	20.009	100.305	20.046	4.912	0.496
857.500	482.729	80.006	20.009	100.307	20.044	5.331	0.584
858.000	482.961	80.006	20.008	100.317	20.046	4.938	0.531
858.499	483.212	80.005	20.009	100.324	20.045	5.050	0.483
858.999	483.481	80.006	20.009	100.324	20.049	4.559	0.501
859.499	483.757	80.004	20.009	100.325	20.047	4.803	0.533
859.999	484.007	80.006	20.009	100.324	20.048	4.639	0.536
860.499	484.284	80.006	20.009	100.315	20.045	5.048	0.526
860.999	484.522	80.005	20.009	100.309	20.046	5.028	0.521
861.499	484.752	80.006	20.009	100.310	20.045	5.047	0.492
861.999	484.972	80.006	20.009	100.316	20.044	5.294	0.459
862.499	485.228	80.005	20.008	100.321	20.043	5.468	0.463
863.000	485.435	80.005	20.008	100.328	20.043	5.468	0.469
863.500	485.726	80.007	20.009	100.334	20.045	5.185	0.480
863.999	485.967	80.005	20.009	100.339	20.045	5.179	0.515
864.499	486.285	80.006	20.009	100.333	20.041	5.770	0.546
864.999	486.516	80.005	20.009	100.324	20.044	5.252	0.554
865.499	486.769	80.006	20.009	100.314	20.043	5.500	0.517
865.999	486.965	80.006	20.009	100.301	20.045	5.167	0.466
866.499	487.267	80.007	20.009	100.295	20.043	5.477	0.473
866.999	487.500	80.005	20.009	100.293	20.044	5.249	0.517
867.499	487.779	80.006	20.009	100.301	20.044	5.212	0.524
868.000	487.962	80.006	20.009	100.311	20.046	4.954	0.487
868.500	488.284	80.006	20.009	100.324	20.048	4.641	0.483
868.999	488.515	80.005	20.008	100.330	20.046	4.915	0.529
869.500	488.756	80.006	20.010	100.329	20.046	4.998	0.512
870.000	488.999	80.006	20.009	100.320	20.048	4.705	0.478
870.499	489.252	80.006	20.010	100.312	20.048	4.636	0.490
870.999	489.508	80.003	20.009	100.305	20.049	4.466	0.502
871.499	489.745	80.006	20.009	100.300	20.046	5.022	0.501
872.000	490.001	80.005	20.009	100.305	20.045	5.156	0.493
872.500	490.262	80.005	20.008	100.314	20.045	5.070	0.505
873.000	490.542	80.006	20.008	100.322	20.044	5.227	0.529
873.499	490.752	80.005	20.009	100.322	20.043	5.373	0.516
873.999	491.037	80.005	20.009	100.320	20.044	5.191	0.493
874.499	491.264	80.006	20.009	100.311	20.044	5.339	0.503
874.999	491.575	80.004	20.010	100.298	20.046	5.009	0.525
875.499	491.775	80.006	20.010	100.285	20.046	4.939	0.525
875.999	492.069	80.005	20.010	100.285	20.044	5.271	0.503
876.499	492.259	80.005	20.010	100.289	20.042	5.583	0.489
876.999	492.503	80.005	20.009	100.301	20.041	5.809	0.459
877.499	492.748	80.006	20.009	100.314	20.040	5.931	0.461
877.999	493.025	80.005	20.009	100.326	20.042	5.507	0.506
878.499	493.295	80.007	20.009	100.334	20.040	5.836	0.534
878.999	493.480	80.005	20.009	100.331	20.041	5.740	0.501
879.499	493.745	80.005	20.010	100.324	20.041	5.780	0.452
879.999	494.013	80.005	20.010	100.316	20.044	5.315	0.492
880.499	494.296	80.005	20.009	100.308	20.045	5.154	0.542
881.000	494.481	80.007	20.010	100.300	20.042	5.573	0.510
881.500	494.745	80.007	20.010	100.301	20.042	5.569	0.459
881.999	495.006	80.005	20.009	100.308	20.043	5.440	0.487
882.499	495.221	80.004	20.009	100.316	20.041	5.707	0.500
882.999	495.531	80.007	20.010	100.323	20.044	5.314	0.500
883.499	495.778	80.003	20.008	100.330	20.041	5.730	0.541
883.999	496.048	80.007	20.009	100.362	20.044	5.305	0.537
884.499	496.308	80.005	20.010	100.338	20.044	5.308	0.523
884.999	496.491	80.005	20.010	100.313	20.042	5.622	0.487
885.499	496.766	80.006	20.010	100.297	20.042	5.632	0.451
885.999	497.031	80.004	20.009	100.286	20.045	5.121	0.499
886.499	497.288	80.006	20.012	100.242	20.045	5.071	0.531
887.000	497.508	80.006	20.011	100.228	20.043	5.453	0.500
887.500	497.779	80.005	20.008	100.280	20.045	5.077	0.483
887.999	498.024	80.005	20.007	100.346	20.041	5.690	0.503
888.499	498.273	80.006	20.007	100.391	20.043	5.417	0.505
888.999	498.513	80.005	20.009	100.420	20.040	5.840	0.492
889.500	498.777	80.006	20.009	100.460	20.041	5.692	0.496
890.000	498.999	80.006	20.009	100.425	20.040	5.818	0.494
890.499	499.285	80.005	20.009	100.370	20.043	5.392	0.497
890.999	499.538	80.005	20.009	100.330	20.040	5.824	0.524
891.499	499.837	80.005	20.009	100.311	20.040	5.965	0.546
891.999	500.057	80.005	20.009	100.308	20.040	5.912	0.536
892.499	500.276	80.006	20.008	100.314	20.042	5.562	0.479
892.999	500.533	80.006	20.010	100.322	20.043	5.469	0.458
893.499	500.791	80.006	20.009	100.330	20.041	5.799	0.495
894.000	501.023	80.006	20.009	100.333	20.043	5.434	0.502
894.500	501.259	80.006	20.009	100.329	20.039	5.972	0.479
895.000	501.508	80.006	20.009	100.321	20.040	5.817	0.477
895.499	501.746	80.005	20.009	100.312	20.040	5.913	0.486
895.999	502.011	80.005	20.009	100.305	20.042	5.559	0.495
896.500	502.251	80.007	20.009	100.305	20.043	5.483	0.504
897.000	502.521	80.005	20.009	100.313	20.043	5.353	0.508
897.500	502.786	80.006	20.008	100.321	20.043	5.449	0.523
898.000	502.999	80.006	20.009	100.330	20.044	5.254	0.506
898.499	503.294	80.006	20.009	100.333	20.046	4.945	0.493
898.999	503.519	80.006	20.009	100.330	20.041	5.694	0.514
899.499	503.786	80.006	20.008	100.323	20.044	5.282	0.506
899.999	504.017	80.005	20.009	100.315	20.042	5.507	0.495
900.500	504.266	80.007	20.009	100.309	20.043	5.355	0.488
901.000	504.487	80.005	20.009	100.312	20.045	5.173	0.475
901.500	504.747	80.005	20.009	100.319	20.042	5.548	0.476
902.000	505.021	80.007	20.008	100.327	20.044	5.232	0.508
902.500	505.257	80.005	20.009	100.335	20.042	5.658	0.522
902.999	505.456	80.006	20.009	100.341	20.046	4.926	0.473
903.499	505.722	80.005	20.009	100.343	20.044	5.304	0.450
903.999	505.954	80.006	20.009	100.339	20.044	5.191	0.481
904.499	506.175	80.006	20.009	100.330	20.045	5.055	0.475
904.999	506.454	80.005	20.009	100.323	20.043	5.456	0.476
905.499	506.693	80.005	20.009	100.315	20.044	5.314	0.509
905.999	506.946	80.004	20.009	100.312	20.043	5.443	0.505
906.499	507.212	80.006	20.009	100.314	20.042	5.567	0.506
906.999	507.442	80.005	20.009	100.321	20.042	5.560	0.507
907.499	507.679	80.006	20.009	100.328	20.043	5.497	0.481
907.999	507.993	80.006	20.009	100.334	20.042	5.617	0.509
908.499	508.211	80.005	20.009	100.330	20.040	5.944	0.542
909.000	508.470	80.005	20.009	100.323	20.041	5.734	0.505
909.500	508.707	80.006	20.008	100.310	20.040	5.957	0.487
909.999	508.938	80.005	20.009	100.299	20.040	5.966	0.482
910.500	509.258	80.004	20.008	100.293	20.041	5.719	0.510
911.000	509.443	80.006	20.008	100.301	20.045	5.188	0.528
911.499	509.669	80.004	20.008	100.310	20.044	5.230	0.458
912.000	509.999	80.006	20.009	100.323	20.042	5.556	0.484
912.500	510.246	80.005	20.009	100.332	20.043	5.460	0.566
912.999	510.485	80.006	20.008	100.335	20.044	5.345	0.532
913.499	510.705	80.005	20.009	100.327	20.043	5.494	0.473
913.999	510.975	80.006	20.009	100.317	20.041	5.682	0.474
914.499	511.259	80.004	20.009	100.308	20.040	5.930	0.521
914.999	511.521	80.006	20.011	100.303	20.039	6.072	0.550
915.499	511.745	80.005	20.007	100.317	20.037	6.290	0.516
915.999	511.999	80.005	20.010	100.329	20.035	6.623	0.482
916.499	512.212	80.005	20.010	100.306	20.036	6.442	0.472
916.999	512.510	80.006	20.010	100.287	20.038	6.132	0.489
917.499	512.737	80.005	20.010	100.272	20.039	6.056	0.518
918.000	512.970	80.005	20.010	100.247	20.042	5.532	0.493
918.500	513.240	80.005	20.010	100.234	20.042	5.601	0.482
918.999	513.457	80.003	20.010	100.258	20.044	5.288	0.495
919.499	513.709	80.004	20.008	100.279	20.045	5.179	0.478
919.999	513.953	80.006	20.012	100.280	20.042	5.650	0.482
920.499	514.233	80.005	20.011	100.270	20.044	5.242	0.510
920.999	514.449	80.006	20.009	100.303	20.045	5.177	0.510
921.499	514.706	80.007	20.008	100.353	20.046	4.923	0.485
921.999	514.918	80.005	20.008	100.388	20.043	5.394	0.471
922.499	515.224	80.007	20.008	100.418	20.044	5.193	0.493
922.999	515.482	80.005	20.009	100.444	20.044	5.261	0.540
923.499	515.736	80.006	20.008	100.414	20.042	5.625	0.538
923.999	515.942	80.006	20.009	100.364	20.043	5.454	0.486
924.499	516.140	80.007	20.009	100.330	20.041	5.738	0.432
924.999	516.410	80.005	20.008	100.318	20.040	5.929	0.436
925.499	516.665	80.006	20.009	100.318	20.041	5.714	0.496
926.000	516.924	80.005	20.009	100.326	20.039	5.978	0.520
926.500	517.180	80.006	20.008	100.335	20.043	5.372	0.515
927.000	517.466	80.006	20.009	100.342	20.042	5.600	0.529
927.500	517.682	80.006	20.009	100.344	20.042	5.519	0.522
927.999	517.953	80.006	20.009	100.344	20.042	5.645	0.494
928.500	518.161	80.006	20.009	100.343	20.044	5.302	0.483
929.000	518.393	80.005	20.009	100.345	20.045	5.142	0.460
929.499	518.704	80.007	20.009	100.348	20.045	5.141	0.492
930.000	518.886	80.004	20.008	100.352	20.042	5.602	0.518
930.500	519.164	80.006	20.008	100.360	20.045	5.150	0.476
930.999	519.359	80.006	20.009	100.368	20.041	5.671	0.466
931.499	519.607	80.006	20.010	100.372	20.039	6.102	0.458
931.999	519.809	80.007	20.010	100.367	20.038	6.168	0.447
932.499	520.130	80.004	20.008	100.366	20.042	5.651	0.487
932.999	520.345	80.007	20.011	100.349	20.038	6.272	0.529
933.499	520.617	80.005	20.010	100.310	20.039	5.975	0.512
934.000	520.850	80.005	20.010	100.279	20.039	6.051	0.496
934.500	521.083	80.005	20.010	100.266	20.041	5.744	0.485
934.999	521.326	80.007	20.009	100.256	20.038	6.203	0.471
935.499	521.575	80.005	20.009	100.261	20.041	5.717	0.484
936.000	521.816	80.007	20.010	100.292	20.040	5.964	0.490
936.500	522.070	80.005	20.009	100.315	20.041	5.690	0.492
936.999	522.293	80.004	20.009	100.329	20.040	5.865	0.486
937.499	522.588	80.006	20.010	100.335	20.041	5.734	0.498
937.999	522.842	80.005	20.010	100.334	20.042	5.586	0.534
938.499	523.049	80.006	20.011	100.316	20.043	5.418	0.505
938.999	523.295	80.005	20.009	100.320	20.043	5.378	0.457
939.499	523.547	80.005	20.009	100.336	20.043	5.355	0.476
940.000	523.783	80.006	20.008	100.352	20.043	5.444	0.493
940.500	524.054	80.004	20.008	100.365	20.039	6.110	0.497
941.000	524.268	80.005	20.009	100.387	20.039	5.971	0.496
941.499	524.484	80.007	20.009	100.383	20.039	5.971	0.458
941.999	524.735	80.005	20.009	100.366	20.041	5.688	0.448
942.500	524.982	80.006	20.009	100.346	20.042	5.643	0.482
943.000	525.245	80.006	20.009	100.330	20.039	5.993	0.504
943.499	525.438	80.005	20.009	100.319	20.039	6.059	0.483
943.999	525.708	80.006	20.009	100.311	20.038	6.270	0.460
944.499	525.991	80.005	20.009	100.303	20.041	5.669	0.508
944.999	526.219	80.005	20.009	100.303	20.041	5.727	0.532
945.500	526.417	80.006	20.008	100.312	20.041	5.707	0.468
946.000	526.698	80.005	20.009	100.321	20.040	5.888	0.453
946.500	526.968	80.006	20.008	100.328	20.039	6.023	0.516
947.000	527.189	80.005	20.009	100.333	20.040	5.941	0.521
947.499	527.416	80.006	20.009	100.331	20.041	5.681	0.469
947.999	527.689	80.005	20.009	100.324	20.040	5.836	0.474
948.499	527.939	80.004	20.009	100.315	20.040	5.923	0.511
948.999	528.133	80.006	20.009	100.308	20.040	5.860	0.483
949.499	528.459	80.007	20.008	100.304	20.040	5.889	0.482
949.999	528.685	80.005	20.009	100.310	20.037	6.367	0.536
950.500	528.980	80.006	20.009	100.317	20.037	6.416	0.536
951.000	529.228	80.005	20.009	100.326	20.040	5.829	0.532
951.500	529.461	80.006	20.008	100.333	20.043	5.483	0.512
951.999	529.751	80.005	20.009	100.337	20.043	5.438	0.502
952.500	530.003	80.007	20.009	100.331	20.043	5.359	0.532
953.000	530.263	80.006	20.009	100.324	20.042	5.574	0.527
953.500	530.462	80.006	20.009	100.315	20.040	5.828	0.486
954.000	530.774	80.007	20.009	100.311	20.041	5.682	0.485
954.500	530.995	80.006	20.009	100.314	20.041	5.661	0.522
954.999	531.250	80.006	20.009	100.324	20.039	6.040	0.505
955.500	531.543	80.005	20.009	100.339	20.041	5.687	0.512
956.000	531.713	80.006	20.008	100.351	20.037	6.298	0.505
956.500	532.003	80.006	20.009	100.356	20.038	6.225	0.462
957.000	532.224	80.005	20.008	100.349	20.040	5.932	0.486
957.499	532.487	80.005	20.009	100.338	20.041	5.781	0.497
957.999	532.737	80.006	20.009	100.320	20.038	6.131	0.498
958.499	532.996	80.006	20.009	100.307	20.039	6.025	0.511
958.999	533.139	80.006	20.009	100.299	20.040	5.968	0.456
959.500	533.416	80.006	20.008	100.300	20.039	5.988	0.411
960.000	533.710	80.006	20.008	100.307	20.040	5.942	0.496
960.499	533.945	80.006	20.009	100.318	20.040	5.945	0.550
960.999	534.220	80.006	20.009	100.326	20.038	6.163	0.520
961.499	534.435	80.005	20.009	100.332	20.038	6.164	0.500
961.999	534.737	80.007	20.009	100.331	20.039	6.065	0.504
962.499	534.915	80.007	20.009	100.324	20.041	5.722	0.498
962.999	535.205	80.005	20.009	100.318	20.039	6.025	0.474
963.499	535.436	80.006	20.009	100.315	20.039	5.972	0.494
963.999	535.729	80.006	20.009	100.317	20.040	5.872	0.523
964.499	535.970	80.006	20.009	100.327	20.042	5.516	0.529
964.999	536.186	80.006	20.008	100.341	20.041	5.678	0.495
965.499	536.503	80.005	20.009	100.349	20.040	5.893	0.495
965.999	536.694	80.006	20.009	100.353	20.039	6.121	0.520
966.499	536.920	80.006	20.008	100.348	20.038	6.233	0.462
966.999	537.165	80.005	20.009	100.338	20.036	6.464	0.445
967.499	537.467	80.006	20.009	100.323	20.036	6.480	0.509
967.999	537.696	80.005	20.009	100.313	20.037	6.384	0.539
968.499	537.916	80.006	20.009	100.308	20.036	6.565	0.490
968.999	538.189	80.006	20.008	100.313	20.040	5.955	0.471
969.500	538.432	80.006	20.008	100.321	20.041	5.661	0.504
970.000	538.680	80.006	20.008	100.328	20.038	6.160	0.504
970.499	538.916	80.006	20.009	100.337	20.041	5.692	0.487
970.999	539.200	80.006	20.009	100.338	20.038	6.141	0.502
971.499	539.439	80.005	20.009	100.333	20.037	6.385	0.522
971.999	539.669	80.006	20.009	100.326	20.040	5.943	0.496
972.499	539.899	80.006	20.009	100.320	20.039	6.114	0.464
972.999	540.121	80.006	20.009	100.318	20.040	5.968	0.456
973.499	540.402	80.006	20.008	100.321	20.041	5.710	0.478
974.000	540.656	80.005	20.009	100.326	20.040	5.930	0.519
974.500	540.939	80.006	20.009	100.335	20.041	5.660	0.535
974.999	541.168	80.005	20.009	100.341	20.041	5.788	0.524
975.499	541.428	80.006	20.008	100.339	20.040	5.832	0.501
975.999	541.713	80.005	20.009	100.331	20.040	5.843	0.517
976.499	541.912	80.006	20.009	100.323	20.041	5.744	0.514
977.000	542.156	80.005	20.009	100.316	20.037	6.364	0.464
977.500	542.383	80.006	20.009	100.315	20.041	5.711	0.457
977.999	542.585	80.006	20.009	100.318	20.039	6.083	0.450
978.500	542.886	80.006	20.008	100.327	20.039	5.971	0.466
979.000	543.144	80.006	20.009	100.338	20.041	5.681	0.531
979.499	543.439	80.005	20.009	100.343	20.040	5.939	0.556
979.999	543.627	80.005	20.009	100.342	20.041	5.722	0.518
980.499	543.950	80.007	20.009	100.335	20.041	5.683	0.497
980.999	544.157	80.005	20.009	100.326	20.041	5.765	0.521
981.499	544.405	80.007	20.009	100.316	20.040	5.850	0.492
981.999	544.665	80.007	20.009	100.316	20.039	6.008	0.481
982.499	544.843	80.005	20.008	100.319	20.038	6.163	0.473
982.999	545.172	80.006	20.009	100.326	20.038	6.176	0.473
983.499	545.420	80.005	20.008	100.333	20.039	5.988	0.541
983.999	545.609	80.007	20.008	100.341	20.035	6.629	0.507
984.499	545.879	80.006	20.009	100.341	20.034	6.831	0.448
984.999	546.143	80.006	20.008	100.335	20.035	6.716	0.497
985.499	546.436	80.005	20.009	100.327	20.034	6.768	0.546
985.999	546.661	80.007	20.009	100.314	20.037	6.309	0.537
986.499	546.903	80.006	20.009	100.299	20.033	6.955	0.492
986.999	547.139	80.006	20.008	100.292	20.035	6.727	0.472
987.500	547.400	80.006	20.009	100.289	20.033	7.007	0.487
988.000	547.655	80.006	20.008	100.294	20.037	6.308	0.507
988.499	547.930	80.005	20.009	100.307	20.036	6.546	0.523
988.999	548.204	80.005	20.008	100.317	20.037	6.388	0.539
989.499	548.460	80.006	20.009	100.318	20.035	6.606	0.540
989.999	548.676	80.006	20.009	100.319	20.037	6.322	0.501
990.499	548.904	80.005	20.009	100.316	20.037	6.405	0.458
990.999	549.197	80.006	20.009	100.315	20.036	6.543	0.482
991.499	549.495	80.006	20.009	100.317	20.037	6.347	0.556
991.999	549.734	80.005	20.009	100.326	20.036	6.495	0.564
992.499	549.962	80.007	20.009	100.338	20.036	6.591	0.502
992.999	550.164	80.005	20.008	100.346	20.035	6.683	0.448
993.499	550.510	80.005	20.008	100.349	20.039	6.084	0.489
993.999	550.695	80.006	20.009	100.347	20.037	6.371	0.539
994.499	550.963	80.006	20.009	100.339	20.037	6.325	0.492
994.999	551.195	80.007	20.009	100.327	20.038	6.229	0.476
995.499	551.499	80.006	20.009	100.322	20.037	6.311	0.518
995.999	551.733	80.005	20.009	100.323	20.036	6.548	0.537
996.500	552.007	80.005	20.009	100.326	20.039	6.020	0.523
997.000	552.199	80.006	20.009	100.336	20.038	6.208	0.487
997.499	552.452	80.005	20.009	100.344	20.037	6.291	0.456
997.999	552.707	80.006	20.009	100.348	20.036	6.506	0.477
998.499	552.925	80.007	20.009	100.345	20.037	6.309	0.491
998.999	553.168	80.006	20.009	100.337	20.038	6.240	0.467
999.499	553.468	80.005	20.009	100.326	20.038	6.164	0.502
999.999	553.674	80.006	20.009	100.318	20.036	6.547	0.524
1000.499	553.959	80.006	20.009	100.314	20.037	6.414	0.498
1000.999	554.189	80.006	20.009	100.316	20.036	6.496	0.503
1001.499	554.430	80.006	20.009	100.324	20.033	6.922	0.493
1002.000	554.702	80.006	20.008	100.333	20.038	6.209	0.492
1002.500	554.940	80.005	20.009	100.340	20.036	6.460	0.512
1002.999	555.217	80.005	20.009	100.342	20.034	6.834	0.512
1003.499	555.418	80.007	20.009	100.336	20.030	7.375	0.496
1004.000	555.726	80.005	20.009	100.326	20.037	6.302	0.494
1004.500	556.009	80.008	20.009	100.316	20.036	6.506	0.550
1005.000	556.261	80.007	20.009	100.308	20.038	6.216	0.563
1005.500	556.485	80.006	20.009	100.306	20.039	6.057	0.505
1006.000	556.763	80.006	20.009	100.313	20.034	6.793	0.489
1006.499	557.007	80.006	20.009	100.321	20.036	6.490	0.513
1006.999	557.219	80.006	20.009	100.328	20.036	6.517	0.489
1007.499	557.513	80.007	20.009	100.331	20.036	6.593	0.481
1008.000	557.754	80.007	20.009	100.328	20.037	6.332	0.520
1008.500	557.977	80.005	20.009	100.321	20.035	6.652	0.499
1008.999	558.262	80.006	20.009	100.312	20.034	6.813	0.486
1009.499	558.524	80.006	20.009	100.305	20.034	6.845	0.528
1009.999	558.749	80.006	20.009	100.305	20.037	6.430	0.517
1010.499	559.009	80.006	20.009	100.312	20.036	6.526	0.486
1010.999	559.293	80.006	20.009	100.321	20.036	6.461	0.514
1011.500	559.498	80.005	20.009	100.331	20.035	6.745	0.516
1012.000	559.745	80.007	20.009	100.340	20.039	6.122	0.470
1012.500	560.031	80.006	20.009	100.346	20.039	6.086	0.492
1012.999	560.277	80.006	20.009	100.339	20.038	6.254	0.532
1013.499	560.525	80.005	20.009	100.331	20.042	5.561	0.513
1013.999	560.788	80.006	20.009	100.324	20.039	6.065	0.503
1014.499	561.010	80.006	20.009	100.323	20.039	6.025	0.498
1014.999	561.290	80.007	20.009	100.323	20.040	5.824	0.494
1015.499	561.550	80.006	20.010	100.330	20.039	6.102	0.521
1015.999	561.779	80.006	20.008	100.338	20.039	6.010	0.514
1016.499	562.001	80.005	20.009	100.342	20.042	5.571	0.470
1016.999	562.295	80.006	20.009	100.335	20.043	5.502	0.483
1017.499	562.540	80.006	20.009	100.328	20.044	5.323	0.528
1017.999	562.812	80.006	20.009	100.322	20.044	5.263	0.528
1018.499	563.057	80.007	20.009	100.322	20.040	5.863	0.517
1018.999	563.294	80.005	20.009	100.323	20.041	5.783	0.499
1019.499	563.498	80.006	20.009	100.331	20.043	5.482	0.462
1019.999	563.803	80.005	20.008	100.340	20.037	6.408	0.475
1020.499	564.063	80.006	20.009	100.344	20.042	5.656	0.536
1020.999	564.301	80.007	20.009	100.340	20.042	5.530	0.532
1021.499	564.570	80.007	20.009	100.332	20.038	6.244	0.503
1022.000	564.811	80.006	20.009	100.323	20.042	5.651	0.509
1022.500	565.061	80.006	20.009	100.315	20.040	5.922	0.500
1022.999	565.364	80.006	20.010	100.314	20.040	5.890	0.521
1023.499	565.588	80.006	20.009	100.321	20.036	6.472	0.540
1023.999	565.745	80.007	20.008	100.337	20.039	6.114	0.454
1024.499	566.025	80.007	20.009	100.351	20.036	6.448	0.409
1024.999	566.302	80.005	20.009	100.363	20.040	5.848	0.497
1025.499	566.535	80.007	20.009	100.365	20.036	6.507	0.534
1025.999	566.834	80.005	20.009	100.362	20.040	5.901	0.521
1026.499	567.041	80.007	20.009	100.351	20.040	5.929	0.519
1026.999	567.309	80.005	20.010	100.341	20.040	5.905	0.491
1027.499	567.557	80.005	20.009	100.336	20.039	6.001	0.496
1027.999	567.836	80.006	20.009	100.338	20.036	6.556	0.521
1028.499	568.052	80.006	20.009	100.345	20.036	6.523	0.511
1028.999	568.301	80.007	20.008	100.355	20.037	6.418	0.480
1029.499	568.570	80.007	20.009	100.359	20.040	5.837	0.491
1029.999	568.822	80.006	20.009	100.355	20.037	6.322	0.519
1030.499	569.080	80.005	20.010	100.348	20.036	6.582	0.516
1030.999	569.296	80.006	20.009	100.338	20.037	6.294	0.492
1031.500	569.550	80.005	20.008	100.334	20.036	6.539	0.472
1032.000	569.810	80.007	20.010	100.319	20.037	6.397	0.492
1032.499	570.084	80.005	20.009	100.300	20.037	6.345	0.524
1032.999	570.319	80.006	20.010	100.292	20.039	6.098	0.521
1033.500	570.551	80.005	20.010	100.289	20.038	6.190	0.488
1034.000	570.773	80.006	20.009	100.282	20.040	5.890	0.461
1034.500	571.014	80.006	20.010	100.294	20.039	5.978	0.458
1035.000	571.234	80.005	20.010	100.315	20.039	5.978	0.462
1035.499	571.474	80.006	20.011	100.320	20.042	5.529	0.460
1035.999	571.690	80.005	20.009	100.333	20.041	5.710	0.458
1036.499	571.983	80.005	20.008	100.359	20.038	6.166	0.483
1036.999	572.179	80.007	20.008	100.382	20.043	5.497	0.499
1037.500	572.411	80.007	20.009	100.395	20.041	5.699	0.459
1038.000	572.667	80.005	20.009	100.405	20.041	5.666	0.458
1038.500	572.972	80.006	20.010	100.394	20.040	5.893	0.525
1039.000	573.142	80.005	20.009	100.362	20.041	5.784	0.518
1039.499	573.384	80.006	20.009	100.334	20.041	5.668	0.443
1039.999	573.662	80.006	20.009	100.321	20.039	6.047	0.466
1040.499	573.851	80.006	20.009	100.321	20.040	5.932	0.493
1040.999	574.107	80.004	20.008	100.327	20.042	5.590	0.456
1041.500	574.332	80.006	20.009	100.335	20.040	5.898	0.463
1042.000	574.598	80.006	20.009	100.342	20.041	5.799	0.486
1042.499	574.835	80.006	20.009	100.339	20.040	5.930	0.497
1043.000	575.051	80.005	20.009	100.329	20.040	5.926	0.478
1043.500	575.311	80.005	20.009	100.319	20.039	6.019	0.465
1043.999	575.536	80.006	20.009	100.316	20.035	6.648	0.480
1044.499	575.743	80.006	20.009	100.316	20.040	5.955	0.458
1044.999	576.047	80.006	20.009	100.320	20.037	6.302	0.471
1045.499	576.320	80.007	20.009	100.330	20.039	6.109	0.544
1045.999	576.567	80.006	20.009	100.338	20.035	6.734	0.548
1046.499	576.712	80.005	20.009	100.341	20.035	6.632	0.456
1046.999	577.026	80.007	20.010	100.335	20.036	6.471	0.426
1047.500	577.257	80.006	20.009	100.327	20.038	6.223	0.502
1048.000	577.478	80.005	20.009	100.317	20.035	6.674	0.498
1048.500	577.723	80.006	20.009	100.314	20.037	6.390	0.459
1048.999	577.979	80.006	20.008	100.315	20.036	6.495	0.484
1049.499	578.258	80.006	20.009	100.323	20.036	6.538	0.518
1049.999	578.498	80.006	20.009	100.334	20.038	6.162	0.527
1050.499	578.723	80.005	20.009	100.345	20.038	6.265	0.492
1050.999	578.980	80.007	20.009	100.346	20.040	5.969	0.474
1051.499	579.211	80.006	20.009	100.339	20.038	6.141	0.486
1051.999	579.455	80.005	20.009	100.330	20.041	5.735	0.482
1052.499	579.712	80.005	20.009	100.324	20.039	6.015	0.488
1053.000	579.935	80.006	20.009	100.322	20.039	6.001	0.490
1053.500	580.190	80.007	20.011	100.323	20.040	5.899	0.479
1054.000	580.384	80.006	20.008	100.343	20.038	6.276	0.463
1054.499	580.644	80.004	20.008	100.366	20.039	6.023	0.451
1054.999	580.893	80.006	20.008	100.369	20.038	6.198	0.482
1055.499	581.127	80.006	20.009	100.350	20.037	6.435	0.496
1055.999	581.344	80.005	20.010	100.327	20.038	6.273	0.467
1056.500	581.595	80.008	20.010	100.297	20.037	6.401	0.459
1057.000	581.856	80.004	20.010	100.268	20.036	6.500	0.491
1057.499	582.080	80.006	20.009	100.265	20.039	6.084	0.499
1058.000	582.309	80.005	20.009	100.285	20.036	6.523	0.469
1058.500	582.584	80.006	20.009	100.312	20.039	6.029	0.478
1058.999	582.804	80.006	20.009	100.329	20.038	6.132	0.499
1059.499	583.040	80.007	20.009	100.340	20.038	6.245	0.476
1059.999	583.222	80.006	20.008	100.337	20.037	6.380	0.437
1060.499	583.542	80.006	20.009	100.329	20.038	6.197	0.460
1060.999	583.721	80.006	20.009	100.318	20.035	6.606	0.501
1061.500	584.004	80.005	20.009	100.311	20.036	6.585	0.480
1062.000	584.169	80.005	20.009	100.305	20.037	6.380	0.455
1062.499	584.424	80.006	20.009	100.308	20.037	6.375	0.434
1062.999	584.691	80.008	20.009	100.316	20.034	6.874	0.471
1063.500	584.918	80.005	20.009	100.324	20.037	6.357	0.507
1064.000	585.156	80.005	20.009	100.331	20.035	6.684	0.480
1064.499	585.408	80.006	20.009	100.338	20.037	6.410	0.478
1064.999	585.621	80.005	20.009	100.334	20.037	6.383	0.477
1065.499	585.864	80.006	20.009	100.327	20.036	6.448	0.460
1065.999	586.188	80.006	20.009	100.327	20.037	6.425	0.511
1066.499	586.403	80.005	20.009	100.328	20.037	6.349	0.553
1066.999	586.650	80.007	20.009	100.334	20.038	6.148	0.500
1067.499	586.914	80.005	20.009	100.349	20.036	6.471	0.486
1067.999	587.155	80.005	20.008	100.359	20.037	6.432	0.508
1068.499	587.412	80.006	20.009	100.354	20.040	5.818	0.502
1068.999	587.664	80.006	20.009	100.344	20.039	6.111	0.503
1069.500	587.869	80.005	20.009	100.334	20.035	6.708	0.483
1070.000	588.218	80.005	20.009	100.325	20.034	6.757	0.506
1070.499	588.430	80.004	20.008	100.322	20.034	6.816	0.557
1070.999	588.629	80.005	20.009	100.335	20.034	6.773	0.485
1071.499	588.924	80.005	20.008	100.350	20.037	6.391	0.452
1071.999	589.181	80.006	20.009	100.364	20.034	6.754	0.524
1072.499	589.474	80.007	20.009	100.367	20.034	6.751	0.551
1072.999	589.705	80.005	20.009	100.360	20.035	6.732	0.536
1073.500	589.945	80.005	20.009	100.346	20.036	6.583	0.498
1074.000	590.207	80.005	20.009	100.331	20.038	6.193	0.487
1074.500	590.434	80.006	20.009	100.321	20.036	6.542	0.495
1075.000	590.750	80.006	20.009	100.320	20.036	6.581	0.516
1075.499	590.957	80.005	20.009	100.332	20.035	6.713	0.533
1075.999	591.222	80.006	20.009	100.347	20.033	6.952	0.498
1076.499	591.452	80.006	20.008	100.363	20.035	6.738	0.484
1076.999	591.691	80.004	20.009	100.367	20.033	6.957	0.482
1077.499	592.019	80.005	20.009	100.365	20.037	6.337	0.518
1078.000	592.203	80.006	20.009	100.355	20.034	6.779	0.540
1078.500	592.513	80.005	20.009	100.347	20.036	6.524	0.503
1078.999	592.759	80.005	20.010	100.339	20.034	6.821	0.525
1079.499	592.999	80.005	20.009	100.338	20.034	6.876	0.521
1079.999	593.256	80.006	20.009	100.342	20.032	7.138	0.491
1080.499	593.496	80.005	20.008	100.346	20.033	7.003	0.496
1080.999	593.796	80.004	20.008	100.347	20.031	7.347	0.518
1081.499	594.038	80.006	20.009	100.346	20.030	7.526	0.541
1081.999	594.266	80.005	20.009	100.339	20.033	7.002	0.506
1082.499	594.552	80.006	20.008	100.330	20.033	7.001	0.492
1082.999	594.833	80.006	20.009	100.324	20.033	7.027	0.541
1083.499	595.055	80.005	20.009	100.323	20.034	6.881	0.535
1083.999	595.337	80.005	20.008	100.323	20.033	7.049	0.503
1084.499	595.613	80.005	20.009	100.329	20.031	7.247	0.531
1085.000	595.848	80.006	20.009	100.337	20.031	7.290	0.535
1085.500	596.103	80.004	20.008	100.342	20.034	6.861	0.501
1086.000	596.268	80.006	20.009	100.342	20.032	7.141	0.455
1086.500	596.589	80.005	20.009	100.336	20.034	6.801	0.453
1086.999	596.816	80.005	20.009	100.328	20.034	6.830	0.517
1087.499	597.088	80.006	20.009	100.319	20.033	7.014	0.524
1087.999	597.348	80.005	20.009	100.316	20.033	6.954	0.516
1088.499	597.587	80.006	20.009	100.317	20.036	6.568	0.515
1088.999	597.869	80.005	20.009	100.328	20.036	6.565	0.510
1089.499	598.152	80.007	20.008	100.343	20.036	6.450	0.543
1089.999	598.382	80.005	20.009	100.356	20.038	6.259	0.539
1090.499	598.651	80.005	20.009	100.360	20.038	6.203	0.506
1090.999	598.877	80.007	20.009	100.358	20.038	6.180	0.497
1091.500	599.113	80.006	20.009	100.348	20.041	5.774	0.478
1092.000	599.372	80.005	20.009	100.340	20.042	5.628	0.479
1092.499	599.611	80.006	20.009	100.337	20.040	5.892	0.497
1092.999	599.826	80.007	20.009	100.344	20.039	6.116	0.476
1093.499	600.106	80.005	20.008	100.355	20.039	6.117	0.474
1093.999	600.353	80.006	20.008	100.369	20.039	6.021	0.511
1094.499	600.628	80.006	20.009	100.377	20.042	5.629	0.525
1094.999	600.885	80.007	20.009	100.382	20.042	5.593	0.527
1095.499	601.107	80.005	20.009	100.377	20.043	5.374	0.506
1096.000	601.341	80.006	20.009	100.366	20.041	5.740	0.468
1096.500	601.583	80.005	20.009	100.358	20.038	6.195	0.466
1096.999	601.850	80.005	20.008	100.353	20.039	5.990	0.492
1097.500	602.064	80.006	20.009	100.348	20.038	6.215	0.495
1098.000	602.274	80.005	20.009	100.346	20.037	6.348	0.452
1098.499	602.647	80.006	20.009	100.345	20.038	6.266	0.504
1099.000	602.801	80.007	20.009	100.344	20.039	6.108	0.555
1099.500	603.045	80.004	20.009	100.337	20.038	6.263	0.463
1099.999	603.268	80.005	20.009	100.327	20.038	6.190	0.433
1100.499	603.560	80.005	20.009	100.318	20.039	6.061	0.491
1100.999	603.767	80.005	20.009	100.311	20.037	6.351	0.507
1101.499	603.993	80.005	20.009	100.307	20.038	6.161	0.466
1101.999	604.215	80.004	20.008	100.311	20.036	6.547	0.440
1102.499	604.528	80.006	20.009	100.318	20.036	6.538	0.491
1102.999	604.859	80.005	20.009	100.327	20.039	5.978	0.590
1103.499	604.988	80.006	20.009	100.335	20.037	6.301	0.553
1103.999	605.297	80.005	20.009	100.337	20.035	6.601	0.449
1104.499	605.551	80.005	20.009	100.330	20.034	6.778	0.500
1105.000	605.795	80.006	20.009	100.322	20.036	6.467	0.530
1105.500	606.079	80.004	20.009	100.320	20.036	6.588	0.513
1105.999	606.335	80.005	20.009	100.319	20.038	6.233	0.534
1106.500	606.622	80.006	20.009	100.322	20.040	5.824	0.542
1107.000	606.814	80.006	20.009	100.330	20.039	6.060	0.511
1107.499	607.100	80.005	20.009	100.335	20.036	6.453	0.478
1107.999	607.296	80.005	20.009	100.330	20.037	6.324	0.479
1108.499	607.593	80.006	20.009	100.323	20.036	6.472	0.487
1108.999	607.851	80.005	20.010	100.315	20.037	6.432	0.524
1109.499	608.071	80.005	20.010	100.307	20.033	6.966	0.516
1109.999	608.304	80.006	20.009	100.306	20.035	6.709	0.466
1110.499	608.573	80.005	20.009	100.315	20.034	6.795	0.478
1110.999	608.844	80.005	20.009	100.324	20.037	6.410	0.521
1111.499	609.103	80.005	20.009	100.332	20.037	6.433	0.535
1111.999	609.359	80.006	20.009	100.339	20.036	6.535	0.523
1112.499	609.578	80.005	20.010	100.339	20.034	6.871	0.495
1112.999	609.868	80.005	20.010	100.333	20.036	6.560	0.491
1113.499	610.100	80.005	20.009	100.330	20.036	6.549	0.515
1113.999	610.364	80.004	20.010	100.331	20.035	6.711	0.510
1114.499	610.589	80.005	20.009	100.339	20.036	6.503	0.493
1115.000	610.898	80.006	20.009	100.350	20.036	6.523	0.511
1115.500	611.087	80.004	20.009	100.362	20.038	6.207	0.516
1115.999	611.398	80.006	20.009	100.372	20.037	6.356	0.499
1116.499	611.616	80.005	20.010	100.370	20.037	6.398	0.514
1117.000	611.855	80.006	20.010	100.356	20.039	6.091	0.493
1117.500	612.179	80.005	20.010	100.340	20.037	6.328	0.511
1117.999	612.391	80.006	20.009	100.328	20.040	5.879	0.549
1118.499	612.625	80.005	20.009	100.322	20.040	5.949	0.491
1118.999	612.881	80.005	20.010	100.332	20.038	6.236	0.468
1119.499	613.099	80.006	20.009	100.347	20.038	6.200	0.482
1120.000	613.348	80.005	20.010	100.363	20.037	6.415	0.470
1120.500	613.548	80.005	20.009	100.373	20.040	5.926	0.458
1120.999	613.860	80.005	20.009	100.372	20.037	6.322	0.481
1121.499	614.106	80.006	20.009	100.363	20.038	6.236	0.535
1121.999	614.371	80.005	20.010	100.354	20.037	6.382	0.535
1122.499	614.689	80.006	20.009	100.347	20.035	6.613	0.547
1122.999	614.920	80.005	20.009	100.348	20.037	6.399	0.566
1123.499	615.138	80.005	20.010	100.356	20.034	6.869	0.499
1123.999	615.395	80.005	20.009	100.366	20.033	6.984	0.462
1124.499	615.638	80.006	20.009	100.370	20.032	7.162	0.488
1124.999	615.913	80.006	20.009	100.368	20.033	6.949	0.509
1125.499	616.113	80.004	20.009	100.355	20.032	7.074	0.496
1125.999	616.356	80.006	20.009	100.339	20.031	7.321	0.459
1126.499	616.590	80.006	20.010	100.326	20.030	7.416	0.460
1127.000	616.886	80.005	20.009	100.323	20.031	7.245	0.504
1127.500	617.120	80.007	20.009	100.325	20.036	6.586	0.530
1128.000	617.357	80.007	20.009	100.332	20.034	6.810	0.501
1128.500	617.589	80.004	20.010	100.341	20.034	6.797	0.470
1129.000	617.915	80.007	20.010	100.346	20.036	6.467	0.514
1129.499	618.091	80.005	20.010	100.339	20.031	7.348	0.530
1129.999	618.362	80.005	20.009	100.331	20.036	6.580	0.474
1130.500	618.589	80.005	20.009	100.328	20.036	6.571	0.472
1131.000	618.857	80.005	20.009	100.326	20.036	6.463	0.496
1131.499	619.157	80.005	20.009	100.326	20.036	6.565	0.531
1131.999	619.383	80.006	20.009	100.333	20.034	6.872	0.547
1132.499	619.598	80.005	20.009	100.340	20.035	6.657	0.484
1132.999	619.832	80.005	20.009	100.341	20.036	6.464	0.445
1133.499	620.116	80.006	20.010	100.338	20.037	6.308	0.484
1133.999	620.424	80.004	20.010	100.336	20.036	6.503	0.555
1134.499	620.650	80.005	20.010	100.336	20.033	6.932	0.563
1134.999	620.876	80.004	20.009	100.338	20.036	6.474	0.493
1135.499	621.089	80.005	20.009	100.347	20.037	6.319	0.446
1135.999	621.335	80.006	20.009	100.359	20.036	6.504	0.449
1136.500	621.618	80.004	20.009	100.368	20.033	6.957	0.494
1137.000	621.858	80.005	20.009	100.367	20.034	6.837	0.526
1137.499	622.114	80.004	20.009	100.358	20.035	6.659	0.510
1138.000	622.341	80.006	20.009	100.341	20.034	6.810	0.490
1138.500	622.604	80.006	20.009	100.326	20.036	6.480	0.487
1138.999	622.869	80.004	20.009	100.319	20.037	6.438	0.509
1139.499	623.077	80.004	20.009	100.321	20.033	7.049	0.501
1139.999	623.333	80.005	20.009	100.328	20.038	6.185	0.469
1140.499	623.591	80.005	20.009	100.333	20.035	6.730	0.489
1140.999	623.840	80.006	20.009	100.332	20.037	6.288	0.510
1141.499	624.082	80.005	20.009	100.326	20.037	6.366	0.499
1141.999	624.320	80.005	20.009	100.325	20.036	6.442	0.486
1142.499	624.533	80.004	20.009	100.326	20.037	6.313	0.465
1142.999	624.902	80.006	20.009	100.337	20.036	6.576	0.516
1143.500	625.133	80.006	20.009	100.353	20.034	6.804	0.591
1144.000	625.376	80.004	20.009	100.366	20.034	6.901	0.537
1144.499	625.649	80.006	20.009	100.370	20.033	6.911	0.495
1144.999	625.892	80.003	20.009	100.369	20.034	6.851	0.516
1145.499	626.029	80.005	20.009	100.356	20.037	6.362	0.448
1145.999	626.364	80.004	20.009	100.340	20.036	6.553	0.426
1146.499	626.608	80.006	20.009	100.329	20.036	6.479	0.525
1146.999	626.906	80.004	20.009	100.324	20.036	6.489	0.561
1147.499	627.083	80.005	20.009	100.324	20.035	6.654	0.509
1148.000	627.388	80.006	20.009	100.332	20.036	6.537	0.478
1148.500	627.644	80.006	20.009	100.346	20.039	6.036	0.521
1148.999	627.875	80.005	20.009	100.349	20.036	6.528	0.524
1149.500	628.150	80.004	20.009	100.349	20.037	6.314	0.497
1150.000	628.388	80.006	20.010	100.343	20.035	6.696	0.510
1150.499	628.619	80.005	20.009	100.336	20.034	6.821	0.491
1150.999	628.894	80.006	20.009	100.330	20.035	6.718	0.487
1151.499	629.082	80.005	20.009	100.333	20.035	6.722	0.484
1151.999	629.363	80.006	20.009	100.341	20.036	6.528	0.466
1152.499	629.587	80.006	20.009	100.354	20.036	6.552	0.487
1152.999	629.802	80.005	20.009	100.365	20.034	6.873	0.471
1153.499	630.138	80.006	20.009	100.370	20.033	7.002	0.495
1154.000	630.369	80.005	20.009	100.368	20.032	7.164	0.560
1154.500	630.675	80.006	20.009	100.357	20.034	6.885	0.552
1154.999	630.931	80.006	20.009	100.348	20.034	6.792	0.549
1155.499	631.147	80.006	20.009	100.342	20.033	6.917	0.517
1155.999	631.437	80.006	20.008	100.340	20.032	7.136	0.489
1156.500	631.670	80.005	20.009	100.345	20.031	7.285	0.514
1157.000	631.894	80.006	20.009	100.355	20.034	6.803	0.490
1157.499	632.200	80.005	20.009	100.355	20.032	7.107	0.493
1157.999	632.434	80.005	20.009	100.355	20.029	7.595	0.535
1158.499	632.707	80.006	20.009	100.344	20.029	7.613	0.523
1158.999	632.966	80.006	20.009	100.330	20.032	7.074	0.519
1159.499	633.166	80.006	20.009	100.319	20.033	7.057	0.496
1159.999	633.436	80.004	20.009	100.318	20.032	7.163	0.464
1160.499	633.672	80.006	20.009	100.321	20.029	7.546	0.488
1160.999	633.956	80.006	20.009	100.336	20.031	7.259	0.513
1161.499	634.230	80.005	20.009	100.352	20.030	7.405	0.539
1162.000	634.485	80.006	20.009	100.361	20.028	7.722	0.544
1162.500	634.725	80.004	20.009	100.362	20.032	7.157	0.512
1162.999	635.029	80.007	20.009	100.359	20.031	7.371	0.519
1163.499	635.232	80.007	20.009	100.351	20.032	7.107	0.525
1163.999	635.499	80.006	20.010	100.339	20.031	7.262	0.488
1164.499	635.753	80.006	20.009	100.339	20.030	7.381	0.495
1164.999	636.034	80.006	20.009	100.351	20.033	6.956	0.528
1165.499	636.282	80.005	20.009	100.367	20.034	6.908	0.532
1165.999	636.474	80.005	20.009	100.377	20.031	7.268	0.485
1166.499	636.750	80.006	20.009	100.387	20.031	7.314	0.454
1166.999	637.048	80.005	20.010	100.383	20.034	6.867	0.521
1167.500	637.224	80.006	20.010	100.372	20.034	6.761	0.523
1168.000	637.531	80.006	20.010	100.358	20.034	6.773	0.478
1168.499	637.802	80.008	20.010	100.356	20.039	6.064	0.531
1168.999	638.015	80.005	20.010	100.360	20.039	6.099	0.531
1169.499	638.256	80.006	20.009	100.370	20.037	6.299	0.469
1169.999	638.456	80.006	20.010	100.377	20.035	6.710	0.448
1170.499	638.773	80.005	20.010	100.375	20.036	6.483	0.480
1170.999	639.020	80.006	20.010	100.366	20.033	6.956	0.541
1171.499	639.267	80.005	20.010	100.351	20.034	6.781	0.529
1171.999	639.457	80.007	20.010	100.335	20.037	6.317	0.465
1172.499	639.702	80.006	20.010	100.328	20.035	6.714	0.436
1172.999	640.048	80.006	20.010	100.328	20.036	6.560	0.512
1173.499	640.246	80.006	20.010	100.329	20.035	6.641	0.567
1173.999	640.507	80.005	20.010	100.335	20.036	6.557	0.502
1174.499	640.727	80.007	20.010	100.341	20.037	6.400	0.470
1174.999	641.060	80.006	20.010	100.342	20.035	6.620	0.517
1175.499	641.260	80.006	20.010	100.337	20.038	6.187	0.543
1175.999	641.535	80.004	20.010	100.331	20.035	6.723	0.504
1176.499	641.732	80.006	20.010	100.329	20.035	6.652	0.473
1176.999	641.987	80.005	20.010	100.329	20.037	6.434	0.462
1177.499	642.222	80.006	20.010	100.329	20.036	6.494	0.471
1177.999	642.442	80.005	20.009	100.341	20.034	6.762	0.473
1178.499	642.759	80.007	20.009	100.357	20.033	7.041	0.496
1178.999	643.027	80.006	20.010	100.360	20.032	7.209	0.561
1179.499	643.278	80.005	20.010	100.358	20.034	6.889	0.552
1180.000	643.416	80.005	20.010	100.350	20.030	7.505	0.454
1180.500	643.764	80.006	20.010	100.336	20.030	7.491	0.437
1180.999	644.031	80.005	20.010	100.323	20.031	7.286	0.551
1181.499	644.212	80.002	20.011	100.320	20.030	7.388	0.532
1181.999	644.519	80.007	20.006	100.361	20.028	7.826	0.468
1182.499	644.776	80.006	20.013	100.340	20.029	7.632	0.526
1182.999	645.038	80.002	20.009	100.311	20.031	7.257	0.542
1183.499	645.198	80.007	20.011	100.280	20.032	7.181	0.470
1183.999	645.504	80.002	20.008	100.248	20.033	6.947	0.444
1184.499	645.786	80.004	20.013	100.188	20.034	6.871	0.527
1184.999	646.000	80.004	20.011	100.204	20.032	7.187	0.542
1185.500	646.264	80.006	20.009	100.270	20.031	7.223	0.487
1186.000	646.499	80.005	20.009	100.347	20.031	7.279	0.488
1186.499	646.768	80.005	20.009	100.412	20.035	6.600	0.501
1186.999	646.991	80.006	20.010	100.454	20.031	7.343	0.498
1187.499	647.249	80.005	20.010	100.475	20.034	6.816	0.486
1187.999	647.563	80.006	20.010	100.446	20.031	7.225	0.526
1188.499	647.740	80.005	20.010	100.397	20.035	6.683	0.531
1188.999	648.064	80.005	20.010	100.357	20.032	7.187	0.496
1189.499	648.244	80.005	20.010	100.338	20.033	6.975	0.503
1189.999	648.494	80.007	20.010	100.335	20.037	6.413	0.467
1190.499	648.832	80.007	20.010	100.343	20.032	7.096	0.509
1190.999	649.089	80.006	20.009	100.357	20.033	7.056	0.592
1191.499	649.312	80.005	20.010	100.373	20.034	6.813	0.537
1191.999	649.543	80.006	20.009	100.377	20.034	6.850	0.467
1192.499	649.746	80.005	20.010	100.371	20.035	6.691	0.444
1193.000	650.055	80.005	20.010	100.363	20.033	6.984	0.473
1193.500	650.325	80.006	20.010	100.350	20.030	7.512	0.545
1193.999	650.547	80.006	20.010	100.336	20.031	7.247	0.535
1194.499	650.770	80.004	20.010	100.332	20.031	7.244	0.469
1194.999	651.026	80.006	20.009	100.333	20.033	6.984	0.462
1195.499	651.274	80.005	20.010	100.338	20.030	7.510	0.491
1195.999	651.492	80.006	20.010	100.349	20.034	6.845	0.485
1196.499	651.716	80.005	20.010	100.355	20.033	6.922	0.454
1196.999	652.051	80.005	20.009	100.355	20.032	7.173	0.500
1197.499	652.213	80.005	20.010	100.353	20.031	7.258	0.528
1197.999	652.460	80.006	20.010	100.348	20.030	7.386	0.453
1198.499	652.687	80.005	20.010	100.343	20.029	7.611	0.442
1198.999	653.060	80.006	20.010	100.343	20.031	7.374	0.537
1199.499	653.231	80.005	20.009	100.351	20.032	7.219	0.572
1199.999	653.507	80.006	20.009	100.359	20.031	7.223	0.495
1200.499	653.801	80.006	20.010	100.366	20.030	7.471	0.509
1200.999	653.907	80.005	20.010	100.366	20.027	7.867	0.485
1201.499	654.236	80.005	20.010	100.357	20.029	7.677	0.417
1201.999	654.410	80.006	20.010	100.342	20.028	7.700	0.469
1202.500	654.742	80.004	20.010	100.326	20.027	7.953	0.505
1203.000	654.946	80.006	20.010	100.311	20.028	7.709	0.522
1203.500	655.169	80.005	20.009	100.309	20.026	8.063	0.481
1203.999	655.429	80.005	20.009	100.315	20.025	8.186	0.455
1204.500	655.672	80.005	20.009	100.324	20.025	8.253	0.493
1205.000	655.983	80.005	20.009	100.330	20.027	7.963	0.529
1205.500	656.253	80.006	20.010	100.330	20.026	8.055	0.567
1206.000	656.546	80.005	20.010	100.324	20.027	7.889	0.572
1206.499	656.658	80.006	20.010	100.316	20.029	7.545	0.484
1206.999	657.003	80.005	20.010	100.307	20.028	7.818	0.431
1207.499	657.235	80.006	20.010	100.309	20.030	7.376	0.517
1207.999	657.441	80.005	20.010	100.320	20.029	7.670	0.508
1208.499	657.708	80.006	20.010	100.337	20.030	7.390	0.455
1208.999	657.973	80.006	20.009	100.354	20.030	7.444	0.502
1209.499	658.234	80.006	20.010	100.370	20.029	7.625	0.529
1209.999	658.536	80.007	20.010	100.372	20.033	7.001	0.544
1210.499	658.738	80.007	20.010	100.368	20.033	6.990	0.534
1211.000	659.030	80.007	20.010	100.360	20.034	6.822	0.500
1211.500	659.244	80.005	20.010	100.359	20.033	6.924	0.500
1212.000	659.516	80.006	20.009	100.365	20.032	7.202	0.496
1212.500	659.813	80.006	20.010	100.378	20.031	7.226	0.527
1213.000	660.073	80.005	20.010	100.387	20.035	6.685	0.564
1213.499	660.286	80.006	20.009	100.392	20.032	7.138	0.515
1213.999	660.520	80.007	20.010	100.386	20.031	7.279	0.459
1214.499	660.730	80.004	20.010	100.369	20.032	7.180	0.445
1214.999	660.983	80.005	20.010	100.356	20.033	7.024	0.454
1215.499	661.268	80.005	20.010	100.350	20.030	7.411	0.501
1215.999	661.546	80.006	20.010	100.349	20.029	7.537	0.550
1216.499	661.783	80.005	20.010	100.357	20.029	7.561	0.539
1216.999	661.977	80.007	20.010	100.371	20.027	7.885	0.473
1217.499	662.307	80.006	20.009	100.382	20.027	7.937	0.478
1217.999	662.513	80.006	20.010	100.386	20.029	7.643	0.530
1218.499	662.804	80.003	20.010	100.379	20.029	7.675	0.516
1218.999	663.043	80.006	20.010	100.370	20.029	7.672	0.514
1219.499	663.281	80.006	20.009	100.357	20.031	7.351	0.503
1219.999	663.507	80.005	20.010	100.351	20.029	7.599	0.470
1220.499	663.826	80.005	20.010	100.352	20.029	7.632	0.505
1220.999	664.046	80.005	20.009	100.360	20.033	6.972	0.543
1221.499	664.279	80.005	20.009	100.368	20.031	7.315	0.496
1221.999	664.590	80.007	20.009	100.376	20.030	7.439	0.498
1222.499	664.830	80.005	20.009	100.373	20.029	7.650	0.547
1222.999	665.066	80.006	20.009	100.366	20.030	7.442	0.513
1223.499	665.333	80.006	20.009	100.359	20.032	7.135	0.489
1223.999	665.597	80.005	20.009	100.359	20.033	7.010	0.517
1224.499	665.857	80.004	20.009	100.363	20.034	6.889	0.527
1224.999	666.012	80.006	20.009	100.374	20.034	6.767	0.469
1225.499	666.405	80.006	20.009	100.386	20.034	6.787	0.482
1225.999	666.631	80.005	20.009	100.392	20.037	6.358	0.584
1226.499	666.934	80.006	20.010	100.390	20.038	6.262	0.574
1226.999	667.186	80.005	20.010	100.387	20.034	6.793	0.542
1227.499	667.417	80.004	20.010	100.382	20.032	7.077	0.519
1228.000	667.655	80.006	20.010	100.377	20.035	6.651	0.476
1228.500	667.906	80.006	20.009	100.383	20.036	6.592	0.479
1228.999	668.230	80.004	20.009	100.394	20.037	6.431	0.532
1229.499	668.396	80.005	20.010	100.399	20.037	6.345	0.532
1229.999	668.639	80.004	20.010	100.402	20.034	6.773	0.450
1230.499	668.875	80.006	20.010	100.402	20.034	6.842	0.444
1230.999	669.154	80.006	20.010	100.394	20.034	6.895	0.497
1231.499	669.427	80.005	20.010	100.386	20.032	7.182	0.533
1231.999	669.633	80.005	20.010	100.379	20.031	7.292	0.515
1232.500	669.864	80.007	20.010	100.377	20.032	7.196	0.458
1233.000	670.124	80.005	20.009	100.378	20.030	7.450	0.464
1233.500	670.326	80.004	20.009	100.379	20.031	7.239	0.477
1233.999	670.642	80.006	20.010	100.379	20.028	7.731	0.490
1234.500	670.872	80.005	20.010	100.371	20.032	7.127	0.532
1235.000	671.070	80.006	20.010	100.363	20.031	7.351	0.487
1235.499	671.341	80.006	20.010	100.355	20.031	7.299	0.448
1236.000	671.614	80.007	20.010	100.348	20.031	7.375	0.506
1236.500	671.887	80.005	20.009	100.348	20.029	7.646	0.545
1237.000	672.091	80.006	20.009	100.360	20.034	6.817	0.512
1237.500	672.316	80.005	20.009	100.371	20.033	6.998	0.454
1237.999	672.595	80.005	20.009	100.380	20.035	6.615	0.466
1238.499	672.853	80.006	20.010	100.385	20.033	6.991	0.520
1238.999	673.072	80.005	20.010	100.383	20.035	6.645	0.507
1239.499	673.386	80.005	20.010	100.372	20.033	6.912	0.505
1239.999	673.668	80.005	20.010	100.368	20.035	6.655	0.564
1240.500	673.847	80.006	20.010	100.369	20.032	7.073	0.529
1241.000	674.167	80.006	20.010	100.370	20.035	6.667	0.480
1241.499	674.393	80.005	20.010	100.375	20.036	6.567	0.523
1241.999	674.725	80.007	20.010	100.382	20.036	6.538	0.552
1242.500	674.942	80.007	20.010	100.381	20.032	7.076	0.553
1243.000	675.143	80.005	20.010	100.373	20.034	6.842	0.484
1243.500	675.397	80.007	20.010	100.370	20.037	6.400	0.436
1244.000	675.643	80.005	20.010	100.370	20.034	6.780	0.477
1244.500	675.867	80.005	20.010	100.370	20.037	6.439	0.485
1245.000	676.103	80.006	20.010	100.372	20.034	6.801	0.465
1245.499	676.424	80.005	20.010	100.377	20.034	6.810	0.509
1246.000	676.594	80.007	20.010	100.379	20.036	6.516	0.524
1246.500	676.840	80.006	20.010	100.377	20.036	6.566	0.453
1246.999	677.109	80.006	20.010	100.376	20.036	6.452	0.465
1247.499	677.292	80.005	20.010	100.374	20.036	6.522	0.483
1248.000	677.530	80.006	20.009	100.378	20.033	7.053	0.436
1248.500	677.872	80.006	20.010	100.380	20.036	6.558	0.501
1248.999	678.118	80.005	20.010	100.384	20.033	7.006	0.584
1249.499	678.341	80.007	20.010	100.385	20.032	7.115	0.528
1249.999	678.537	80.005	20.010	100.384	20.031	7.221	0.444
1250.499	678.813	80.006	20.010	100.382	20.034	6.828	0.446
1250.999	679.061	80.005	20.010	100.381	20.034	6.806	0.498
1251.499	679.344	80.006	20.010	100.377	20.034	6.908	0.528
1251.999	679.562	80.005	20.009	100.378	20.034	6.839	0.516
1252.499	679.802	80.006	20.010	100.379	20.035	6.743	0.480
1252.999	680.071	80.004	20.010	100.376	20.029	7.683	0.483
1253.500	680.294	80.006	20.010	100.369	20.029	7.547	0.500
1254.000	680.557	80.006	20.010	100.361	20.030	7.524	0.489
1254.500	680.822	80.005	20.010	100.353	20.030	7.379	0.507
1255.000	680.992	80.005	20.009	100.353	20.026	8.023	0.481
1255.499	681.290	80.006	20.010	100.357	20.027	7.937	0.452
1255.999	681.592	80.006	20.009	100.364	20.029	7.617	0.534
1256.500	681.808	80.006	20.009	100.368	20.027	7.995	0.559
1257.000	682.014	80.005	20.010	100.367	20.027	7.936	0.469
1257.499	682.295	80.006	20.010	100.354	20.027	7.847	0.454
1257.999	682.525	80.006	20.010	100.339	20.028	7.719	0.500
1258.499	682.833	80.006	20.010	100.330	20.029	7.601	0.525
1258.999	683.084	80.005	20.010	100.330	20.032	7.086	0.548
1259.499	683.267	80.007	20.010	100.338	20.029	7.601	0.496
1259.999	683.544	80.006	20.009	100.353	20.027	7.855	0.447
1260.499	683.808	80.004	20.010	100.365	20.028	7.778	0.500
1260.999	684.049	80.006	20.010	100.367	20.029	7.686	0.523
1261.499	684.288	80.006	20.010	100.363	20.027	7.855	0.493
1261.999	684.507	80.006	20.010	100.356	20.027	7.882	0.469
1262.499	684.830	80.007	20.010	100.352	20.027	7.949	0.501
1262.999	685.095	80.005	20.010	100.352	20.027	7.922	0.565
1263.499	685.330	80.006	20.010	100.359	20.031	7.344	0.544
1263.999	685.488	80.006	20.010	100.368	20.029	7.588	0.446
1264.500	685.847	80.005	20.009	100.371	20.029	7.614	0.455
1265.000	686.092	80.006	20.010	100.366	20.029	7.673	0.560
1265.499	686.321	80.005	20.010	100.359	20.027	7.848	0.539
1265.999	686.591	80.005	20.010	100.352	20.029	7.611	0.487
1266.499	686.884	80.005	20.010	100.344	20.029	7.549	0.531
1266.999	687.098	80.005	20.009	100.347	20.032	7.173	0.535
1267.499	687.316	80.004	20.009	100.352	20.028	7.830	0.469
1267.999	687.630	80.005	20.010	100.353	20.031	7.321	0.482
1268.499	687.875	80.005	20.010	100.352	20.032	7.216	0.546
1268.999	688.102	80.006	20.010	100.349	20.030	7.387	0.515
1269.500	688.397	80.005	20.010	100.341	20.029	7.533	0.497
1270.000	688.643	80.005	20.010	100.338	20.027	7.866	0.532
1270.499	688.923	80.006	20.009	100.345	20.032	7.179	0.533
1270.999	689.137	80.005	20.009	100.354	20.029	7.604	0.510
1271.499	689.402	80.006	20.010	100.362	20.026	8.092	0.486
1271.999	689.681	80.007	20.010	100.364	20.030	7.455	0.512
1272.500	689.896	80.004	20.010	100.362	20.028	7.802	0.519
1273.000	690.199	80.006	20.010	100.356	20.028	7.793	0.506
1273.500	690.400	80.004	20.009	100.349	20.029	7.582	0.512
1273.999	690.715	80.004	20.009	100.350	20.029	7.549	0.510
1274.499	690.940	80.005	20.009	100.358	20.029	7.575	0.527
1274.999	691.200	80.004	20.009	100.367	20.030	7.452	0.512
1275.499	691.483	80.004	20.009	100.374	20.032	7.069	0.514
1275.999	691.689	80.004	20.009	100.376	20.028	7.805	0.516
1276.499	691.946	80.005	20.010	100.368	20.030	7.387	0.476
1276.999	692.203	80.004	20.009	100.360	20.032	7.173	0.489
1277.499	692.509	80.005	20.010	100.353	20.030	7.391	0.539
1277.999	692.751	80.005	20.010	100.352	20.032	7.200	0.555
1278.499	692.986	80.005	20.009	100.357	20.030	7.484	0.513
1279.000	693.246	80.004	20.010	100.364	20.032	7.213	0.486
1279.500	693.520	80.006	20.010	100.370	20.026	8.037	0.514
1279.999	693.757	80.005	20.010	100.373	20.029	7.588	0.522
1280.499	694.046	80.005	20.010	100.372	20.027	7.885	0.519
1280.999	694.312	80.006	20.010	100.373	20.029	7.684	0.541
1281.499	694.538	80.003	20.010	100.374	20.026	8.064	0.523
1281.999	694.805	80.006	20.010	100.375	20.026	8.116	0.492
1282.499	695.071	80.004	20.010	100.378	20.027	7.983	0.513
1283.000	695.358	80.005	20.010	100.379	20.026	8.089	0.543
1283.500	695.573	80.005	20.010	100.370	20.026	8.059	0.528
1283.999	695.805	80.006	20.010	100.362	20.025	8.284	0.474
1284.499	696.141	80.005	20.010	100.354	20.029	7.644	0.507
1284.999	696.345	80.004	20.010	100.351	20.028	7.806	0.554
1285.499	696.573	80.005	20.010	100.356	20.027	7.968	0.486
1285.999	696.802	80.006	20.010	100.364	20.026	8.036	0.444
1286.499	697.144	80.004	20.010	100.372	20.028	7.840	0.514
1286.999	697.327	80.005	20.010	100.374	20.025	8.266	0.548
1287.499	697.569	80.006	20.010	100.370	20.025	8.275	0.475
1287.999	697.832	80.005	20.010	100.358	20.026	8.088	0.465
1288.499	698.089	80.006	20.011	100.351	20.025	8.227	0.513
1288.999	698.328	80.004	20.010	100.352	20.027	7.997	0.508
1289.499	698.657	80.006	20.010	100.364	20.026	8.053	0.532
1289.999	698.857	80.005	20.009	100.376	20.025	8.239	0.548
1290.499	699.136	80.005	20.010	100.385	20.024	8.453	0.504
1290.999	699.370	80.005	20.010	100.390	20.026	8.028	0.496
1291.499	699.649	80.006	20.010	100.389	20.025	8.161	0.513
1291.999	699.893	80.005	20.010	100.379	20.027	7.865	0.518
1292.499	700.100	80.005	20.010	100.369	20.028	7.829	0.487
1293.000	700.412	80.006	20.010	100.369	20.025	8.309	0.485
1293.500	700.611	80.006	20.010	100.370	20.028	7.787	0.514
1293.999	700.886	80.005	20.010	100.371	20.029	7.614	0.492
1294.499	701.108	80.005	20.010	100.371	20.024	8.344	0.486
1294.999	701.354	80.004	20.010	100.366	20.024	8.423	0.482
1295.500	701.613	80.006	20.010	100.357	20.026	8.103	0.486
1296.000	701.867	80.004	20.010	100.351	20.026	8.031	0.509
1296.499	702.042	80.004	20.009	100.350	20.024	8.414	0.471
1296.999	702.341	80.005	20.010	100.354	20.025	8.195	0.451
1297.499	702.570	80.005	20.010	100.363	20.027	7.891	0.501
1297.999	702.813	80.004	20.010	100.371	20.028	7.768	0.500
1298.499	703.124	80.005	20.010	100.369	20.028	7.818	0.513
1298.999	703.336	80.005	20.010	100.356	20.034	6.880	0.538
1299.499	703.577	80.005	20.010	100.343	20.026	8.063	0.488
1299.999	703.846	80.005	20.010	100.336	20.030	7.519	0.482
1300.499	704.126	80.005	20.010	100.332	20.027	7.879	0.530
1300.999	704.358	80.006	20.010	100.341	20.027	7.885	0.531
1301.500	704.578	80.005	20.010	100.354	20.028	7.749	0.482
1302.000	704.834	80.006	20.010	100.365	20.029	7.561	0.464
1302.500	705.129	80.006	20.010	100.366	20.032	7.099	0.514
1303.000	705.343	80.005	20.010	100.368	20.032	7.212	0.530
1303.500	705.554	80.006	20.010	100.370	20.034	6.840	0.467
1303.999	705.849	80.004	20.010	100.379	20.035	6.676	0.466
1304.499	706.134	80.005	20.010	100.389	20.033	6.993	0.543
1304.999	706.327	80.006	20.010	100.403	20.034	6.804	0.529
1305.499	706.615	80.005	20.010	100.413	20.035	6.622	0.480
1305.999	706.795	80.005	20.010	100.419	20.035	6.740	0.475
1306.499	707.060	80.004	20.010	100.413	20.037	6.410	0.457
1306.999	707.336	80.005	20.010	100.408	20.033	6.931	0.492
1307.499	707.506	80.005	20.010	100.407	20.035	6.624	0.493
1307.999	707.793	80.006	20.010	100.407	20.035	6.600	0.452
1308.499	708.129	80.006	20.010	100.407	20.033	7.021	0.540
1308.999	708.337	80.005	20.010	100.413	20.037	6.377	0.584
1309.499	708.543	80.006	20.010	100.414	20.035	6.614	0.479
1310.000	708.794	80.005	20.010	100.406	20.034	6.769	0.435
1310.500	709.071	80.006	20.010	100.398	20.033	7.036	0.493
1311.000	709.295	80.005	20.010	100.392	20.034	6.829	0.514
1311.500	709.536	80.005	20.010	100.392	20.032	7.176	0.483
1311.999	709.843	80.006	20.010	100.396	20.033	6.921	0.506
1312.499	710.052	80.004	20.010	100.404	20.037	6.347	0.532
1312.999	710.313	80.005	20.010	100.413	20.036	6.557	0.493
1313.499	710.572	80.004	20.010	100.413	20.034	6.831	0.495
1314.000	710.831	80.007	20.010	100.406	20.036	6.462	0.519
1314.500	711.025	80.005	20.010	100.400	20.035	6.703	0.486
1314.999	711.397	80.006	20.010	100.402	20.038	6.281	0.510
1315.499	711.530	80.006	20.010	100.406	20.037	6.295	0.536
1315.999	711.825	80.006	20.010	100.421	20.041	5.710	0.467
1316.499	711.976	80.004	20.010	100.434	20.039	6.053	0.437
1316.999	712.255	80.004	20.010	100.441	20.040	5.947	0.438
1317.499	712.570	80.005	20.010	100.440	20.036	6.554	0.512
1317.999	712.767	80.004	20.010	100.435	20.041	5.789	0.553
1318.499	713.071	80.006	20.010	100.428	20.041	5.759	0.506
1318.999	713.334	80.004	20.010	100.422	20.038	6.202	0.534
1319.499	713.594	80.006	20.010	100.421	20.034	6.886	0.546
1320.000	713.854	80.005	20.010	100.416	20.033	7.034	0.521
1320.500	714.098	80.005	20.010	100.407	20.034	6.875	0.512
1321.000	714.366	80.005	20.010	100.394	20.033	6.938	0.508
1321.500	714.615	80.006	20.010	100.379	20.034	6.783	0.515
1321.999	714.836	80.004	20.010	100.363	20.029	7.535	0.493
1322.499	715.103	80.005	20.010	100.355	20.030	7.506	0.479
1322.999	715.384	80.005	20.010	100.354	20.028	7.803	0.518
1323.500	715.634	80.004	20.010	100.359	20.027	7.995	0.540
1324.000	715.945	80.007	20.010	100.365	20.027	7.932	0.546
1324.499	716.223	80.005	20.010	100.368	20.027	7.888	0.575
1324.999	716.462	80.005	20.010	100.366	20.026	8.119	0.553
1325.499	716.694	80.005	20.010	100.358	20.024	8.449	0.494
1325.999	716.944	80.003	20.010	100.349	20.023	8.535	0.477
1326.499	717.141	80.006	20.010	100.349	20.023	8.575	0.464
1326.999	717.453	80.004	20.010	100.354	20.025	8.219	0.477
1327.499	717.636	80.005	20.010	100.362	20.026	8.117	0.502
1327.999	717.981	80.004	20.010	100.370	20.024	8.449	0.512
1328.499	718.249	80.004	20.010	100.375	20.022	8.759	0.570
1328.999	718.470	80.005	20.010	100.369	20.024	8.428	0.551
1329.500	718.643	80.004	20.010	100.361	20.024	8.375	0.442
1330.000	718.964	80.005	20.010	100.355	20.025	8.171	0.444
1330.499	719.228	80.005	20.010	100.355	20.023	8.473	0.539
1330.999	719.481	80.004	20.010	100.357	20.022	8.711	0.551
1331.499	719.725	80.005	20.009	100.364	20.021	8.808	0.507
1331.999	720.020	80.006	20.010	100.372	20.022	8.752	0.518
1332.499	720.245	80.005	20.011	100.376	20.020	9.088	0.530
1333.000	720.518	80.005	20.011	100.370	20.024	8.424	0.509
1333.500	720.742	80.003	20.011	100.364	20.021	8.834	0.498
1333.999	721.060	80.005	20.010	100.363	20.022	8.672	0.519
1334.499	721.295	80.004	20.010	100.363	20.020	9.012	0.547
1334.999	721.509	80.004	20.010	100.365	20.021	8.824	0.501
1335.500	721.723	80.004	20.010	100.370	20.021	8.849	0.439
1336.000	721.984	80.006	20.010	100.377	20.024	8.466	0.451
1336.500	722.239	80.005	20.010	100.375	20.021	8.898	0.495
1336.999	722.514	80.005	20.011	100.369	20.023	8.539	0.523
1337.499	722.813	80.005	20.011	100.361	20.021	8.925	0.552
1337.999	723.011	80.004	20.011	100.354	20.022	8.643	0.536
1338.499	723.307	80.004	20.010	100.354	20.021	8.782	0.496
1338.999	723.528	80.004	20.010	100.356	20.023	8.515	0.505
1339.500	723.776	80.006	20.011	100.363	20.020	8.980	0.493
1340.000	724.044	80.005	20.010	100.371	20.023	8.533	0.493
1340.499	724.292	80.004	20.010	100.372	20.023	8.536	0.516
1340.999	724.559	80.004	20.010	100.364	20.019	9.133	0.515
1341.499	724.764	80.005	20.011	100.356	20.021	8.932	0.493
1342.000	725.027	80.005	20.011	100.348	20.022	8.685	0.470
1342.500	725.351	80.004	20.010	100.346	20.023	8.563	0.528
1342.999	725.642	80.005	20.010	100.356	20.020	8.989	0.601
1343.499	725.919	80.005	20.010	100.367	20.022	8.757	0.592
1343.999	726.072	80.004	20.010	100.376	20.022	8.746	0.499
1344.499	726.335	80.006	20.011	100.384	20.021	8.805	0.422
1345.000	726.683	80.004	20.011	100.386	20.020	8.992	0.513
1345.500	726.897	80.006	20.011	100.383	20.024	8.372	0.587
1345.999	727.203	80.005	20.010	100.380	20.019	9.172	0.541
1346.499	727.404	80.005	20.010	100.380	20.021	8.912	0.513
1346.999	727.659	80.005	20.010	100.380	20.021	8.826	0.482
1347.500	727.911	80.004	20.010	100.380	20.022	8.738	0.482
1348.000	728.121	80.005	20.010	100.379	20.021	8.806	0.484
1348.499	728.379	80.006	20.011	100.372	20.024	8.338	0.465
1348.999	728.682	80.005	20.010	100.367	20.023	8.526	0.515
1349.499	728.951	80.005	20.011	100.365	20.024	8.387	0.567
1349.999	729.150	80.005	20.010	100.365	20.025	8.196	0.520
1350.499	729.438	80.005	20.010	100.371	20.021	8.933	0.477
1350.999	729.700	80.004	20.010	100.384	20.022	8.714	0.518
1351.500	730.042	80.005	20.010	100.393	20.023	8.542	0.577
1352.000	730.235	80.006	20.010	100.395	20.022	8.710	0.569
1352.500	730.526	80.005	20.011	100.390	20.025	8.198	0.510
1353.000	730.683	80.006	20.010	100.378	20.024	8.347	0.466
1353.499	730.960	80.005	20.011	100.370	20.023	8.618	0.441
1353.999	731.247	80.006	20.010	100.366	20.020	9.025	0.499
1354.500	731.535	80.006	20.010	100.372	20.022	8.659	0.569
1355.000	731.790	80.006	20.010	100.376	20.021	8.912	0.559
1355.500	732.050	80.005	20.010	100.382	20.018	9.377	0.529
1355.999	732.283	80.005	20.010	100.379	20.024	8.373	0.504
1356.500	732.562	80.004	20.010	100.371	20.021	8.884	0.503
1357.000	732.792	80.005	20.010	100.358	20.023	8.495	0.511
1357.500	733.085	80.005	20.010	100.350	20.022	8.751	0.516
1357.999	733.252	80.005	20.010	100.345	20.024	8.365	0.491
1358.500	733.635	80.005	20.010	100.349	20.020	8.970	0.504
1359.000	733.838	80.005	20.010	100.357	20.023	8.616	0.568
1359.499	734.074	80.005	20.010	100.366	20.022	8.655	0.513
1359.999	734.404	80.005	20.010	100.373	20.022	8.700	0.502
1360.499	734.559	80.006	20.010	100.378	20.023	8.531	0.526
1360.999	734.894	80.004	20.010	100.370	20.021	8.920	0.488
1361.500	735.186	80.004	20.010	100.369	20.021	8.872	0.559
1362.000	735.353	80.003	20.010	100.368	20.021	8.787	0.542
1362.500	735.623	80.005	20.010	100.369	20.022	8.705	0.448
1362.999	735.985	80.005	20.010	100.371	20.022	8.751	0.535
1363.500	736.260	80.004	20.010	100.378	20.024	8.328	0.635
1364.000	736.491	80.005	20.010	100.375	20.024	8.410	0.572
1364.500	736.757	80.004	20.011	100.367	20.021	8.885	0.502
1365.000	736.988	80.005	20.010	100.361	20.021	8.852	0.497
1365.499	737.275	80.004	20.010	100.361	20.023	8.526	0.507
1366.000	737.572	80.005	20.010	100.362	20.020	9.038	0.551
1366.500	737.786	80.005	20.010	100.367	20.019	9.111	0.547
1367.000	738.168	80.005	20.010	100.375	20.020	8.986	0.554
1367.500	738.359	80.004	20.011	100.381	20.021	8.801	0.585
1367.999	738.618	80.006	20.010	100.374	20.020	9.012	0.511
1368.499	738.844	80.005	20.010	100.366	20.022	8.656	0.467
1369.000	739.168	80.005	20.011	100.358	20.022	8.706	0.518
1369.500	739.458	80.006	20.010	100.357	20.018	9.290	0.582
1369.999	739.656	80.005	20.010	100.360	20.020	8.980	0.551
1370.499	739.981	80.005	20.010	100.373	20.020	9.066	0.505
1370.999	740.149	80.004	20.010	100.383	20.020	9.015	0.508
1371.499	740.424	80.006	20.010	100.389	20.021	8.843	0.469
1371.999	740.733	80.004	20.010	100.383	20.021	8.820	0.513
1372.499	740.962	80.005	20.010	100.373	20.019	9.153	0.561
1372.999	741.244	80.005	20.010	100.358	20.021	8.787	0.525
1373.499	741.477	80.006	20.010	100.351	20.023	8.530	0.513
1373.999	741.803	80.004	20.010	100.351	20.019	9.234	0.537
1374.499	742.095	80.007	20.010	100.360	20.018	9.263	0.588
1374.999	742.318	80.005	20.010	100.369	20.023	8.568	0.566
