Sample Weight (mg):	1.01
Heating Rate (C/s):	0.5
Combustor Temp (C):	900
N2 Flow Rate (cc/min):	80
O2 Flow Rate (cc/min):	20
Time (s)	Temperature (C)	N2 flow rate (cc/min)	O2 flow rate (cc/min)	Flow Rate (cc/min)	Oxygen (%)	HRR (W/g)	Heating rate (C/s)
0.000	90.472	79.998	20.008	99.709	20.134	-4.326	-0.071
0.499	90.398	79.996	20.008	99.717	20.134	-4.209	-0.070
1.000	90.419	79.998	20.008	99.726	20.133	-3.953	-0.062
1.500	90.337	79.996	20.008	99.734	20.133	-3.986	-0.057
2.000	90.333	79.996	20.008	99.743	20.134	-4.163	-0.073
2.500	90.307	79.997	20.008	99.741	20.129	-2.611	-0.058
3.000	90.242	79.996	20.008	99.734	20.130	-2.899	-0.061
3.500	90.197	79.998	20.007	99.733	20.128	-2.474	-0.100
3.999	90.153	80.002	20.012	99.734	20.124	-1.171	-0.100
4.499	90.066	80.001	20.011	99.736	20.120	-0.039	-0.110
4.999	90.088	79.999	20.008	99.744	20.115	1.617	-0.098
5.499	90.008	80.000	20.009	99.754	20.111	2.913	-0.062
5.999	89.938	80.002	20.009	99.765	20.108	3.817	-0.104
6.500	89.894	80.000	20.009	99.792	20.103	5.388	-0.132
7.000	89.827	80.000	20.009	99.838	20.100	6.206	-0.113
7.499	89.784	80.000	20.009	99.902	20.096	7.580	-0.111
7.999	89.743	80.002	20.009	99.974	20.091	9.165	-0.097
8.499	89.669	80.000	20.009	100.042	20.086	10.520	-0.099
8.999	89.626	80.001	20.010	100.094	20.086	10.475	-0.116
9.499	89.622	80.000	20.009	100.132	20.080	12.570	-0.082
10.000	89.530	80.001	20.009	100.160	20.078	12.982	-0.072
10.500	89.498	80.002	20.008	100.184	20.075	13.983	-0.110
10.999	89.445	80.003	20.009	100.207	20.074	14.178	-0.105
11.499	89.400	80.000	20.009	100.229	20.073	14.773	-0.091
11.999	89.353	80.002	20.009	100.247	20.068	16.115	-0.095
12.499	89.237	80.001	20.010	100.258	20.066	16.724	-0.127
12.999	89.257	80.001	20.009	100.263	20.066	16.941	-0.130
13.499	89.188	80.000	20.009	100.264	20.062	18.081	-0.073
13.999	89.168	80.002	20.009	100.264	20.062	18.070	-0.068
14.499	89.138	80.000	20.009	100.265	20.061	18.255	-0.069
15.000	89.081	80.001	20.009	100.265	20.058	19.411	-0.069
15.500	89.024	80.001	20.009	100.259	20.059	18.974	-0.101
15.999	88.994	80.000	20.009	100.251	20.058	19.218	-0.100
16.499	88.964	80.001	20.009	100.248	20.058	19.159	-0.074
16.999	88.931	80.002	20.010	100.247	20.054	20.405	-0.062
17.499	88.899	80.000	20.009	100.250	20.053	20.696	-0.064
17.999	88.906	80.001	20.009	100.262	20.051	21.394	-0.045
18.499	88.892	79.999	20.009	100.278	20.050	21.692	-0.016
18.999	88.861	80.001	20.009	100.286	20.051	21.315	-0.026
19.499	88.846	80.001	20.009	100.285	20.048	22.334	-0.045
19.999	88.785	80.001	20.009	100.283	20.044	23.714	-0.061
20.499	88.755	80.001	20.009	100.279	20.047	22.729	-0.084
20.999	88.705	80.002	20.009	100.279	20.043	24.006	-0.086
21.499	88.762	80.000	20.009	100.284	20.042	24.092	-0.036
21.999	88.681	80.000	20.009	100.291	20.041	24.414	-0.008
22.499	88.686	80.002	20.009	100.292	20.038	25.583	-0.050
22.999	88.644	80.001	20.009	100.288	20.036	25.997	-0.057
23.499	88.657	80.001	20.009	100.279	20.036	25.985	-0.033
23.999	88.628	80.001	20.009	100.272	20.038	25.550	-0.022
24.499	88.606	80.001	20.008	100.268	20.034	26.819	-0.033
25.000	88.592	80.000	20.009	100.269	20.033	27.112	-0.044
25.500	88.563	80.002	20.010	100.269	20.033	27.131	-0.040
26.000	88.593	80.001	20.009	100.275	20.031	27.696	-0.021
26.500	88.539	80.001	20.009	100.281	20.027	28.966	-0.011
27.000	88.567	80.001	20.009	100.293	20.026	29.187	-0.025
27.499	88.696	80.001	20.009	100.305	20.023	30.194	0.065
28.000	88.591	80.001	20.009	100.320	20.024	29.977	0.091
28.500	88.563	80.001	20.009	100.330	20.021	30.911	-0.054
29.000	88.556	80.002	20.009	100.339	20.022	30.422	-0.084
29.499	88.582	80.000	20.009	100.339	20.020	31.073	-0.008
30.000	88.616	80.001	20.010	100.345	20.018	31.588	0.039
30.500	88.587	80.002	20.009	100.359	20.016	32.448	0.032
30.999	88.651	80.000	20.009	100.375	20.014	32.861	0.020
31.500	88.609	80.002	20.009	100.390	20.013	33.361	0.028
32.000	88.664	79.999	20.007	100.408	20.012	33.455	0.018
32.499	88.725	80.001	20.009	100.448	20.013	33.173	0.065
33.000	88.725	80.000	20.011	100.407	20.010	34.171	0.089
33.500	88.724	80.002	20.009	100.367	20.011	33.888	0.030
33.999	88.751	80.001	20.007	100.340	20.010	34.240	0.012
34.499	88.811	80.002	20.010	100.314	20.009	34.534	0.056
35.000	88.812	80.002	20.010	100.241	20.008	34.685	0.074
35.500	88.876	80.000	20.007	100.309	20.008	34.824	0.063
35.999	88.895	80.000	20.007	100.389	20.010	34.096	0.074
36.499	88.920	80.002	20.008	100.443	20.009	34.622	0.063
36.999	88.964	80.001	20.010	100.485	20.005	35.901	0.056
37.500	89.033	80.000	20.009	100.545	20.004	36.149	0.091
38.001	89.070	80.001	20.009	100.536	20.005	35.643	0.109
38.500	89.107	80.001	20.009	100.511	20.005	35.846	0.090
38.999	89.170	80.002	20.010	100.491	20.004	36.168	0.087
39.499	89.248	79.998	20.009	100.480	20.004	36.143	0.121
39.999	89.309	80.000	20.009	100.472	20.001	37.047	0.140
40.499	89.318	80.002	20.010	100.465	20.002	36.703	0.104
40.999	89.451	80.001	20.009	100.463	20.001	36.885	0.106
41.499	89.505	80.000	20.009	100.470	20.001	37.062	0.165
41.999	89.558	80.001	20.009	100.479	19.999	37.593	0.147
42.499	89.612	80.000	20.009	100.487	19.998	37.947	0.107
43.000	89.725	80.001	20.009	100.495	19.998	38.084	0.137
43.500	89.740	80.001	20.009	100.497	19.997	38.278	0.148
44.000	89.854	80.001	20.010	100.497	19.996	38.476	0.129
44.501	89.910	80.001	20.009	100.501	19.993	39.441	0.150
45.001	90.015	80.001	20.009	100.508	19.996	38.481	0.166
45.500	90.138	80.000	20.009	100.508	19.996	38.671	0.194
45.999	90.158	80.001	20.009	100.509	19.994	39.224	0.185
46.499	90.247	80.002	20.009	100.508	19.994	39.148	0.126
46.999	90.356	80.001	20.009	100.502	19.994	39.190	0.154
47.499	90.446	80.002	20.009	100.496	19.992	39.787	0.198
48.000	90.578	80.001	20.009	100.498	19.995	38.816	0.211
48.500	90.671	80.002	20.009	100.501	19.997	38.377	0.224
48.999	90.737	80.001	20.009	100.502	19.994	39.159	0.192
49.499	90.835	80.001	20.009	100.504	19.994	39.214	0.161
49.999	90.938	80.002	20.009	100.504	19.994	39.301	0.183
50.499	91.116	80.000	20.010	100.501	19.993	39.445	0.241
50.999	91.184	80.002	20.009	100.499	19.998	38.013	0.263
51.499	91.292	80.001	20.009	100.498	19.997	38.241	0.211
51.999	91.435	80.001	20.009	100.500	19.997	38.188	0.213
52.499	91.478	80.003	20.009	100.501	19.996	38.596	0.218
53.000	91.652	80.002	20.009	100.498	19.996	38.469	0.201
53.500	91.737	80.002	20.010	100.491	19.997	38.146	0.238
53.999	91.855	80.000	20.009	100.486	19.998	37.972	0.231
54.499	91.985	80.002	20.010	100.485	19.997	38.400	0.226
54.999	92.134	80.001	20.009	100.484	19.998	37.869	0.263
55.499	92.223	80.002	20.009	100.483	20.000	37.423	0.258
55.999	92.363	80.001	20.009	100.483	19.998	37.898	0.233
56.499	92.491	80.001	20.009	100.475	19.998	37.959	0.249
56.999	92.592	80.001	20.010	100.462	20.000	37.414	0.249
57.499	92.748	80.000	20.010	100.447	20.002	36.783	0.243
58.000	92.875	80.002	20.009	100.441	20.000	37.260	0.270
58.501	93.025	80.001	20.009	100.440	19.999	37.672	0.280
59.000	93.127	80.001	20.009	100.445	19.997	38.308	0.265
59.499	93.211	80.000	20.009	100.452	19.996	38.526	0.219
59.999	93.379	80.002	20.009	100.458	19.997	38.180	0.219
60.499	93.523	80.001	20.009	100.459	19.997	38.127	0.281
60.999	93.693	80.001	20.009	100.458	19.996	38.606	0.313
61.499	93.772	80.001	20.009	100.459	19.999	37.739	0.282
61.999	93.949	80.002	20.009	100.464	19.998	38.081	0.253
62.499	94.102	80.001	20.009	100.470	19.997	38.273	0.293
62.999	94.219	80.001	20.009	100.473	19.995	38.729	0.300
63.499	94.334	80.001	20.009	100.475	19.996	38.522	0.251
64.000	94.509	80.000	20.010	100.469	19.997	38.366	0.261
64.500	94.686	80.000	20.009	100.463	19.997	38.148	0.321
64.999	94.812	80.001	20.009	100.461	19.994	39.057	0.327
65.499	94.964	80.000	20.009	100.466	19.996	38.476	0.291
65.999	95.129	80.002	20.009	100.477	19.992	39.819	0.298
66.499	95.254	80.000	20.009	100.490	19.993	39.345	0.303
66.999	95.434	80.000	20.010	100.499	19.992	39.660	0.297
67.499	95.595	80.001	20.009	100.503	19.994	39.082	0.323
67.999	95.731	80.000	20.009	100.503	19.991	40.013	0.319
68.499	95.882	80.002	20.009	100.505	19.992	39.901	0.292
68.999	96.055	80.000	20.009	100.510	19.992	39.712	0.305
69.499	96.254	80.001	20.009	100.515	19.991	39.990	0.348
70.000	96.384	80.003	20.009	100.514	19.993	39.652	0.351
70.500	96.500	80.001	20.009	100.513	19.992	39.753	0.288
70.999	96.678	80.000	20.010	100.507	19.993	39.366	0.270
71.499	96.917	80.001	20.009	100.503	19.996	38.694	0.355
71.999	97.034	80.000	20.009	100.501	19.995	38.993	0.386
72.499	97.238	80.001	20.009	100.505	19.992	39.708	0.339
72.999	97.420	80.001	20.009	100.510	19.995	38.836	0.353
73.499	97.613	80.000	20.009	100.510	19.995	38.962	0.380
74.000	97.787	80.001	20.009	100.509	19.992	39.848	0.371
74.501	98.001	80.000	20.009	100.507	19.992	39.841	0.378
75.000	98.121	80.000	20.010	100.508	19.991	40.225	0.361
75.499	98.334	80.001	20.009	100.513	19.990	40.445	0.333
75.999	98.523	80.001	20.009	100.522	19.992	39.913	0.367
76.499	98.725	80.000	20.008	100.528	19.990	40.326	0.397
76.999	98.899	80.002	20.008	100.535	19.992	39.841	0.384
77.499	99.088	80.001	20.008	100.529	19.991	40.017	0.369
77.999	99.273	80.001	20.009	100.521	19.992	39.889	0.369
78.499	99.488	80.000	20.009	100.512	19.993	39.383	0.387
78.999	99.675	80.001	20.008	100.507	19.994	39.101	0.401
79.500	99.865	80.001	20.009	100.502	19.992	39.922	0.389
80.000	100.080	80.000	20.009	100.503	19.994	39.327	0.391
80.499	100.264	80.001	20.009	100.502	19.991	40.202	0.402
81.000	100.501	80.001	20.009	100.500	19.993	39.577	0.409
81.501	100.661	80.001	20.010	100.498	19.991	40.042	0.409
82.000	100.884	80.001	20.009	100.501	19.990	40.501	0.390
82.499	101.089	80.002	20.009	100.508	19.994	39.169	0.406
82.999	101.282	80.001	20.009	100.517	19.991	40.062	0.413
83.499	101.492	80.002	20.009	100.523	19.990	40.457	0.400
83.999	101.716	80.002	20.010	100.522	19.991	40.107	0.419
84.499	101.899	80.002	20.009	100.516	19.995	38.923	0.421
84.999	102.165	80.000	20.009	100.509	19.993	39.412	0.428
85.499	102.349	80.000	20.009	100.509	19.993	39.510	0.449
85.999	102.509	80.001	20.009	100.510	19.991	40.022	0.397
86.499	102.774	80.001	20.009	100.513	19.994	39.074	0.384
87.000	103.014	80.001	20.009	100.513	19.995	38.966	0.465
87.500	103.284	80.002	20.009	100.512	19.992	39.892	0.507
87.999	103.444	80.000	20.009	100.504	19.993	39.576	0.470
88.500	103.658	80.000	20.009	100.498	19.993	39.352	0.402
89.000	103.901	80.001	20.008	100.496	19.995	38.853	0.416
89.500	104.082	80.001	20.009	100.496	19.993	39.522	0.440
90.001	104.344	80.000	20.009	100.497	19.991	40.186	0.434
90.500	104.611	80.002	20.009	100.493	19.990	40.310	0.486
90.999	104.795	80.000	20.009	100.486	19.994	39.252	0.490
91.499	105.005	80.002	20.009	100.483	19.991	40.084	0.422
91.999	105.240	80.001	20.009	100.484	19.991	40.097	0.420
92.499	105.478	80.001	20.009	100.486	19.992	39.842	0.459
92.999	105.717	80.001	20.009	100.489	19.989	40.775	0.475
93.499	105.935	80.001	20.009	100.496	19.992	39.820	0.467
94.000	106.214	80.000	20.009	100.493	19.988	40.956	0.477
94.500	106.442	80.001	20.009	100.491	19.990	40.352	0.502
94.999	106.672	80.001	20.009	100.490	19.990	40.503	0.482
95.499	106.908	80.000	20.009	100.490	19.986	41.622	0.462
95.999	107.143	80.002	20.009	100.492	19.990	40.477	0.469
96.499	107.399	80.001	20.008	100.496	19.986	41.697	0.481
96.999	107.609	79.999	20.009	100.489	19.989	40.707	0.478
97.500	107.856	80.001	20.009	100.481	19.986	41.683	0.461
98.000	108.142	80.001	20.009	100.474	19.990	40.506	0.495
98.499	108.372	79.999	20.009	100.473	19.992	39.936	0.525
99.000	108.578	80.002	20.009	100.474	19.991	40.189	0.476
99.500	108.847	80.001	20.009	100.482	19.985	41.858	0.455
99.999	109.081	80.002	20.009	100.490	19.983	42.463	0.489
100.499	109.405	80.001	20.009	100.493	19.987	41.419	0.531
100.999	109.625	80.002	20.009	100.489	19.989	40.622	0.551
101.499	109.935	80.001	20.009	100.487	19.987	41.294	0.537
101.999	110.122	80.000	20.009	100.485	19.990	40.290	0.514
102.499	110.392	80.001	20.009	100.486	19.989	40.670	0.477
102.999	110.670	80.002	20.009	100.490	19.988	41.136	0.502
103.499	110.913	80.001	20.009	100.489	19.990	40.382	0.535
104.000	111.168	80.002	20.009	100.482	19.988	41.097	0.510
104.500	111.450	80.001	20.009	100.480	19.989	40.649	0.518
105.000	111.752	80.001	20.009	100.480	19.991	40.171	0.560
105.500	111.955	80.000	20.009	100.481	19.988	40.915	0.544
105.999	112.224	80.001	20.009	100.487	19.992	39.769	0.488
106.499	112.481	80.002	20.009	100.494	19.992	39.691	0.499
106.999	112.775	80.001	20.009	100.495	19.991	40.117	0.538
107.500	112.990	80.002	20.009	100.494	19.993	39.617	0.530
108.001	113.231	80.000	20.009	100.496	19.992	39.706	0.483
108.500	113.548	80.002	20.009	100.503	19.993	39.461	0.507
108.999	113.866	80.002	20.009	100.511	19.993	39.562	0.596
109.499	114.066	79.999	20.009	100.512	19.994	39.045	0.576
109.999	114.316	80.002	20.009	100.513	19.996	38.539	0.484
110.500	114.642	80.001	20.009	100.510	19.997	38.276	0.514
111.000	114.905	80.002	20.009	100.502	19.993	39.384	0.583
111.499	115.082	80.003	20.009	100.504	19.995	39.001	0.514
112.000	115.502	79.999	20.008	100.513	19.994	39.092	0.518
112.500	115.743	80.003	20.009	100.520	19.996	38.574	0.629
112.999	115.923	80.001	20.009	100.522	19.997	38.128	0.541
113.499	116.216	80.002	20.009	100.521	19.995	38.941	0.447
113.999	116.796	80.002	20.009	100.513	19.994	39.227	0.673
114.499	117.216	80.002	20.009	100.505	19.997	38.391	0.936
114.999	117.385	80.001	20.008	100.503	19.995	38.749	0.794
115.499	117.235	79.999	20.009	100.503	19.997	38.218	0.304
116.000	117.717	80.002	20.008	100.503	19.993	39.446	0.175
116.500	117.965	80.002	20.008	100.504	19.997	38.098	0.531
116.999	118.224	80.000	20.010	100.503	19.997	38.251	0.619
117.499	118.584	80.000	20.009	100.498	19.996	38.519	0.563
117.999	118.753	80.001	20.009	100.501	19.995	38.889	0.574
118.499	118.704	80.001	20.009	100.508	19.997	38.269	0.325
118.999	119.298	80.000	20.008	100.514	19.992	39.821	0.332
119.499	119.686	80.002	20.009	100.515	19.998	38.059	0.763
119.999	119.865	80.001	20.009	100.514	19.998	37.970	0.775
120.499	120.175	80.000	20.009	100.510	19.997	38.228	0.528
120.999	120.410	80.002	20.009	100.503	19.997	38.235	0.517
121.500	120.705	80.002	20.009	100.499	19.997	38.234	0.538
122.000	121.022	80.000	20.009	100.503	19.997	38.132	0.571
122.500	121.287	80.001	20.009	100.507	19.998	38.058	0.597
123.001	121.571	80.001	20.009	100.506	20.001	37.100	0.565
123.501	121.901	80.001	20.009	100.504	19.998	37.900	0.581
124.001	122.224	80.001	20.009	100.501	20.001	36.983	0.633
124.500	122.496	80.001	20.009	100.496	20.000	37.200	0.624
124.999	122.766	80.001	20.009	100.494	20.003	36.368	0.569
125.499	123.091	80.000	20.009	100.493	20.001	37.067	0.569
125.999	123.374	80.002	20.008	100.496	19.999	37.442	0.601
126.499	123.604	80.002	20.009	100.493	20.000	37.390	0.560
127.000	124.000	79.999	20.009	100.486	20.000	37.277	0.569
127.501	124.248	80.000	20.009	100.478	20.001	36.868	0.635
128.000	124.602	80.001	20.009	100.472	20.000	37.407	0.623
128.500	124.731	80.001	20.009	100.472	20.001	37.049	0.543
129.000	125.235	80.002	20.008	100.477	20.002	36.576	0.558
129.500	125.526	80.001	20.009	100.485	20.001	37.077	0.714
130.000	125.656	80.002	20.009	100.489	20.001	36.914	0.608
130.500	125.987	80.000	20.009	100.487	20.001	36.912	0.442
131.000	126.222	80.002	20.009	100.479	20.004	36.084	0.514
131.500	126.755	80.001	20.009	100.469	20.002	36.652	0.667
132.000	126.937	79.999	20.008	100.463	20.000	37.182	0.741
132.500	127.596	80.001	20.009	100.467	20.000	37.271	0.777
133.000	127.815	80.002	20.008	100.475	20.002	36.621	0.859
133.500	127.784	79.998	20.008	100.481	20.002	36.733	0.534
134.000	128.030	80.001	20.008	100.482	20.003	36.498	0.202
134.500	128.277	80.001	20.010	100.479	20.005	35.606	0.354
135.000	128.745	80.001	20.008	100.471	20.003	36.304	0.604
135.500	128.929	80.002	20.008	100.465	20.002	36.764	0.683
136.000	129.103	80.001	20.008	100.463	20.002	36.609	0.505
136.500	129.523	80.001	20.008	100.465	20.001	36.861	0.476
137.000	129.843	79.997	20.011	100.466	20.000	37.175	0.667
137.500	130.114	80.003	20.008	100.505	20.003	36.428	0.665
138.000	130.403	80.001	20.014	100.472	20.001	37.097	0.575
138.500	130.710	80.002	20.010	100.427	20.002	36.605	0.578
139.000	130.994	80.001	20.009	100.397	20.001	36.808	0.594
139.500	131.328	80.003	20.005	100.381	20.007	35.170	0.604
140.000	131.623	79.999	20.014	100.289	20.009	34.627	0.624
140.500	131.895	80.002	20.008	100.315	20.009	34.399	0.598
141.000	132.226	80.000	20.007	100.391	20.008	34.769	0.585
141.500	132.498	80.001	20.008	100.450	20.010	34.172	0.603
142.000	132.810	80.000	20.009	100.483	20.012	33.451	0.594
142.500	133.097	80.001	20.009	100.543	20.008	34.643	0.591
143.000	133.393	80.000	20.009	100.548	20.012	33.549	0.591
143.500	133.669	80.000	20.009	100.507	20.009	34.370	0.577
144.000	133.969	80.001	20.009	100.467	20.010	34.150	0.574
144.500	134.300	80.001	20.009	100.440	20.009	34.498	0.604
145.000	134.581	80.001	20.009	100.420	20.010	34.236	0.621
145.500	134.864	80.000	20.009	100.412	20.013	33.212	0.588
146.000	135.167	80.001	20.008	100.410	20.013	33.282	0.575
146.500	135.444	80.000	20.009	100.412	20.010	34.263	0.583
147.000	135.776	80.000	20.009	100.414	20.012	33.538	0.595
147.500	136.015	80.000	20.009	100.412	20.012	33.434	0.590
148.000	136.338	80.001	20.009	100.402	20.012	33.420	0.566
148.500	136.594	80.001	20.009	100.388	20.013	33.235	0.570
149.000	136.875	80.001	20.009	100.376	20.013	33.253	0.558
149.500	137.205	80.002	20.009	100.367	20.015	32.622	0.574
150.000	137.432	80.000	20.009	100.366	20.015	32.550	0.584
150.500	137.783	80.000	20.009	100.366	20.015	32.722	0.568
151.000	138.021	80.002	20.008	100.368	20.012	33.575	0.583
151.500	138.335	80.000	20.009	100.365	20.014	33.071	0.570
152.000	138.585	80.001	20.009	100.365	20.014	33.069	0.558
152.500	138.883	80.000	20.009	100.366	20.012	33.512	0.556
153.000	139.161	80.002	20.008	100.368	20.012	33.504	0.562
153.500	139.436	80.001	20.009	100.373	20.012	33.563	0.565
154.000	139.747	80.000	20.009	100.379	20.012	33.577	0.569
154.500	140.064	80.001	20.009	100.378	20.010	34.155	0.607
155.000	140.334	80.001	20.009	100.377	20.011	33.914	0.608
155.500	140.611	80.000	20.009	100.375	20.015	32.766	0.567
156.000	140.926	80.001	20.009	100.377	20.012	33.544	0.569
156.500	141.219	80.000	20.008	100.383	20.011	33.792	0.599
157.000	141.448	80.001	20.008	100.390	20.012	33.576	0.565
157.500	141.755	80.000	20.009	100.391	20.009	34.554	0.529
158.000	142.022	80.000	20.009	100.392	20.010	34.019	0.555
158.500	142.278	80.000	20.009	100.387	20.009	34.433	0.549
159.000	142.593	80.000	20.009	100.380	20.011	33.763	0.547
159.500	142.889	80.000	20.008	100.377	20.010	34.081	0.591
160.000	143.176	80.000	20.008	100.383	20.013	33.386	0.597
160.500	143.425	80.001	20.009	100.384	20.012	33.655	0.559
161.000	143.740	80.002	20.009	100.383	20.012	33.682	0.550
161.500	144.039	80.000	20.009	100.377	20.013	33.291	0.589
162.000	144.305	80.000	20.009	100.373	20.011	33.784	0.590
162.500	144.570	80.000	20.009	100.367	20.013	33.337	0.548
163.000	144.874	80.001	20.009	100.367	20.010	34.172	0.550
163.500	145.107	80.001	20.008	100.371	20.014	33.011	0.553
164.000	145.471	80.000	20.009	100.377	20.011	33.781	0.567
164.500	145.692	80.000	20.009	100.377	20.014	32.994	0.591
165.000	145.946	80.000	20.009	100.371	20.012	33.440	0.530
165.500	146.258	80.001	20.009	100.363	20.014	32.942	0.521
166.000	146.536	80.002	20.009	100.360	20.015	32.627	0.578
166.500	146.787	80.001	20.009	100.360	20.015	32.634	0.559
167.000	147.104	80.000	20.009	100.362	20.013	33.237	0.549
167.500	147.354	80.002	20.008	100.367	20.017	32.125	0.568
168.000	147.655	80.000	20.009	100.371	20.013	33.150	0.559
168.500	147.836	80.000	20.009	100.368	20.014	32.884	0.517
169.000	148.159	80.001	20.009	100.361	20.016	32.329	0.493
169.500	148.453	80.001	20.009	100.360	20.014	32.875	0.560
170.000	148.703	80.000	20.009	100.360	20.014	32.901	0.581
170.500	148.999	80.001	20.008	100.363	20.015	32.686	0.545
171.000	149.283	80.000	20.009	100.370	20.015	32.624	0.563
171.500	149.518	80.000	20.009	100.375	20.014	32.974	0.549
172.000	149.813	80.001	20.009	100.369	20.015	32.669	0.524
172.500	150.082	80.001	20.009	100.362	20.016	32.192	0.547
173.000	150.360	80.000	20.009	100.360	20.013	33.134	0.556
173.500	150.633	80.000	20.009	100.361	20.013	33.177	0.550
174.000	150.904	80.000	20.009	100.362	20.016	32.429	0.547
174.500	151.162	80.001	20.008	100.370	20.015	32.554	0.536
175.000	151.452	80.001	20.009	100.374	20.015	32.490	0.538
175.500	151.753	79.999	20.009	100.369	20.013	33.224	0.570
176.000	151.987	80.001	20.008	100.360	20.013	33.368	0.563
176.500	152.293	80.000	20.009	100.353	20.013	33.168	0.537
177.000	152.593	80.001	20.009	100.346	20.015	32.747	0.573
177.500	152.826	80.001	20.009	100.343	20.014	32.855	0.569
178.000	153.075	80.000	20.008	100.345	20.012	33.681	0.508
178.500	153.396	80.001	20.008	100.345	20.013	33.347	0.527
179.000	153.648	80.001	20.009	100.344	20.012	33.529	0.572
179.500	153.949	80.000	20.009	100.343	20.014	32.924	0.563
180.000	154.196	80.001	20.009	100.344	20.014	32.941	0.551
180.500	154.479	80.000	20.008	100.349	20.015	32.545	0.539
181.000	154.726	80.000	20.008	100.358	20.017	31.988	0.530
181.500	154.957	80.000	20.009	100.366	20.017	31.845	0.504
182.000	155.242	80.001	20.008	100.374	20.019	31.336	0.497
182.500	155.567	80.001	20.009	100.380	20.019	31.443	0.563
183.000	155.799	80.000	20.009	100.380	20.019	31.286	0.583
183.500	156.045	80.000	20.009	100.384	20.021	30.904	0.518
184.000	156.340	80.000	20.008	100.393	20.021	30.876	0.510
184.500	156.606	80.000	20.008	100.402	20.021	30.817	0.551
185.000	156.904	80.001	20.009	100.411	20.024	29.927	0.562
185.500	157.146	80.000	20.008	100.414	20.023	30.054	0.552
186.000	157.415	80.000	20.009	100.410	20.023	30.277	0.525
186.500	157.660	80.001	20.009	100.401	20.023	30.171	0.513
187.000	157.930	79.999	20.008	100.399	20.021	30.732	0.515
187.500	158.219	80.001	20.008	100.400	20.023	30.054	0.537
188.000	158.500	80.000	20.008	100.404	20.024	29.934	0.565
188.500	158.740	80.002	20.009	100.406	20.025	29.443	0.545
189.000	158.963	80.000	20.009	100.405	20.021	30.713	0.491
189.500	159.216	79.999	20.008	100.395	20.022	30.392	0.469
190.000	159.508	80.001	20.009	100.388	20.021	30.641	0.511
190.500	159.773	80.000	20.009	100.380	20.022	30.445	0.552
191.000	160.024	80.000	20.008	100.378	20.022	30.373	0.537
191.500	160.266	80.001	20.009	100.379	20.025	29.622	0.505
192.000	160.526	80.000	20.009	100.377	20.022	30.312	0.497
192.500	160.800	80.001	20.009	100.368	20.021	30.692	0.518
193.000	161.048	80.001	20.009	100.361	20.022	30.436	0.528
193.500	161.329	80.000	20.008	100.352	20.022	30.586	0.525
194.000	161.628	80.000	20.008	100.351	20.020	31.109	0.555
194.500	161.839	80.002	20.009	100.356	20.020	31.143	0.545
195.000	162.065	80.000	20.009	100.363	20.022	30.444	0.474
195.500	162.403	80.000	20.008	100.368	20.020	31.074	0.501
196.000	162.621	80.000	20.009	100.368	20.020	31.041	0.560
196.500	162.855	80.000	20.009	100.362	20.016	32.180	0.504
197.000	163.130	80.001	20.009	100.357	20.016	32.355	0.481
197.500	163.407	79.999	20.008	100.358	20.016	32.414	0.530
198.000	163.641	80.001	20.008	100.361	20.016	32.278	0.531
198.500	163.891	80.000	20.008	100.368	20.015	32.476	0.497
199.000	164.112	80.000	20.009	100.369	20.016	32.333	0.477
199.500	164.424	80.000	20.009	100.365	20.017	32.122	0.502
200.000	164.674	80.001	20.008	100.357	20.015	32.539	0.548
200.500	164.935	80.001	20.008	100.348	20.017	32.092	0.536
201.000	165.158	79.999	20.008	100.340	20.017	32.046	0.497
201.500	165.447	80.001	20.008	100.339	20.018	31.708	0.498
202.000	165.695	79.999	20.009	100.339	20.018	31.820	0.525
202.500	166.007	80.001	20.008	100.338	20.018	31.545	0.548
203.000	166.202	80.000	20.008	100.338	20.017	32.048	0.533
203.500	166.503	80.000	20.009	100.338	20.019	31.391	0.502
204.000	166.775	80.001	20.009	100.340	20.020	31.069	0.535
204.500	167.018	80.000	20.009	100.348	20.016	32.262	0.544
205.000	167.265	80.000	20.009	100.355	20.017	31.865	0.502
205.500	167.496	80.000	20.009	100.355	20.017	31.925	0.484
206.000	167.811	80.000	20.009	100.354	20.019	31.467	0.512
206.500	168.022	80.001	20.009	100.351	20.017	32.061	0.536
207.000	168.319	80.000	20.009	100.348	20.014	32.806	0.517
207.500	168.591	80.000	20.008	100.350	20.015	32.728	0.538
208.000	168.824	79.999	20.008	100.359	20.015	32.466	0.537
208.500	169.082	80.000	20.008	100.361	20.017	32.139	0.498
209.000	169.318	79.999	20.009	100.361	20.013	33.096	0.492
209.500	169.584	80.001	20.009	100.357	20.013	33.251	0.498
210.000	169.818	80.001	20.009	100.351	20.014	32.804	0.501
210.500	170.060	79.999	20.008	100.351	20.015	32.730	0.488
211.000	170.334	80.001	20.009	100.356	20.013	33.144	0.496
211.500	170.605	80.000	20.009	100.362	20.012	33.545	0.531
212.000	170.832	80.000	20.009	100.364	20.015	32.610	0.522
212.500	171.059	80.001	20.009	100.362	20.014	32.839	0.476
213.000	171.302	79.999	20.009	100.354	20.014	33.036	0.462
213.500	171.549	80.001	20.009	100.348	20.013	33.309	0.480
214.000	171.812	79.999	20.009	100.350	20.015	32.621	0.500
214.500	172.046	80.000	20.008	100.356	20.016	32.361	0.504
215.000	172.290	80.000	20.008	100.358	20.014	33.051	0.488
215.500	172.563	80.000	20.009	100.358	20.014	32.980	0.497
216.000	172.776	80.002	20.009	100.356	20.013	33.183	0.501
216.500	173.068	79.999	20.011	100.348	20.015	32.756	0.496
217.000	173.352	80.000	20.009	100.345	20.017	32.033	0.541
217.500	173.640	80.001	20.009	100.348	20.015	32.675	0.574
218.000	173.900	79.999	20.008	100.355	20.016	32.310	0.560
218.500	174.136	80.001	20.008	100.360	20.015	32.536	0.522
219.000	174.384	80.000	20.009	100.360	20.015	32.524	0.491
219.500	174.665	80.000	20.009	100.354	20.014	33.074	0.507
220.000	174.937	80.000	20.009	100.350	20.014	32.784	0.541
220.500	175.130	80.001	20.009	100.350	20.013	33.116	0.509
221.000	175.355	79.999	20.008	100.350	20.014	32.879	0.441
221.500	175.629	80.001	20.008	100.352	20.014	32.854	0.459
222.000	175.907	79.999	20.008	100.353	20.014	32.817	0.526
222.500	176.162	80.000	20.009	100.348	20.015	32.555	0.543
223.000	176.385	80.000	20.008	100.341	20.013	33.151	0.505
223.500	176.637	79.999	20.009	100.337	20.016	32.323	0.476
224.000	176.893	80.001	20.008	100.340	20.013	33.179	0.491
224.500	177.169	80.001	20.008	100.346	20.012	33.455	0.521
225.000	177.387	80.000	20.008	100.351	20.013	33.202	0.513
225.500	177.649	80.000	20.009	100.351	20.010	34.050	0.487
226.000	177.903	80.001	20.009	100.351	20.011	33.828	0.498
226.500	178.128	80.000	20.009	100.346	20.011	33.886	0.497
227.000	178.378	80.000	20.009	100.344	20.011	33.956	0.477
227.500	178.636	80.000	20.008	100.351	20.010	34.045	0.492
228.000	178.882	80.000	20.008	100.358	20.011	33.744	0.506
228.500	179.131	79.999	20.009	100.359	20.014	32.933	0.499
229.000	179.420	80.000	20.008	100.360	20.012	33.700	0.517
229.500	179.648	80.001	20.009	100.356	20.013	33.363	0.527
230.000	179.883	79.999	20.009	100.349	20.011	33.955	0.490
230.500	180.112	80.000	20.009	100.350	20.013	33.139	0.464
231.000	180.395	79.999	20.009	100.356	20.012	33.435	0.488
231.500	180.600	80.000	20.009	100.364	20.013	33.211	0.500
232.000	180.930	80.000	20.009	100.367	20.012	33.685	0.511
232.500	181.154	79.999	20.009	100.368	20.012	33.406	0.545
233.000	181.360	80.001	20.009	100.361	20.014	32.938	0.492
233.500	181.643	79.999	20.009	100.354	20.014	32.973	0.459
234.000	181.903	80.000	20.009	100.351	20.014	33.040	0.516
234.500	182.146	80.000	20.009	100.356	20.013	33.151	0.523
235.000	182.411	79.999	20.008	100.361	20.013	33.276	0.506
235.500	182.635	80.001	20.009	100.362	20.013	33.192	0.498
236.000	182.896	79.999	20.009	100.361	20.010	34.069	0.486
236.500	183.178	80.001	20.009	100.355	20.012	33.499	0.514
237.000	183.391	80.000	20.009	100.349	20.015	32.667	0.519
237.500	183.650	80.000	20.009	100.352	20.013	33.335	0.483
238.000	183.885	79.999	20.009	100.359	20.013	33.264	0.483
238.500	184.162	80.000	20.008	100.365	20.014	32.853	0.503
239.000	184.395	80.002	20.008	100.367	20.013	33.181	0.511
239.500	184.649	80.000	20.009	100.366	20.014	32.992	0.499
240.000	184.870	80.000	20.009	100.358	20.014	32.992	0.481
240.500	185.104	80.000	20.009	100.353	20.013	33.338	0.465
241.000	185.308	79.999	20.008	100.351	20.010	34.043	0.446
241.500	185.557	80.000	20.009	100.356	20.009	34.484	0.446
242.000	185.848	80.000	20.008	100.357	20.011	33.857	0.497
242.500	186.082	80.000	20.009	100.349	20.011	33.904	0.533
243.000	186.374	79.998	20.009	100.338	20.012	33.438	0.525
243.500	186.588	80.001	20.009	100.325	20.012	33.537	0.516
244.000	186.834	80.001	20.009	100.309	20.010	34.053	0.483
244.500	187.115	80.000	20.008	100.306	20.012	33.692	0.493
245.000	187.382	80.000	20.009	100.313	20.013	33.300	0.537
245.500	187.600	80.002	20.025	100.322	20.012	33.551	0.516
246.000	187.894	79.999	20.005	100.331	20.013	33.152	0.499
246.500	188.121	80.002	20.007	100.340	20.014	32.857	0.517
247.000	188.375	79.999	20.008	100.343	20.013	33.301	0.501
247.500	188.606	80.001	20.008	100.343	20.012	33.483	0.482
248.000	188.851	79.999	20.008	100.345	20.013	33.161	0.480
248.500	189.127	80.001	20.008	100.347	20.014	32.992	0.499
249.000	189.364	80.000	20.009	100.346	20.010	34.094	0.518
249.500	189.605	80.000	20.008	100.346	20.012	33.491	0.496
250.000	189.885	80.001	20.009	100.346	20.011	33.949	0.499
250.500	190.119	80.001	20.009	100.344	20.014	32.846	0.517
251.000	190.383	80.002	20.008	100.347	20.013	33.375	0.506
251.500	190.641	80.002	20.009	100.353	20.012	33.512	0.510
252.000	190.905	80.000	20.009	100.355	20.013	33.278	0.522
252.500	191.139	80.000	20.009	100.356	20.014	33.016	0.510
253.000	191.358	80.001	20.009	100.356	20.015	32.714	0.475
253.500	191.629	80.000	20.009	100.352	20.014	32.891	0.472
254.000	191.884	80.001	20.009	100.347	20.016	32.386	0.509
254.500	192.133	80.000	20.008	100.353	20.015	32.715	0.515
255.000	192.387	80.000	20.008	100.358	20.017	32.096	0.503
255.500	192.615	80.000	20.008	100.361	20.015	32.701	0.492
256.000	192.858	80.001	20.008	100.359	20.016	32.321	0.476
256.500	193.126	80.000	20.009	100.362	20.014	33.065	0.491
257.000	193.377	80.001	20.008	100.355	20.015	32.766	0.516
257.500	193.587	80.000	20.008	100.352	20.013	33.163	0.490
258.000	193.853	80.001	20.008	100.356	20.013	33.306	0.468
258.500	194.089	80.000	20.008	100.364	20.014	33.007	0.489
259.000	194.387	79.999	20.008	100.366	20.015	32.730	0.518
259.500	194.630	80.001	20.009	100.363	20.012	33.599	0.538
260.000	194.897	80.001	20.009	100.359	20.012	33.403	0.525
260.500	195.170	80.000	20.009	100.355	20.012	33.441	0.525
261.000	195.401	80.000	20.008	100.354	20.015	32.671	0.522
261.500	195.624	80.000	20.008	100.356	20.016	32.388	0.479
262.000	195.919	80.000	20.009	100.361	20.011	33.775	0.486
262.500	196.153	80.000	20.009	100.361	20.014	33.022	0.523
263.000	196.396	80.000	20.009	100.358	20.012	33.500	0.503
263.500	196.657	80.001	20.009	100.351	20.011	33.802	0.491
264.000	196.909	79.999	20.008	100.345	20.013	33.094	0.509
264.500	197.163	80.000	20.009	100.345	20.014	32.987	0.510
265.000	197.401	80.000	20.008	100.349	20.016	32.410	0.499
265.500	197.676	80.001	20.008	100.349	20.011	33.735	0.502
266.000	197.925	80.000	20.008	100.348	20.014	33.056	0.518
266.500	198.171	80.000	20.009	100.347	20.015	32.532	0.510
267.000	198.402	80.000	20.009	100.347	20.015	32.467	0.486
267.500	198.695	80.000	20.009	100.352	20.015	32.729	0.500
268.000	198.942	80.000	20.008	100.360	20.014	32.982	0.532
268.500	199.204	80.000	20.008	100.369	20.014	33.060	0.525
269.000	199.468	80.000	20.009	100.370	20.013	33.310	0.518
269.500	199.706	80.000	20.009	100.360	20.013	33.371	0.514
270.000	199.983	80.000	20.009	100.347	20.014	32.827	0.509
270.500	200.191	80.001	20.008	100.338	20.014	32.774	0.500
271.000	200.441	80.001	20.009	100.337	20.016	32.334	0.471
271.500	200.746	79.999	20.009	100.344	20.012	33.635	0.507
272.000	201.008	80.000	20.008	100.357	20.014	33.012	0.561
272.500	201.251	80.000	20.008	100.369	20.014	33.064	0.536
273.000	201.439	80.001	20.009	100.372	20.012	33.661	0.468
273.500	201.684	80.000	20.009	100.366	20.014	32.882	0.432
274.000	201.908	79.999	20.009	100.358	20.013	33.353	0.451
274.500	202.231	80.001	20.008	100.352	20.012	33.470	0.509
275.000	202.497	79.999	20.008	100.347	20.013	33.083	0.568
275.500	202.747	80.000	20.009	100.349	20.013	33.103	0.552
276.000	202.980	80.001	20.009	100.349	20.013	33.097	0.499
276.500	203.238	80.001	20.008	100.349	20.014	33.074	0.487
277.000	203.475	79.999	20.009	100.347	20.011	33.933	0.493
277.500	203.774	80.001	20.008	100.343	20.014	32.772	0.516
278.000	204.013	80.000	20.008	100.339	20.011	33.968	0.537
278.500	204.324	80.000	20.009	100.346	20.014	33.036	0.544
279.000	204.555	80.000	20.008	100.353	20.009	34.441	0.546
279.500	204.798	80.001	20.009	100.353	20.013	33.282	0.508
280.000	205.067	80.000	20.008	100.354	20.012	33.578	0.493
280.500	205.295	80.000	20.008	100.353	20.011	33.814	0.505
281.000	205.579	80.000	20.008	100.345	20.012	33.688	0.505
281.500	205.838	80.001	20.009	100.343	20.012	33.476	0.528
282.000	206.101	79.999	20.008	100.348	20.011	33.919	0.532
282.500	206.339	80.000	20.008	100.352	20.010	34.198	0.512
283.000	206.603	80.001	20.009	100.353	20.010	34.291	0.502
283.500	206.837	80.000	20.009	100.351	20.010	34.011	0.500
284.000	207.124	80.001	20.009	100.347	20.009	34.326	0.509
284.500	207.388	80.000	20.009	100.341	20.009	34.353	0.536
285.000	207.565	80.000	20.008	100.338	20.011	33.705	0.496
285.500	207.863	79.999	20.008	100.338	20.010	34.117	0.458
286.000	208.118	79.999	20.009	100.340	20.013	33.369	0.514
286.500	208.422	80.001	20.008	100.340	20.010	34.280	0.556
287.000	208.634	79.999	20.008	100.338	20.011	33.988	0.537
287.500	208.916	80.000	20.009	100.336	20.008	34.907	0.505
288.000	209.154	80.000	20.009	100.335	20.010	34.187	0.507
288.500	209.400	80.000	20.009	100.335	20.010	34.095	0.502
289.000	209.666	80.000	20.008	100.338	20.009	34.492	0.498
289.500	209.910	80.000	20.008	100.347	20.008	34.760	0.511
290.000	210.142	80.000	20.008	100.348	20.009	34.374	0.493
290.500	210.473	80.000	20.009	100.345	20.009	34.455	0.520
291.000	210.727	79.999	20.009	100.337	20.009	34.423	0.574
291.500	210.949	80.000	20.009	100.330	20.011	33.932	0.530
292.000	211.181	80.000	20.009	100.323	20.011	33.995	0.465
292.500	211.467	79.999	20.009	100.322	20.009	34.367	0.486
293.000	211.745	80.000	20.008	100.326	20.009	34.426	0.541
293.500	211.955	80.000	20.009	100.326	20.009	34.441	0.526
294.000	212.239	80.000	20.009	100.323	20.009	34.411	0.491
294.500	212.523	79.998	20.009	100.316	20.010	34.290	0.531
295.000	212.719	80.001	20.009	100.309	20.012	33.584	0.524
295.500	213.050	79.999	20.008	100.302	20.011	33.969	0.504
296.000	213.273	80.000	20.009	100.303	20.010	34.315	0.541
296.500	213.519	80.000	20.008	100.309	20.010	34.229	0.511
297.000	213.748	79.999	20.009	100.313	20.013	33.259	0.472
297.500	214.024	80.001	20.009	100.314	20.012	33.522	0.490
298.000	214.314	80.000	20.009	100.314	20.010	34.019	0.536
298.500	214.571	79.999	20.009	100.313	20.011	33.854	0.557
299.000	214.786	80.000	20.008	100.309	20.013	33.150	0.510
299.500	215.078	80.001	20.008	100.312	20.011	33.756	0.490
300.000	215.351	79.999	20.008	100.318	20.011	33.776	0.536
300.500	215.581	80.001	20.009	100.325	20.009	34.478	0.534
301.000	215.856	80.001	20.009	100.326	20.011	33.970	0.503
301.500	216.110	80.000	20.009	100.324	20.010	34.175	0.517
302.000	216.341	80.001	20.008	100.319	20.011	33.975	0.507
302.500	216.622	80.000	20.009	100.317	20.009	34.433	0.499
303.000	216.871	80.000	20.009	100.317	20.009	34.492	0.521
303.500	217.154	79.999	20.008	100.323	20.010	34.230	0.531
304.000	217.434	80.000	20.009	100.328	20.009	34.604	0.548
304.500	217.684	80.000	20.009	100.327	20.009	34.585	0.546
305.000	217.926	80.000	20.008	100.321	20.010	34.074	0.511
305.500	218.168	79.999	20.008	100.316	20.007	35.002	0.488
306.000	218.440	80.000	20.008	100.316	20.011	33.795	0.499
306.500	218.704	79.999	20.008	100.321	20.010	34.113	0.525
307.000	218.965	80.001	20.008	100.331	20.011	33.955	0.531
307.500	219.225	80.001	20.009	100.340	20.009	34.439	0.523
308.000	219.495	80.000	20.008	100.344	20.008	34.834	0.525
308.500	219.742	80.000	20.009	100.341	20.008	34.802	0.524
309.000	220.017	80.001	20.009	100.335	20.007	34.978	0.519
309.500	220.287	79.999	20.008	100.334	20.007	34.943	0.533
310.000	220.478	80.001	20.008	100.333	20.008	34.830	0.503
310.500	220.736	80.000	20.008	100.335	20.006	35.379	0.455
311.000	221.077	80.001	20.008	100.332	20.011	33.842	0.524
311.500	221.310	80.001	20.009	100.328	20.012	33.687	0.587
312.000	221.587	80.000	20.009	100.319	20.013	33.184	0.542
312.500	221.813	80.001	20.009	100.311	20.010	34.192	0.506
313.000	222.108	80.000	20.009	100.310	20.011	33.850	0.512
313.500	222.338	80.000	20.008	100.316	20.011	33.704	0.523
314.000	222.603	80.000	20.008	100.323	20.010	34.188	0.510
314.500	222.858	79.999	20.009	100.331	20.011	33.692	0.508
315.000	223.160	79.999	20.009	100.338	20.011	33.734	0.539
315.500	223.374	80.001	20.009	100.338	20.009	34.444	0.537
316.000	223.635	79.999	20.008	100.338	20.009	34.406	0.495
316.500	223.915	80.000	20.009	100.338	20.009	34.614	0.508
317.000	224.188	79.999	20.008	100.339	20.010	34.309	0.547
317.500	224.422	80.000	20.009	100.341	20.009	34.333	0.531
318.000	224.701	79.999	20.008	100.341	20.008	34.851	0.510
318.500	224.926	79.999	20.009	100.336	20.007	35.166	0.508
319.000	225.181	80.001	20.009	100.328	20.009	34.329	0.492
319.500	225.445	80.000	20.008	100.321	20.008	34.906	0.499
320.000	225.672	79.999	20.009	100.317	20.007	34.951	0.505
320.500	225.910	80.001	20.008	100.317	20.008	34.653	0.478
321.000	226.204	79.998	20.008	100.322	20.009	34.567	0.498
321.500	226.468	80.000	20.009	100.324	20.010	34.142	0.545
322.000	226.731	80.001	20.009	100.322	20.011	33.804	0.543
322.500	226.996	79.998	20.009	100.316	20.011	33.851	0.528
323.000	227.266	80.000	20.008	100.310	20.010	34.199	0.532
323.500	227.510	79.999	20.009	100.308	20.008	34.728	0.524
324.000	227.728	80.000	20.008	100.313	20.012	33.671	0.488
324.500	227.990	79.999	20.008	100.321	20.010	34.253	0.471
325.000	228.233	80.002	20.009	100.325	20.010	34.287	0.492
325.500	228.529	80.000	20.009	100.323	20.009	34.329	0.522
326.000	228.771	80.000	20.009	100.318	20.010	34.041	0.539
326.500	229.006	79.999	20.008	100.311	20.008	34.806	0.507
327.000	229.316	80.001	20.009	100.309	20.008	34.717	0.511
327.500	229.572	79.999	20.009	100.313	20.009	34.320	0.556
328.000	229.806	80.001	20.008	100.322	20.009	34.383	0.528
328.500	230.093	80.000	20.008	100.330	20.010	34.213	0.505
329.000	230.355	80.000	20.009	100.334	20.008	34.897	0.535
329.500	230.596	80.001	20.008	100.329	20.008	34.670	0.526
330.000	230.849	80.001	20.009	100.320	20.012	33.683	0.499
330.500	231.103	79.999	20.009	100.314	20.008	34.738	0.501
331.000	231.370	80.001	20.008	100.314	20.009	34.422	0.514
331.500	231.605	80.000	20.008	100.318	20.011	33.792	0.511
332.000	231.861	80.000	20.008	100.321	20.010	34.030	0.497
332.500	232.069	80.001	20.009	100.321	20.009	34.319	0.477
333.000	232.336	80.001	20.009	100.319	20.008	34.778	0.469
333.500	232.612	80.001	20.009	100.311	20.010	34.293	0.509
334.000	232.819	80.001	20.008	100.306	20.007	35.059	0.513
334.500	233.098	80.001	20.008	100.310	20.009	34.579	0.485
335.000	233.336	80.000	20.008	100.318	20.009	34.349	0.501
335.500	233.616	80.000	20.008	100.321	20.010	34.108	0.517
336.000	233.883	80.000	20.008	100.322	20.008	34.724	0.533
336.500	234.128	80.001	20.009	100.319	20.011	33.990	0.530
337.000	234.401	80.001	20.008	100.312	20.013	33.322	0.515
337.500	234.646	80.002	20.008	100.308	20.010	34.198	0.518
338.000	234.929	80.001	20.008	100.313	20.009	34.505	0.523
338.500	235.198	80.001	20.008	100.320	20.011	33.967	0.540
339.000	235.404	80.000	20.008	100.321	20.009	34.316	0.513
339.500	235.671	80.000	20.008	100.317	20.010	34.088	0.474
340.000	235.926	80.001	20.008	100.305	20.010	34.279	0.498
340.500	236.149	80.001	20.008	100.294	20.010	34.149	0.500
341.000	236.431	80.001	20.008	100.285	20.010	34.253	0.491
341.500	236.694	80.000	20.008	100.288	20.011	33.978	0.525
342.000	236.975	80.000	20.008	100.296	20.009	34.549	0.545
342.500	237.216	80.001	20.008	100.304	20.011	33.825	0.533
343.000	237.459	80.000	20.008	100.308	20.009	34.495	0.503
343.500	237.716	80.001	20.009	100.308	20.010	34.293	0.492
344.000	237.966	80.001	20.008	100.306	20.008	34.770	0.503
344.500	238.253	80.000	20.008	100.301	20.008	34.924	0.522
345.000	238.454	80.001	20.008	100.306	20.007	35.053	0.513
345.500	238.732	80.000	20.008	100.309	20.008	34.782	0.484
346.000	238.945	80.001	20.008	100.311	20.009	34.463	0.485
346.500	239.252	80.001	20.008	100.311	20.010	34.152	0.505
347.000	239.499	80.000	20.008	100.309	20.010	34.114	0.537
347.500	239.764	80.001	20.008	100.304	20.010	34.094	0.534
348.000	240.036	80.001	20.008	100.301	20.014	32.777	0.525
348.500	240.244	79.999	20.008	100.304	20.011	33.829	0.508
349.000	240.513	80.000	20.008	100.306	20.010	34.233	0.478
349.500	240.740	80.001	20.008	100.307	20.009	34.312	0.486
350.000	240.976	80.002	20.008	100.305	20.010	34.223	0.480
350.500	241.307	80.000	20.008	100.302	20.012	33.582	0.515
351.000	241.562	80.000	20.008	100.297	20.012	33.530	0.576
351.500	241.786	79.999	20.008	100.296	20.012	33.621	0.532
352.000	242.094	80.001	20.008	100.300	20.012	33.684	0.506
352.500	242.309	80.000	20.008	100.305	20.012	33.617	0.527
353.001	242.594	80.001	20.008	100.309	20.012	33.433	0.511
353.500	242.858	80.001	20.008	100.310	20.014	32.937	0.525
354.000	243.113	80.000	20.008	100.310	20.012	33.599	0.534
354.500	243.396	80.001	20.008	100.309	20.011	33.776	0.529
355.000	243.613	80.000	20.008	100.313	20.013	33.342	0.519
355.500	243.878	79.999	20.008	100.320	20.014	32.874	0.491
356.000	244.145	80.001	20.008	100.327	20.010	34.109	0.507
356.500	244.386	80.000	20.008	100.329	20.012	33.526	0.520
357.000	244.633	80.000	20.008	100.327	20.012	33.398	0.498
357.500	244.918	80.001	20.008	100.318	20.010	34.023	0.510
358.000	245.132	79.999	20.008	100.310	20.012	33.423	0.516
358.500	245.425	80.001	20.008	100.304	20.011	33.758	0.504
359.000	245.668	80.000	20.008	100.311	20.010	34.261	0.521
359.500	245.914	80.000	20.008	100.318	20.011	33.865	0.512
360.000	246.197	80.001	20.008	100.323	20.010	34.120	0.509
360.500	246.416	80.000	20.008	100.323	20.009	34.384	0.516
361.000	246.654	80.000	20.009	100.322	20.010	34.000	0.480
361.500	246.909	80.000	20.009	100.314	20.009	34.368	0.475
362.000	247.200	80.000	20.009	100.306	20.010	34.068	0.519
362.500	247.448	80.001	20.008	100.309	20.011	33.884	0.542
363.000	247.733	80.000	20.009	100.315	20.010	34.019	0.536
363.500	247.987	80.000	20.009	100.320	20.011	33.722	0.536
364.000	248.217	80.001	20.008	100.320	20.012	33.460	0.511
364.500	248.479	80.002	20.009	100.318	20.011	33.744	0.488
365.000	248.766	80.000	20.009	100.311	20.012	33.602	0.521
365.500	248.995	80.001	20.009	100.305	20.012	33.577	0.532
366.000	249.282	80.001	20.009	100.302	20.011	33.786	0.515
366.500	249.509	80.000	20.009	100.308	20.010	34.164	0.515
367.000	249.753	80.000	20.008	100.311	20.011	33.828	0.493
367.500	249.980	79.999	20.008	100.311	20.011	33.762	0.471
368.000	250.224	80.002	20.009	100.306	20.011	33.764	0.471
368.500	250.501	80.001	20.009	100.296	20.007	34.959	0.496
369.000	250.798	80.001	20.009	100.288	20.007	35.032	0.548
369.500	251.023	80.001	20.008	100.289	20.007	35.236	0.549
370.000	251.295	80.000	20.009	100.297	20.009	34.539	0.510
370.500	251.527	80.000	20.009	100.306	20.006	35.394	0.500
371.000	251.771	80.001	20.009	100.313	20.012	33.388	0.490
371.500	252.046	80.000	20.009	100.316	20.010	34.253	0.498
372.000	252.343	80.001	20.009	100.314	20.011	33.738	0.545
372.500	252.528	80.000	20.009	100.304	20.012	33.479	0.526
373.000	252.783	80.000	20.009	100.301	20.010	34.128	0.461
373.500	253.021	79.999	20.009	100.308	20.010	34.095	0.467
374.000	253.289	80.001	20.009	100.314	20.012	33.654	0.500
374.500	253.534	80.000	20.009	100.320	20.011	33.888	0.509
375.000	253.757	80.001	20.008	100.322	20.010	34.065	0.490
375.500	254.047	80.000	20.008	100.322	20.011	33.772	0.491
376.000	254.275	80.000	20.009	100.315	20.012	33.578	0.516
376.500	254.537	80.001	20.009	100.308	20.012	33.435	0.504
377.000	254.782	80.000	20.008	100.307	20.009	34.487	0.498
377.500	255.017	80.001	20.009	100.313	20.012	33.594	0.494
378.000	255.282	80.001	20.009	100.321	20.010	34.261	0.490
378.500	255.574	80.000	20.009	100.323	20.011	33.849	0.528
379.000	255.793	80.001	20.009	100.323	20.011	33.968	0.534
379.500	256.047	80.001	20.009	100.318	20.010	34.296	0.492
380.000	256.312	80.000	20.009	100.309	20.011	33.753	0.497
380.501	256.557	80.001	20.009	100.309	20.011	33.843	0.515
381.000	256.827	80.000	20.008	100.314	20.011	33.710	0.512
381.500	257.061	79.999	20.008	100.323	20.013	33.264	0.509
382.000	257.327	80.000	20.008	100.328	20.010	34.203	0.502
382.500	257.555	80.000	20.009	100.329	20.010	34.133	0.497
383.000	257.824	80.001	20.009	100.320	20.012	33.486	0.495
383.500	258.072	80.000	20.009	100.313	20.012	33.610	0.507
384.000	258.297	80.001	20.009	100.306	20.008	34.637	0.495
384.500	258.558	80.001	20.009	100.309	20.010	34.058	0.479
385.000	258.761	79.999	20.008	100.315	20.012	33.604	0.475
385.500	259.035	80.002	20.008	100.324	20.012	33.389	0.471
386.000	259.299	79.999	20.009	100.326	20.009	34.406	0.507
386.500	259.539	80.000	20.009	100.325	20.011	33.836	0.520
387.000	259.827	80.000	20.009	100.317	20.010	34.209	0.516
387.500	260.065	80.000	20.009	100.314	20.008	34.710	0.527
388.000	260.358	80.000	20.008	100.315	20.009	34.524	0.528
388.500	260.593	80.000	20.008	100.320	20.007	35.229	0.529
389.000	260.829	80.000	20.009	100.327	20.006	35.367	0.500
389.500	261.032	80.001	20.008	100.328	20.009	34.584	0.456
390.000	261.361	80.000	20.009	100.324	20.008	34.654	0.486
390.500	261.600	80.000	20.009	100.315	20.009	34.544	0.550
391.000	261.852	80.000	20.009	100.314	20.008	34.623	0.529
391.500	262.118	80.001	20.008	100.314	20.009	34.477	0.504
392.000	262.343	80.001	20.008	100.317	20.008	34.618	0.504
392.500	262.608	80.000	20.009	100.319	20.012	33.634	0.491
393.000	262.844	80.000	20.008	100.320	20.010	34.151	0.496
393.500	263.126	80.001	20.009	100.315	20.011	33.891	0.510
394.000	263.353	80.001	20.008	100.309	20.010	34.248	0.513
394.500	263.586	80.000	20.009	100.308	20.011	33.810	0.484
395.000	263.875	80.001	20.009	100.314	20.012	33.496	0.491
395.500	264.089	80.000	20.008	100.320	20.012	33.527	0.513
396.000	264.341	80.002	20.009	100.325	20.011	33.736	0.484
396.500	264.649	80.001	20.009	100.323	20.008	34.652	0.513
397.000	264.901	80.002	20.009	100.320	20.010	34.197	0.560
397.500	265.154	80.000	20.009	100.312	20.012	33.569	0.533
398.000	265.367	80.000	20.009	100.307	20.009	34.597	0.486
398.500	265.633	79.999	20.009	100.310	20.007	35.147	0.473
399.000	265.861	80.001	20.009	100.315	20.012	33.488	0.487
399.500	266.163	80.000	20.009	100.314	20.008	34.736	0.512
400.000	266.399	80.000	20.009	100.313	20.010	34.204	0.534
400.500	266.644	80.000	20.009	100.306	20.011	33.866	0.510
401.000	266.886	80.000	20.009	100.296	20.011	33.941	0.484
401.500	267.170	79.999	20.009	100.289	20.010	34.184	0.507
402.000	267.388	79.999	20.008	100.293	20.007	35.028	0.514
402.500	267.659	80.001	20.008	100.300	20.010	34.051	0.496
403.000	267.926	80.000	20.009	100.312	20.010	34.140	0.514
403.500	268.178	80.000	20.009	100.317	20.009	34.307	0.528
404.000	268.397	80.001	20.009	100.317	20.012	33.464	0.495
404.500	268.670	80.000	20.009	100.312	20.010	34.063	0.482
405.000	268.932	80.001	20.009	100.304	20.009	34.360	0.513
405.500	269.174	80.000	20.009	100.298	20.012	33.634	0.519
406.000	269.423	80.000	20.009	100.298	20.011	33.959	0.498
406.500	269.700	79.999	20.008	100.304	20.010	34.002	0.509
407.000	269.916	80.000	20.009	100.313	20.010	34.228	0.509
407.500	270.224	80.001	20.009	100.314	20.011	33.744	0.508
408.000	270.480	79.999	20.009	100.315	20.011	33.694	0.544
408.500	270.737	80.001	20.009	100.312	20.009	34.315	0.539
409.000	270.993	80.000	20.009	100.308	20.009	34.428	0.513
409.500	271.232	79.998	20.008	100.308	20.008	34.670	0.504
410.000	271.457	79.999	20.008	100.316	20.009	34.499	0.479
410.500	271.766	80.001	20.008	100.319	20.011	33.972	0.499
411.000	271.992	80.001	20.008	100.319	20.009	34.500	0.535
411.500	272.238	80.001	20.009	100.317	20.008	34.905	0.504
412.000	272.524	79.998	20.009	100.311	20.008	34.833	0.502
412.500	272.766	80.000	20.009	100.303	20.008	34.886	0.530
413.000	272.993	80.000	20.009	100.300	20.007	35.024	0.499
413.500	273.217	80.001	20.008	100.307	20.005	35.552	0.460
414.000	273.466	79.999	20.009	100.315	20.005	35.610	0.462
414.500	273.709	79.999	20.008	100.316	20.006	35.355	0.483
415.000	273.971	79.999	20.009	100.316	20.004	35.970	0.498
415.500	274.197	80.000	20.009	100.311	20.006	35.435	0.497
416.000	274.502	79.999	20.009	100.302	20.003	36.237	0.509
416.500	274.736	80.000	20.009	100.295	20.004	36.058	0.534
417.000	274.988	80.001	20.008	100.299	20.004	36.169	0.513
417.500	275.228	79.999	20.008	100.307	20.005	35.841	0.489
418.000	275.504	80.000	20.008	100.316	20.005	35.571	0.504
418.500	275.772	80.000	20.008	100.317	20.004	35.890	0.530
419.000	275.962	80.000	20.009	100.309	20.002	36.492	0.501
419.500	276.264	80.000	20.009	100.302	20.004	36.139	0.475
420.000	276.560	79.999	20.009	100.294	20.002	36.565	0.545
420.500	276.737	80.000	20.008	100.293	20.001	36.866	0.536
421.000	277.008	80.000	20.008	100.301	20.001	37.096	0.460
421.500	277.303	80.000	20.008	100.316	20.003	36.377	0.507
422.000	277.568	80.001	20.009	100.322	20.001	36.929	0.563
422.500	277.821	80.000	20.009	100.322	20.000	37.391	0.540
423.000	278.113	79.999	20.008	100.320	20.000	37.297	0.532
423.500	278.323	79.999	20.009	100.311	20.000	37.117	0.523
424.000	278.563	80.000	20.008	100.302	20.000	37.333	0.476
424.500	278.831	80.000	20.008	100.300	20.001	36.813	0.479
425.000	279.040	80.001	20.008	100.300	20.002	36.593	0.493
425.500	279.299	80.000	20.008	100.303	19.999	37.441	0.472
426.000	279.543	79.999	20.008	100.303	20.000	37.168	0.485
426.500	279.801	80.000	20.009	100.298	20.001	36.962	0.503
427.000	280.021	80.000	20.009	100.295	20.000	37.126	0.490
427.500	280.326	80.000	20.009	100.294	19.999	37.617	0.501
428.000	280.564	80.000	20.008	100.293	19.999	37.465	0.534
428.500	280.793	79.999	20.009	100.298	20.002	36.718	0.505
429.000	281.044	80.000	20.009	100.309	20.001	36.974	0.474
429.500	281.281	80.000	20.008	100.319	20.000	37.100	0.484
430.000	281.506	80.000	20.009	100.318	20.000	37.161	0.475
430.500	281.772	80.001	20.009	100.319	20.000	37.148	0.476
431.000	282.009	80.000	20.009	100.314	20.003	36.453	0.497
431.500	282.277	80.000	20.008	100.309	20.001	36.863	0.504
432.000	282.522	80.000	20.009	100.307	19.999	37.527	0.509
432.500	282.802	80.000	20.008	100.310	20.000	37.139	0.519
433.000	283.051	80.000	20.009	100.309	20.001	37.034	0.527
433.500	283.265	80.000	20.009	100.310	20.002	36.687	0.496
434.000	283.569	80.000	20.009	100.311	20.000	37.318	0.490
434.500	283.797	80.001	20.009	100.314	20.001	37.071	0.525
435.000	284.025	79.999	20.008	100.320	20.002	36.698	0.494
435.500	284.306	80.001	20.008	100.330	20.003	36.429	0.483
436.000	284.510	79.999	20.009	100.342	20.002	36.618	0.497
436.500	284.775	80.000	20.009	100.352	20.001	36.919	0.477
437.000	285.033	80.001	20.008	100.351	20.000	37.227	0.496
437.500	285.321	79.999	20.009	100.343	20.000	37.097	0.534
438.000	285.542	80.002	20.008	100.333	19.997	38.079	0.527
438.500	285.818	80.001	20.009	100.322	19.997	38.025	0.503
439.000	286.038	80.000	20.008	100.312	19.998	37.951	0.497
439.500	286.284	80.000	20.009	100.304	19.995	38.787	0.481
440.000	286.552	80.000	20.009	100.304	19.997	38.165	0.490
440.500	286.761	80.000	20.009	100.303	20.000	37.328	0.495
441.000	287.063	80.000	20.008	100.301	19.999	37.526	0.493
441.500	287.284	80.000	20.009	100.300	19.999	37.673	0.517
442.000	287.560	79.999	20.009	100.300	19.995	38.643	0.510
442.500	287.819	80.001	20.008	100.304	19.993	39.265	0.516
443.000	288.056	80.000	20.008	100.309	19.997	38.028	0.515
443.500	288.294	80.002	20.008	100.310	19.997	38.226	0.486
444.000	288.538	80.001	20.008	100.309	19.996	38.377	0.479
444.500	288.805	80.000	20.009	100.302	19.996	38.423	0.496
445.000	289.025	80.001	20.009	100.292	19.995	38.659	0.499
445.500	289.334	80.000	20.009	100.285	19.997	38.155	0.508
446.000	289.540	80.000	20.009	100.284	19.994	39.088	0.522
446.500	289.826	79.999	20.008	100.286	19.996	38.392	0.504
447.000	290.030	80.001	20.008	100.293	19.995	38.739	0.491
447.500	290.314	80.001	20.009	100.298	19.994	39.092	0.489
448.000	290.586	80.000	20.009	100.298	19.993	39.550	0.522
448.500	290.812	80.000	20.008	100.295	19.995	38.666	0.527
449.000	291.086	80.000	20.009	100.293	19.993	39.360	0.499
449.500	291.321	80.001	20.008	100.293	19.993	39.360	0.505
450.000	291.573	79.999	20.009	100.295	19.991	39.988	0.498
450.500	291.842	80.000	20.008	100.295	19.991	39.989	0.504
451.000	292.076	80.000	20.009	100.297	19.994	39.120	0.512
451.500	292.374	80.000	20.008	100.293	19.993	39.285	0.517
452.000	292.590	80.001	20.009	100.286	19.991	40.160	0.523
452.500	292.868	80.001	20.009	100.282	19.993	39.332	0.504
453.000	293.090	80.000	20.008	100.282	19.991	39.980	0.497
453.500	293.312	80.000	20.008	100.283	19.992	39.823	0.472
454.000	293.570	80.001	20.008	100.289	19.991	39.901	0.463
454.500	293.819	80.000	20.009	100.296	19.993	39.327	0.494
455.000	294.069	80.000	20.009	100.299	19.991	39.898	0.502
455.500	294.344	80.001	20.009	100.298	19.990	40.197	0.512
456.000	294.560	79.999	20.008	100.299	19.992	39.579	0.508
456.500	294.866	80.000	20.008	100.304	19.992	39.616	0.507
457.000	295.111	80.000	20.009	100.305	19.992	39.590	0.537
457.500	295.334	80.000	20.009	100.305	19.989	40.738	0.509
458.000	295.614	80.001	20.008	100.307	19.992	39.686	0.486
458.500	295.854	80.001	20.009	100.306	19.990	40.193	0.512
459.000	296.101	80.001	20.009	100.297	19.991	40.179	0.503
459.500	296.326	80.001	20.009	100.292	19.992	39.797	0.479
460.000	296.604	79.999	20.008	100.292	19.989	40.609	0.487
460.500	296.863	80.001	20.008	100.292	19.992	39.601	0.520
461.000	297.103	80.000	20.008	100.291	19.993	39.405	0.518
461.500	297.358	79.999	20.008	100.289	19.991	40.004	0.497
462.000	297.601	80.001	20.008	100.291	19.992	39.638	0.497
462.500	297.850	80.001	20.009	100.291	19.992	39.818	0.495
463.000	298.136	80.001	20.008	100.290	19.991	39.999	0.513
463.500	298.410	80.000	20.009	100.292	19.992	39.808	0.548
464.000	298.615	80.000	20.008	100.297	19.991	40.031	0.519
464.500	298.830	80.000	20.009	100.299	19.990	40.439	0.450
465.000	299.109	80.001	20.008	100.293	19.989	40.717	0.457
465.501	299.369	80.000	20.008	100.286	19.989	40.692	0.516
466.000	299.624	80.001	20.009	100.285	19.987	41.386	0.527
466.500	299.850	79.999	20.009	100.285	19.991	40.031	0.498
467.000	300.145	80.000	20.008	100.285	19.987	41.170	0.501
467.500	300.395	80.000	20.008	100.290	19.991	39.894	0.533
468.000	300.640	80.001	20.009	100.294	19.989	40.628	0.520
468.500	300.892	80.000	20.009	100.288	19.989	40.726	0.496
469.000	301.128	80.001	20.009	100.280	19.990	40.390	0.493
469.500	301.416	80.001	20.008	100.276	19.990	40.480	0.506
470.000	301.640	80.000	20.009	100.277	19.988	40.813	0.518
470.500	301.902	80.000	20.008	100.281	19.988	40.937	0.499
471.000	302.140	80.001	20.008	100.288	19.987	41.377	0.493
471.500	302.379	80.000	20.009	100.294	19.990	40.313	0.489
472.000	302.652	80.002	20.009	100.292	19.986	41.518	0.495
472.500	302.852	80.000	20.008	100.286	19.987	41.145	0.493
473.000	303.143	80.000	20.009	100.287	19.985	41.923	0.482
473.500	303.344	79.999	20.009	100.286	19.984	42.139	0.491
474.000	303.629	80.001	20.008	100.289	19.984	42.114	0.489
474.500	303.904	80.000	20.009	100.296	19.984	42.200	0.523
475.000	304.128	80.000	20.009	100.297	19.984	42.338	0.529
475.500	304.327	80.000	20.009	100.290	19.984	42.078	0.462
476.000	304.615	80.000	20.009	100.284	19.984	42.135	0.455
476.500	304.874	80.000	20.009	100.282	19.985	41.987	0.517
477.000	305.124	80.001	20.009	100.282	19.983	42.417	0.527
477.500	305.366	79.999	20.009	100.287	19.982	42.973	0.501
478.000	305.623	80.001	20.009	100.294	19.983	42.390	0.496
478.500	305.882	80.001	20.009	100.298	19.982	42.902	0.507
479.000	306.152	79.999	20.009	100.298	19.983	42.408	0.522
479.500	306.350	80.000	20.009	100.297	19.982	42.820	0.499
480.000	306.619	80.000	20.009	100.298	19.983	42.653	0.467
480.500	306.900	80.000	20.008	100.299	19.982	42.846	0.508
481.000	307.089	80.000	20.008	100.302	19.981	43.009	0.510
481.500	307.366	80.000	20.008	100.302	19.980	43.290	0.468
482.000	307.597	80.002	20.009	100.295	19.981	43.187	0.487
482.500	307.863	80.001	20.009	100.291	19.980	43.348	0.502
483.000	308.102	80.000	20.009	100.289	19.982	42.853	0.501
483.500	308.376	80.001	20.009	100.290	19.979	43.625	0.510
484.000	308.595	80.000	20.008	100.291	19.977	44.384	0.503
484.500	308.889	79.999	20.008	100.298	19.978	43.912	0.503
485.000	309.154	80.000	20.009	100.301	19.979	43.860	0.536
485.500	309.385	80.000	20.009	100.302	19.980	43.402	0.528
486.000	309.611	79.999	20.009	100.298	19.980	43.587	0.476
486.500	309.900	80.000	20.009	100.298	19.979	43.764	0.486
487.000	310.151	80.000	20.008	100.300	19.978	44.163	0.527
487.500	310.391	80.000	20.009	100.302	19.979	43.906	0.515
488.000	310.612	80.000	20.008	100.303	19.977	44.336	0.476
488.500	310.879	80.000	20.009	100.307	19.976	44.657	0.475
489.000	311.103	80.000	20.009	100.305	19.976	44.670	0.490
489.500	311.338	80.000	20.009	100.295	19.977	44.423	0.475
490.000	311.587	80.001	20.008	100.290	19.975	45.137	0.472
490.500	311.831	79.999	20.009	100.289	19.969	46.815	0.489
491.000	312.161	80.000	20.009	100.288	19.972	45.903	0.533
491.500	312.359	80.001	20.009	100.291	19.969	46.909	0.551
492.000	312.605	80.000	20.009	100.299	19.968	47.150	0.486
492.500	312.873	80.000	20.009	100.298	19.968	47.151	0.479
493.000	313.143	80.001	20.009	100.291	19.970	46.419	0.526
493.500	313.371	80.001	20.009	100.283	19.970	46.630	0.518
494.000	313.613	79.999	20.009	100.281	19.967	47.435	0.484
494.500	313.867	80.000	20.009	100.280	19.970	46.410	0.484
495.000	314.092	80.000	20.009	100.284	19.966	47.872	0.488
495.500	314.354	80.000	20.008	100.292	19.966	47.738	0.483
496.000	314.627	80.001	20.008	100.299	19.963	48.575	0.511
496.500	314.859	80.000	20.008	100.296	19.963	48.728	0.520
497.000	315.141	80.000	20.009	100.296	19.964	48.274	0.510
497.500	315.389	80.000	20.009	100.294	19.962	48.904	0.522
498.000	315.578	80.003	20.009	100.295	19.962	48.870	0.483
498.500	315.869	80.001	20.008	100.297	19.960	49.482	0.458
499.000	316.142	80.000	20.009	100.301	19.958	50.212	0.522
499.500	316.360	80.002	20.009	100.302	19.958	50.185	0.528
500.000	316.605	80.001	20.009	100.300	19.952	52.112	0.477
500.500	316.884	79.999	20.009	100.297	19.951	52.522	0.494
501.000	317.138	80.001	20.009	100.291	19.951	52.558	0.529
501.500	317.366	80.000	20.009	100.291	19.949	53.036	0.508
502.000	317.649	80.000	20.008	100.292	19.949	52.915	0.497
502.500	317.939	80.001	20.009	100.295	19.948	53.410	0.542
503.000	318.209	80.001	20.009	100.297	19.945	54.307	0.566
503.500	318.440	80.000	20.009	100.300	19.945	54.186	0.530
504.000	318.705	79.999	20.009	100.297	19.941	55.434	0.499
504.500	318.905	80.001	20.009	100.291	19.939	56.133	0.481
505.000	319.164	80.000	20.009	100.289	19.939	56.238	0.462
505.500	319.411	80.000	20.008	100.291	19.934	57.544	0.482
506.000	319.709	80.002	20.009	100.293	19.934	57.637	0.525
506.500	319.941	80.000	20.009	100.297	19.934	57.794	0.537
507.000	320.144	80.000	20.009	100.297	19.934	57.571	0.483
507.500	320.386	80.001	20.009	100.288	19.931	58.708	0.440
508.000	320.612	80.001	20.010	100.278	19.930	58.889	0.457
508.500	320.907	80.000	20.008	100.272	19.927	59.861	0.494
509.000	321.174	80.001	20.009	100.271	19.926	60.024	0.541
509.500	321.441	80.000	20.008	100.276	19.923	61.020	0.548
510.000	321.694	80.000	20.008	100.284	19.924	60.913	0.527
510.500	321.893	80.000	20.009	100.288	19.920	62.020	0.486
511.000	322.150	80.001	20.009	100.285	19.920	61.907	0.454
511.500	322.429	80.000	20.009	100.278	19.919	62.348	0.496
512.000	322.687	80.001	20.009	100.272	19.919	62.479	0.537
512.500	322.928	80.001	20.009	100.271	19.913	64.345	0.518
513.000	323.182	80.000	20.008	100.276	19.914	63.964	0.496
513.500	323.403	80.000	20.008	100.284	19.912	64.496	0.485
514.000	323.726	80.001	20.009	100.290	19.909	65.359	0.510
514.500	323.919	80.001	20.009	100.290	19.907	66.194	0.530
515.000	324.170	80.000	20.009	100.283	19.904	66.905	0.480
515.500	324.461	80.000	20.009	100.278	19.903	67.280	0.493
516.000	324.648	80.000	20.009	100.278	19.901	67.842	0.510
516.500	324.923	80.001	20.008	100.285	19.901	67.870	0.471
517.000	325.181	80.000	20.009	100.292	19.899	68.575	0.498
517.500	325.397	80.001	20.008	100.301	19.896	69.538	0.503
518.000	325.639	80.001	20.009	100.302	19.892	70.571	0.465
518.500	325.883	80.000	20.009	100.297	19.890	71.319	0.472
519.000	326.141	80.000	20.009	100.287	19.889	71.689	0.494
519.500	326.429	80.002	20.009	100.287	19.886	72.415	0.524
520.000	326.658	80.000	20.009	100.286	19.886	72.691	0.532
520.500	326.892	80.000	20.009	100.293	19.882	73.816	0.490
521.000	327.102	80.000	20.008	100.300	19.880	74.536	0.453
521.500	327.384	80.000	20.009	100.305	19.877	75.214	0.468
522.000	327.659	80.001	20.009	100.305	19.874	76.425	0.524
522.500	327.875	80.001	20.009	100.305	19.872	76.805	0.524
523.000	328.121	79.999	20.009	100.302	19.871	77.271	0.477
523.500	328.399	80.001	20.009	100.303	19.865	79.092	0.493
524.000	328.686	80.001	20.008	100.311	19.864	79.377	0.544
524.500	328.897	79.999	20.009	100.314	19.864	79.449	0.532
525.000	329.090	80.001	20.009	100.315	19.860	80.524	0.451
525.500	329.374	80.000	20.009	100.314	19.859	80.812	0.440
526.000	329.616	80.001	20.009	100.312	19.856	81.819	0.501
526.500	329.938	80.000	20.009	100.304	19.855	82.093	0.545
527.000	330.133	80.000	20.009	100.303	19.852	82.984	0.540
527.500	330.370	80.002	20.009	100.308	19.845	85.385	0.475
528.000	330.630	80.000	20.008	100.314	19.845	85.385	0.465
528.500	330.872	80.001	20.009	100.317	19.843	86.061	0.500
529.000	331.096	80.000	20.009	100.314	19.839	87.062	0.484
529.500	331.337	80.000	20.009	100.308	19.839	87.305	0.465
530.000	331.618	80.000	20.009	100.294	19.835	88.382	0.493
530.500	331.807	80.001	20.008	100.286	19.830	90.073	0.496
531.000	332.089	80.000	20.008	100.284	19.828	90.590	0.470
531.500	332.345	80.001	20.008	100.286	19.827	90.744	0.505
532.000	332.596	80.001	20.008	100.291	19.826	91.287	0.523
532.500	332.868	80.000	20.008	100.299	19.823	92.196	0.515
533.000	333.092	80.000	20.009	100.300	19.818	93.710	0.509
533.500	333.338	80.002	20.008	100.298	19.814	94.921	0.483
534.000	333.592	80.001	20.009	100.298	19.813	95.255	0.485
534.500	333.802	80.001	20.009	100.304	19.809	96.466	0.482
535.000	334.101	80.000	20.008	100.311	19.805	97.565	0.486
535.500	334.347	80.001	20.008	100.321	19.803	98.379	0.527
536.000	334.576	80.001	20.009	100.330	19.798	99.840	0.510
536.500	334.827	80.000	20.009	100.331	19.793	101.439	0.478
537.000	335.087	80.001	20.009	100.327	19.789	102.744	0.496
537.500	335.326	80.001	20.009	100.319	19.783	104.478	0.505
538.000	335.551	80.001	20.009	100.312	19.779	105.896	0.482
538.500	335.811	80.000	20.009	100.311	19.771	108.209	0.474
539.000	336.072	80.001	20.008	100.318	19.767	109.471	0.503
539.500	336.378	80.001	20.009	100.324	19.762	110.916	0.544
540.000	336.562	80.001	20.008	100.333	19.762	111.098	0.528
540.500	336.836	80.000	20.009	100.337	19.755	113.265	0.473
541.000	337.073	80.002	20.009	100.330	19.754	113.547	0.485
541.500	337.369	80.001	20.009	100.323	19.749	115.163	0.522
542.000	337.552	80.001	20.009	100.323	19.747	115.733	0.506
542.500	337.825	80.002	20.009	100.323	19.746	115.946	0.468
543.000	338.076	80.001	20.009	100.326	19.744	116.696	0.490
543.500	338.329	80.001	20.009	100.328	19.737	118.677	0.514
544.000	338.515	80.000	20.009	100.327	19.736	118.964	0.471
544.500	338.780	80.001	20.009	100.317	19.732	120.452	0.445
545.000	339.097	80.000	20.009	100.301	19.732	120.252	0.517
545.500	339.351	80.001	20.009	100.294	19.729	121.237	0.577
546.000	339.548	80.000	20.009	100.295	19.725	122.633	0.511
546.500	339.823	80.002	20.008	100.302	19.717	125.080	0.461
547.000	340.075	80.001	20.008	100.309	19.716	125.333	0.500
547.500	340.319	79.999	20.009	100.315	19.711	126.712	0.512
548.000	340.577	80.002	20.009	100.314	19.710	126.979	0.499
548.500	340.850	80.000	20.009	100.309	19.704	128.933	0.516
549.000	341.045	80.002	20.009	100.303	19.703	129.381	0.500
549.500	341.291	80.000	20.009	100.304	19.699	130.410	0.454
550.000	341.528	80.001	20.009	100.312	19.695	131.872	0.462
550.500	341.846	79.999	20.009	100.324	19.691	133.104	0.519
551.000	342.079	80.003	20.008	100.334	19.691	132.902	0.553
551.500	342.295	80.000	20.009	100.341	19.686	134.405	0.500
552.000	342.547	80.000	20.009	100.338	19.683	135.543	0.459
552.500	342.767	80.001	20.009	100.330	19.680	136.370	0.470
553.000	343.063	79.999	20.009	100.324	19.675	137.979	0.494
553.500	343.320	80.001	20.008	100.322	19.670	139.577	0.535
554.000	343.529	80.001	20.008	100.323	19.668	140.059	0.510
554.500	343.756	80.000	20.007	100.327	19.665	141.149	0.451
555.000	344.027	80.001	20.008	100.333	19.657	143.668	0.467
555.500	344.299	80.001	20.008	100.330	19.657	143.463	0.521
556.000	344.525	80.000	20.008	100.322	19.651	145.526	0.520
556.500	344.793	80.001	20.008	100.314	19.646	147.081	0.496
557.000	344.997	80.000	20.008	100.313	19.639	149.210	0.483
557.500	345.333	80.001	20.008	100.314	19.638	149.315	0.506
558.000	345.555	80.001	20.008	100.322	19.634	150.688	0.549
558.500	345.811	80.001	20.008	100.329	19.630	151.901	0.518
559.000	346.089	80.002	20.008	100.336	19.626	153.052	0.506
559.500	346.299	80.000	20.008	100.329	19.623	154.276	0.511
560.000	346.536	80.000	20.008	100.321	19.620	155.122	0.467
560.500	346.803	80.001	20.008	100.314	19.615	156.571	0.475
561.000	347.109	80.000	20.008	100.313	19.612	157.488	0.538
561.500	347.300	80.001	20.008	100.314	19.609	158.564	0.535
562.000	347.582	80.001	20.007	100.322	19.604	159.936	0.485
562.500	347.788	80.000	20.007	100.323	19.597	162.120	0.481
563.000	348.093	80.001	20.008	100.319	19.598	161.865	0.500
563.500	348.273	80.001	20.008	100.309	19.590	164.428	0.498
564.000	348.542	80.000	20.008	100.300	19.583	166.602	0.467
564.500	348.841	80.002	20.008	100.293	19.580	167.393	0.508
565.000	349.041	80.000	20.008	100.292	19.574	169.239	0.533
565.500	349.320	80.001	20.007	100.298	19.569	170.681	0.489
566.000	349.608	80.001	20.007	100.302	19.564	172.484	0.524
566.500	349.875	80.001	20.008	100.302	19.557	174.547	0.561
567.000	350.091	80.001	20.008	100.301	19.551	176.278	0.519
567.500	350.386	80.001	20.008	100.302	19.543	178.836	0.497
568.000	350.562	80.001	20.007	100.306	19.537	180.798	0.491
568.500	350.824	79.999	20.008	100.314	19.529	183.140	0.455
569.000	351.097	80.000	20.007	100.323	19.524	184.698	0.486
569.500	351.351	80.001	20.007	100.334	19.521	185.620	0.531
570.000	351.637	80.000	20.008	100.339	19.517	187.046	0.534
570.500	351.835	80.000	20.007	100.334	19.513	188.265	0.512
571.000	352.092	80.000	20.008	100.332	19.505	190.576	0.469
571.500	352.302	80.000	20.008	100.333	19.503	191.350	0.461
572.000	352.571	80.001	20.008	100.341	19.499	192.471	0.473
572.500	352.791	80.000	20.008	100.345	19.496	193.595	0.484
573.000	353.047	80.001	20.008	100.349	19.492	194.651	0.482
573.500	353.335	79.999	20.008	100.346	19.488	195.909	0.510
574.000	353.544	80.001	20.008	100.337	19.484	197.213	0.521
574.500	353.774	80.001	20.008	100.322	19.480	198.333	0.468
575.000	354.075	80.000	20.009	100.312	19.474	200.226	0.485
575.500	354.354	79.998	20.008	100.310	19.470	201.414	0.555
576.000	354.540	80.001	20.008	100.314	19.466	202.879	0.523
576.500	354.840	80.000	20.008	100.320	19.463	203.588	0.476
577.000	355.090	80.000	20.008	100.320	19.459	204.955	0.518
577.500	355.310	80.001	20.008	100.319	19.455	206.077	0.510
578.000	355.616	79.999	20.008	100.314	19.453	206.919	0.498
578.500	355.807	80.000	20.008	100.312	19.450	207.882	0.511
579.000	356.092	80.001	20.008	100.313	19.446	208.922	0.487
579.500	356.317	80.000	20.008	100.320	19.442	210.371	0.494
580.000	356.558	80.000	20.008	100.329	19.441	210.533	0.488
580.500	356.872	80.001	20.009	100.331	19.438	211.617	0.510
581.000	357.090	80.000	20.008	100.330	19.431	213.580	0.544
581.500	357.281	80.000	20.008	100.328	19.431	213.695	0.471
582.000	357.516	80.000	20.008	100.328	19.425	215.518	0.417
582.500	357.817	80.001	20.008	100.331	19.419	217.324	0.481
583.000	358.065	80.000	20.008	100.340	19.416	218.169	0.543
583.500	358.299	80.001	20.008	100.348	19.415	218.533	0.516
584.000	358.513	80.001	20.008	100.350	19.413	219.194	0.465
584.500	358.756	80.001	20.008	100.351	19.410	220.100	0.452
585.000	358.970	80.000	20.008	100.348	19.408	220.749	0.457
585.500	359.280	80.001	20.008	100.343	19.402	222.662	0.491
586.000	359.583	79.999	20.008	100.340	19.402	222.673	0.569
586.500	359.776	80.000	20.008	100.341	19.398	223.775	0.554
587.000	360.060	79.999	20.008	100.341	19.396	224.353	0.487
587.500	360.303	80.001	20.008	100.341	19.395	224.906	0.502
588.000	360.586	80.000	20.009	100.337	19.395	224.938	0.526
588.500	360.832	80.000	20.008	100.332	19.392	225.701	0.528
589.000	361.054	79.999	20.008	100.331	19.391	225.957	0.499
589.500	361.329	79.999	20.008	100.335	19.390	226.384	0.482
590.000	361.556	79.999	20.008	100.341	19.388	227.008	0.499
590.500	361.805	79.999	20.008	100.345	19.385	227.979	0.489
591.000	362.045	80.000	20.008	100.350	19.383	228.535	0.483
591.500	362.334	80.000	20.008	100.349	19.382	228.734	0.509
592.000	362.512	80.000	20.008	100.346	19.379	229.710	0.498
592.500	362.797	80.001	20.008	100.340	19.378	230.175	0.465
593.000	362.954	79.999	20.008	100.342	19.374	231.267	0.453
593.500	363.262	80.000	20.008	100.350	19.373	231.722	0.453
594.000	363.520	80.001	20.008	100.358	19.371	232.218	0.515
594.500	363.742	79.998	20.008	100.360	19.367	233.315	0.524
595.000	364.051	80.000	20.008	100.361	19.363	234.727	0.506
595.500	364.296	80.000	20.008	100.360	19.361	235.223	0.543
596.000	364.527	79.999	20.008	100.360	19.358	236.366	0.515
596.500	364.778	80.000	20.008	100.361	19.357	236.521	0.479
597.000	365.008	79.999	20.008	100.367	19.358	236.382	0.481
597.500	365.265	79.999	20.008	100.374	19.356	236.932	0.484
598.000	365.525	80.002	20.007	100.374	19.355	237.095	0.502
598.500	365.745	79.998	20.008	100.365	19.354	237.652	0.498
599.000	365.985	80.000	20.008	100.355	19.357	236.492	0.470
599.500	366.261	79.999	20.008	100.347	19.354	237.654	0.488
600.000	366.481	80.001	20.007	100.342	19.351	238.445	0.506
600.500	366.762	80.000	20.007	100.343	19.357	236.460	0.498
601.000	367.041	79.999	20.008	100.349	19.357	236.479	0.530
601.500	367.250	79.999	20.007	100.350	19.354	237.477	0.525
602.000	367.505	80.000	20.008	100.350	19.358	236.093	0.476
602.500	367.720	80.000	20.008	100.348	19.357	236.391	0.467
603.001	367.976	80.000	20.008	100.346	19.360	235.549	0.470
603.501	368.224	79.999	20.007	100.343	19.359	235.834	0.488
604.000	368.484	79.999	20.008	100.346	19.360	235.713	0.506
604.500	368.782	80.001	20.007	100.347	19.360	235.485	0.533
605.000	369.017	80.000	20.008	100.347	19.361	235.454	0.546
605.500	369.259	79.999	20.008	100.341	19.362	234.922	0.505
606.000	369.496	80.000	20.008	100.332	19.361	235.198	0.478
606.500	369.786	80.000	20.008	100.325	19.362	234.897	0.503
607.000	369.996	80.000	20.007	100.324	19.362	234.985	0.514
607.500	370.263	80.001	20.007	100.328	19.361	235.376	0.488
608.000	370.511	79.999	20.007	100.335	19.361	235.391	0.496
608.500	370.778	80.001	20.007	100.343	19.361	235.373	0.515
609.000	371.067	80.000	20.007	100.347	19.361	235.149	0.536
609.500	371.287	80.001	20.007	100.347	19.361	235.122	0.533
610.000	371.498	80.000	20.008	100.343	19.362	235.075	0.470
610.500	371.770	80.000	20.007	100.340	19.362	234.989	0.457
611.000	371.995	80.000	20.008	100.340	19.360	235.465	0.490
611.500	372.247	79.999	20.007	100.346	19.363	234.532	0.487
612.000	372.495	80.001	20.007	100.348	19.365	233.832	0.489
612.500	372.753	79.999	20.007	100.346	19.367	233.381	0.503
613.000	373.020	80.001	20.007	100.340	19.365	234.075	0.515
613.500	373.255	80.000	20.007	100.332	19.366	233.563	0.513
614.000	373.546	80.000	20.008	100.320	19.369	232.829	0.514
614.500	373.776	79.999	20.007	100.318	19.372	231.830	0.524
615.000	373.943	80.001	20.008	100.320	19.371	232.079	0.459
615.500	374.174	79.999	20.007	100.327	19.374	231.236	0.397
616.000	374.480	80.000	20.007	100.334	19.376	230.671	0.467
616.500	374.741	80.001	20.007	100.338	19.378	230.031	0.552
617.000	374.969	80.000	20.007	100.337	19.381	229.141	0.528
617.500	375.222	79.999	20.007	100.337	19.386	227.665	0.485
618.000	375.489	80.001	20.007	100.336	19.389	226.756	0.500
618.500	375.760	80.000	20.008	100.332	19.392	225.803	0.529
619.000	375.948	80.000	20.008	100.338	19.396	224.305	0.499
619.500	376.186	80.001	20.007	100.344	19.399	223.456	0.442
620.000	376.484	79.999	20.007	100.339	19.405	221.518	0.481
620.500	376.774	80.000	20.007	100.330	19.410	220.247	0.562
621.000	376.920	80.001	20.007	100.320	19.417	217.980	0.512
621.500	377.206	79.999	20.009	100.304	19.421	216.852	0.434
622.000	377.416	80.000	20.007	100.297	19.430	213.975	0.464
622.500	377.722	80.000	20.007	100.297	19.438	211.300	0.506
623.000	377.932	80.002	20.007	100.300	19.442	210.032	0.516
623.500	378.198	79.999	20.007	100.302	19.452	207.171	0.496
624.000	378.404	79.999	20.007	100.298	19.458	205.347	0.474
624.500	378.656	80.000	20.007	100.283	19.465	203.184	0.465
625.000	378.950	79.999	20.008	100.275	19.470	201.650	0.502
625.500	379.227	79.999	20.007	100.275	19.480	198.405	0.559
626.000	379.456	80.000	20.007	100.284	19.485	196.959	0.538
626.500	379.689	80.001	20.008	100.297	19.492	194.579	0.484
627.000	379.945	80.000	20.007	100.308	19.503	191.372	0.476
627.500	380.131	80.001	20.008	100.312	19.507	189.889	0.465
628.000	380.469	80.000	20.007	100.312	19.515	187.414	0.483
628.500	380.688	80.000	20.007	100.310	19.520	186.026	0.541
629.000	380.941	79.999	20.007	100.312	19.528	183.505	0.515
629.500	381.217	80.001	20.008	100.319	19.537	180.866	0.501
630.000	381.412	80.000	20.007	100.327	19.537	180.566	0.500
630.500	381.712	80.000	20.008	100.329	19.544	178.485	0.483
631.000	381.925	80.000	20.008	100.330	19.550	176.619	0.504
631.500	382.217	80.002	20.008	100.325	19.558	174.215	0.509
632.000	382.464	80.000	20.008	100.317	19.562	172.837	0.522
632.500	382.727	80.000	20.007	100.315	19.568	171.080	0.524
633.000	382.963	79.999	20.007	100.322	19.573	169.609	0.504
633.500	383.232	79.999	20.007	100.327	19.577	168.228	0.502
634.000	383.471	80.001	20.007	100.330	19.581	167.057	0.507
634.500	383.723	80.000	20.007	100.329	19.585	165.651	0.500
635.000	383.991	79.999	20.008	100.322	19.590	164.172	0.506
635.500	384.279	79.999	20.008	100.315	19.595	162.791	0.538
636.000	384.492	80.002	20.007	100.307	19.597	162.172	0.529
636.500	384.763	80.000	20.008	100.303	19.602	160.684	0.493
637.000	384.995	79.999	20.007	100.311	19.606	159.223	0.494
637.500	385.259	80.000	20.007	100.320	19.608	158.561	0.499
638.000	385.512	80.001	20.007	100.326	19.615	156.440	0.506
638.500	385.776	80.001	20.007	100.328	19.619	155.240	0.517
639.000	385.991	79.999	20.008	100.325	19.621	154.762	0.498
639.500	386.254	80.002	20.008	100.317	19.628	152.542	0.479
640.000	386.520	80.000	20.008	100.314	19.632	151.422	0.503
640.500	386.736	80.000	20.008	100.316	19.634	150.752	0.505
641.000	386.982	80.000	20.008	100.319	19.639	149.198	0.471
641.500	387.293	80.000	20.007	100.323	19.642	148.064	0.509
642.000	387.519	80.000	20.008	100.324	19.646	146.814	0.547
642.500	387.740	80.000	20.008	100.316	19.651	145.493	0.492
643.000	388.005	80.000	20.008	100.306	19.655	144.171	0.467
643.500	388.291	80.000	20.008	100.300	19.661	142.372	0.519
644.000	388.515	80.000	20.008	100.296	19.661	142.355	0.531
644.500	388.750	80.000	20.008	100.295	19.664	141.259	0.484
645.000	389.035	79.999	20.008	100.297	19.669	139.742	0.490
645.500	389.251	80.000	20.008	100.300	19.673	138.685	0.511
646.000	389.580	80.000	20.009	100.297	19.677	137.283	0.523
646.500	389.794	80.001	20.009	100.290	19.681	136.111	0.544
647.000	390.031	79.999	20.009	100.282	19.687	134.057	0.497
647.500	390.263	80.000	20.009	100.279	19.690	133.352	0.460
648.000	390.536	80.001	20.008	100.279	19.695	131.763	0.487
648.500	390.804	79.999	20.008	100.284	19.695	131.707	0.523
649.000	391.063	80.001	20.008	100.293	19.699	130.387	0.534
649.500	391.318	79.999	20.008	100.301	19.703	129.313	0.521
650.000	391.603	80.000	20.008	100.304	19.704	128.875	0.527
650.500	391.851	80.000	20.008	100.304	19.709	127.291	0.536
651.000	392.085	79.999	20.008	100.300	19.715	125.657	0.507
651.500	392.351	80.001	20.009	100.299	19.717	124.934	0.491
652.000	392.556	79.999	20.009	100.299	19.722	123.296	0.486
652.500	392.793	80.000	20.008	100.303	19.725	122.398	0.456
653.000	393.099	80.003	20.009	100.307	19.729	121.288	0.492
653.500	393.359	80.000	20.009	100.310	19.730	120.896	0.555
654.000	393.617	80.001	20.009	100.304	19.737	118.710	0.542
654.500	393.851	80.001	20.009	100.299	19.739	118.034	0.505
655.000	394.093	80.000	20.009	100.294	19.742	117.067	0.484
655.500	394.360	79.999	20.008	100.291	19.746	115.898	0.492
656.000	394.544	80.000	20.008	100.296	19.751	114.484	0.480
656.500	394.834	80.001	20.008	100.306	19.756	112.950	0.462
657.000	395.099	80.000	20.008	100.313	19.758	112.137	0.514
657.500	395.327	80.000	20.009	100.311	19.764	110.398	0.524
658.000	395.570	80.001	20.009	100.303	19.768	109.202	0.482
658.500	395.844	80.000	20.008	100.292	19.772	107.874	0.494
659.000	396.082	79.999	20.008	100.287	19.780	105.353	0.514
659.500	396.309	80.000	20.008	100.286	19.785	104.015	0.488
660.000	396.590	80.000	20.008	100.287	19.788	102.814	0.487
660.500	396.845	79.999	20.008	100.294	19.792	101.791	0.522
661.000	397.131	80.000	20.008	100.296	19.794	101.118	0.538
661.500	397.346	80.001	20.009	100.288	19.798	99.685	0.521
662.000	397.571	80.000	20.009	100.280	19.805	97.533	0.471
662.500	397.816	79.999	20.008	100.274	19.811	95.761	0.455
663.000	398.107	79.999	20.008	100.274	19.814	94.877	0.503
663.500	398.359	80.001	20.008	100.280	19.818	93.766	0.540
664.000	398.585	80.000	20.008	100.287	19.822	92.338	0.510
664.500	398.880	80.001	20.008	100.295	19.825	91.506	0.499
665.000	399.126	79.999	20.008	100.300	19.833	89.073	0.531
665.500	399.370	80.001	20.009	100.294	19.835	88.328	0.515
666.000	399.620	79.999	20.009	100.291	19.839	86.996	0.492
666.500	399.847	79.999	20.008	100.291	19.844	85.608	0.486
667.000	400.094	80.000	20.008	100.292	19.848	84.440	0.476
667.500	400.322	79.999	20.008	100.296	19.853	82.823	0.475
668.000	400.604	80.001	20.008	100.303	19.857	81.601	0.492
668.500	400.871	80.000	20.009	100.305	19.861	80.165	0.530
669.000	401.099	79.999	20.009	100.306	19.864	79.288	0.522
669.500	401.388	80.000	20.009	100.305	19.867	78.393	0.506
670.000	401.636	80.000	20.009	100.303	19.868	78.071	0.527
670.500	401.878	80.000	20.008	100.306	19.872	76.926	0.514
671.000	402.098	80.000	20.008	100.314	19.878	75.068	0.476
671.500	402.360	80.000	20.008	100.316	19.879	74.687	0.472
672.000	402.573	80.001	20.008	100.316	19.886	72.540	0.479
672.500	402.854	79.999	20.009	100.313	19.889	71.518	0.484
673.000	403.076	80.000	20.009	100.305	19.893	70.368	0.499
673.500	403.279	80.000	20.009	100.297	19.897	69.312	0.464
674.000	403.586	80.000	20.008	100.298	19.900	68.329	0.467
674.500	403.804	80.000	20.008	100.306	19.904	67.067	0.517
675.000	404.063	79.999	20.008	100.314	19.907	65.969	0.500
675.500	404.321	80.001	20.009	100.324	19.910	65.165	0.497
676.000	404.549	80.000	20.009	100.325	19.913	64.123	0.502
676.500	404.835	80.000	20.009	100.320	19.914	63.961	0.500
677.000	405.012	80.000	20.008	100.312	19.917	62.937	0.489
677.500	405.242	80.000	20.009	100.304	19.920	62.051	0.435
678.000	405.535	80.001	20.008	100.300	19.926	60.146	0.465
678.500	405.832	80.000	20.008	100.302	19.928	59.489	0.556
679.000	406.114	79.999	20.008	100.306	19.930	58.781	0.584
679.500	406.356	80.001	20.008	100.306	19.930	58.860	0.552
680.000	406.598	80.000	20.009	100.304	19.935	57.246	0.504
680.500	406.815	80.000	20.009	100.296	19.938	56.585	0.472
681.000	407.075	80.000	20.008	100.290	19.940	55.744	0.468
681.500	407.320	80.001	20.009	100.288	19.943	54.861	0.491
682.000	407.635	79.999	20.008	100.288	19.944	54.593	0.532
682.500	407.838	80.000	20.008	100.291	19.948	53.405	0.539
683.000	408.117	80.001	20.008	100.298	19.951	52.313	0.500
683.500	408.369	80.001	20.009	100.298	19.953	51.887	0.506
684.000	408.594	80.000	20.009	100.292	19.955	51.239	0.504
684.500	408.863	80.001	20.009	100.290	19.957	50.454	0.486
685.000	409.084	79.999	20.009	100.290	19.958	50.271	0.492
685.500	409.296	80.001	20.008	100.290	19.960	49.482	0.462
686.000	409.620	80.000	20.008	100.294	19.963	48.843	0.484
686.500	409.861	80.001	20.008	100.299	19.965	48.081	0.551
687.000	410.101	80.000	20.009	100.298	19.966	47.862	0.523
687.500	410.338	80.000	20.009	100.291	19.967	47.306	0.479
688.000	410.592	80.001	20.009	100.284	19.970	46.439	0.484
688.500	410.866	80.000	20.009	100.276	19.971	46.233	0.509
689.000	411.143	80.000	20.009	100.274	19.973	45.733	0.539
689.500	411.389	80.000	20.008	100.277	19.976	44.666	0.537
690.000	411.617	80.000	20.009	100.282	19.978	44.054	0.498
690.500	411.865	80.001	20.009	100.289	19.980	43.521	0.475
691.000	412.148	80.000	20.009	100.290	19.981	43.206	0.503
691.500	412.367	79.999	20.009	100.285	19.985	41.865	0.517
692.000	412.668	80.000	20.008	100.284	19.982	42.947	0.511
692.500	412.835	79.999	20.009	100.285	19.985	41.961	0.494
693.000	413.051	80.000	20.008	100.290	19.985	41.856	0.426
693.500	413.295	80.001	20.008	100.301	19.987	41.134	0.421
694.000	413.517	80.001	20.008	100.310	19.990	40.261	0.463
694.500	413.734	80.000	20.009	100.311	19.992	39.823	0.453
695.000	414.077	79.999	20.008	100.311	19.992	39.569	0.500
695.500	414.252	80.001	20.009	100.305	19.995	38.865	0.539
696.000	414.488	80.001	20.009	100.297	19.997	38.187	0.464
696.500	414.829	80.000	20.009	100.296	19.997	38.028	0.494
697.000	415.007	80.000	20.008	100.296	19.998	37.959	0.548
697.500	415.324	79.998	20.008	100.297	19.999	37.431	0.507
698.000	415.498	80.000	20.008	100.298	20.001	36.799	0.493
698.500	415.785	80.001	20.009	100.291	19.999	37.681	0.476
699.000	416.016	80.001	20.009	100.284	20.003	36.230	0.490
699.500	416.268	80.000	20.008	100.277	20.001	36.868	0.501
700.000	416.558	79.999	20.008	100.271	20.004	35.883	0.513
700.500	416.736	80.000	20.008	100.273	20.006	35.392	0.505
701.000	417.018	80.001	20.008	100.281	20.006	35.351	0.464
701.500	417.289	80.000	20.008	100.288	20.011	33.908	0.507
702.000	417.478	80.000	20.009	100.297	20.009	34.379	0.507
702.500	417.723	80.001	20.008	100.297	20.008	34.680	0.447
703.000	417.978	79.999	20.009	100.290	20.010	33.989	0.466
703.500	418.239	80.000	20.008	100.285	20.011	33.926	0.508
704.000	418.490	80.000	20.008	100.283	20.015	32.728	0.514
704.500	418.735	80.000	20.008	100.284	20.014	32.962	0.504
705.000	418.998	79.999	20.008	100.288	20.014	32.974	0.502
705.500	419.218	80.000	20.008	100.295	20.016	32.261	0.495
706.000	419.483	80.000	20.009	100.294	20.019	31.508	0.484
706.500	419.677	80.000	20.009	100.289	20.020	31.196	0.472
707.000	419.935	79.999	20.008	100.285	20.017	32.030	0.455
707.500	420.175	80.000	20.008	100.286	20.018	31.518	0.475
708.000	420.454	80.000	20.008	100.288	20.016	32.307	0.508
708.500	420.678	80.000	20.008	100.297	20.019	31.301	0.511
709.000	420.910	79.999	20.008	100.304	20.021	30.879	0.480
709.500	421.199	80.001	20.008	100.301	20.023	30.184	0.489
710.000	421.460	80.001	20.009	100.291	20.024	29.924	0.535
710.500	421.716	80.000	20.009	100.280	20.022	30.339	0.533
711.000	421.934	80.000	20.008	100.271	20.021	30.853	0.495
711.500	422.181	79.999	20.009	100.265	20.021	30.788	0.469
712.000	422.450	80.000	20.008	100.271	20.022	30.526	0.491
712.500	422.669	80.001	20.008	100.280	20.021	30.583	0.503
713.000	422.942	80.001	20.008	100.288	20.026	29.114	0.490
713.500	423.220	79.998	20.008	100.288	20.024	29.827	0.521
714.000	423.431	80.001	20.008	100.285	20.023	30.137	0.520
714.500	423.689	80.000	20.009	100.277	20.026	29.039	0.479
715.000	423.966	80.000	20.008	100.273	20.025	29.505	0.502
715.500	424.153	80.001	20.008	100.274	20.027	28.732	0.500
716.000	424.468	79.999	20.008	100.283	20.025	29.550	0.483
716.500	424.660	80.001	20.008	100.289	20.028	28.532	0.504
717.000	424.938	80.000	20.008	100.290	20.029	28.301	0.488
717.500	425.204	80.001	20.009	100.285	20.029	28.368	0.507
718.000	425.485	79.999	20.009	100.283	20.029	28.403	0.546
718.500	425.701	80.000	20.008	100.283	20.027	28.863	0.522
719.000	425.956	80.001	20.008	100.283	20.027	28.753	0.484
719.500	426.194	80.000	20.008	100.291	20.029	28.249	0.482
720.000	426.472	80.001	20.008	100.298	20.029	28.225	0.505
720.500	426.715	80.000	20.008	100.293	20.030	28.018	0.519
721.000	426.980	80.000	20.009	100.285	20.029	28.134	0.514
721.500	427.216	80.000	20.008	100.272	20.031	27.675	0.505
722.000	427.507	80.001	20.009	100.262	20.029	28.114	0.514
722.500	427.713	80.001	20.008	100.256	20.029	28.201	0.512
723.000	427.997	80.000	20.008	100.262	20.032	27.273	0.494
723.500	428.188	79.999	20.009	100.272	20.029	28.391	0.483
724.000	428.447	80.001	20.009	100.281	20.030	27.820	0.462
724.500	428.745	80.001	20.009	100.284	20.032	27.473	0.503
725.000	428.976	80.000	20.009	100.284	20.031	27.618	0.543
725.500	429.226	80.002	20.009	100.276	20.032	27.456	0.505
726.000	429.500	80.000	20.009	100.267	20.034	26.738	0.502
726.500	429.765	79.999	20.008	100.267	20.034	26.851	0.532
727.000	430.011	80.001	20.008	100.275	20.035	26.458	0.525
727.500	430.234	79.999	20.008	100.281	20.033	27.152	0.490
728.000	430.493	80.000	20.008	100.283	20.036	26.070	0.476
728.500	430.751	80.001	20.008	100.284	20.035	26.351	0.499
729.000	430.992	80.000	20.009	100.281	20.036	26.142	0.507
729.500	431.218	80.000	20.009	100.271	20.035	26.412	0.483
730.000	431.446	79.999	20.008	100.264	20.036	26.203	0.460
730.500	431.743	80.001	20.008	100.268	20.034	26.727	0.490
731.000	431.998	79.999	20.008	100.275	20.035	26.445	0.539
731.500	432.254	79.999	20.008	100.282	20.036	25.998	0.531
732.000	432.503	80.000	20.008	100.285	20.039	25.008	0.508
732.500	432.696	79.999	20.008	100.286	20.038	25.592	0.474
733.000	432.962	80.000	20.009	100.271	20.039	25.005	0.451
733.500	433.189	80.000	20.009	100.259	20.037	25.824	0.476
734.000	433.460	79.999	20.008	100.251	20.038	25.476	0.495
734.500	433.701	80.000	20.009	100.249	20.038	25.326	0.505
735.000	433.956	80.000	20.009	100.248	20.036	25.985	0.504
735.500	434.195	80.000	20.008	100.256	20.038	25.524	0.495
736.000	434.496	80.000	20.009	100.261	20.036	25.955	0.517
736.500	434.681	80.000	20.009	100.255	20.035	26.237	0.513
737.000	434.974	79.999	20.009	100.252	20.037	25.706	0.482
737.500	435.207	80.000	20.008	100.251	20.038	25.584	0.502
738.000	435.444	80.001	20.009	100.253	20.036	26.062	0.498
738.500	435.659	80.001	20.008	100.259	20.036	25.932	0.462
739.000	435.963	80.000	20.009	100.269	20.036	25.984	0.486
739.500	436.215	80.000	20.009	100.274	20.037	25.808	0.537
740.000	436.430	80.000	20.008	100.275	20.038	25.486	0.511
740.500	436.694	79.999	20.009	100.272	20.038	25.604	0.473
741.000	436.950	80.000	20.009	100.265	20.037	25.624	0.500
741.500	437.192	80.000	20.009	100.264	20.037	25.815	0.509
742.000	437.443	80.000	20.008	100.267	20.037	25.822	0.495
742.500	437.714	80.000	20.009	100.274	20.037	25.716	0.507
743.000	437.962	79.999	20.008	100.275	20.038	25.327	0.520
743.500	438.213	80.000	20.009	100.275	20.040	24.907	0.509
744.000	438.490	80.001	20.009	100.272	20.039	25.186	0.514
744.500	438.685	80.000	20.009	100.267	20.040	24.970	0.500
745.000	438.959	80.002	20.009	100.261	20.040	24.914	0.470
745.500	439.207	80.000	20.009	100.265	20.040	24.747	0.496
746.000	439.431	80.000	20.008	100.273	20.040	24.985	0.498
746.500	439.712	79.999	20.009	100.275	20.040	24.789	0.489
747.000	439.929	80.000	20.009	100.274	20.040	24.898	0.501
747.500	440.202	80.000	20.009	100.273	20.040	24.824	0.494
748.000	440.471	80.000	20.009	100.265	20.041	24.652	0.516
748.500	440.724	80.001	20.009	100.255	20.041	24.502	0.532
749.000	440.976	80.000	20.009	100.252	20.040	24.744	0.514
749.500	441.223	80.000	20.009	100.253	20.040	24.923	0.502
750.000	441.444	80.000	20.008	100.252	20.039	25.028	0.483
750.500	441.715	80.000	20.009	100.259	20.039	25.093	0.480
751.000	441.964	80.000	20.008	100.262	20.040	24.764	0.506
751.500	442.144	79.999	20.009	100.264	20.041	24.514	0.475
752.000	442.409	80.001	20.008	100.263	20.042	24.296	0.437
752.500	442.641	79.999	20.009	100.264	20.041	24.466	0.471
753.000	442.902	80.001	20.009	100.260	20.040	24.735	0.495
753.500	443.159	80.000	20.008	100.260	20.039	25.169	0.505
754.000	443.373	79.999	20.009	100.262	20.039	25.132	0.494
754.500	443.626	80.001	20.008	100.268	20.041	24.576	0.469
755.000	443.858	80.000	20.008	100.267	20.040	24.823	0.477
755.500	444.075	80.000	20.009	100.263	20.040	24.985	0.467
756.000	444.343	80.000	20.008	100.254	20.040	24.717	0.467
756.500	444.601	80.000	20.009	100.246	20.041	24.521	0.505
757.000	444.813	80.001	20.009	100.239	20.042	24.109	0.498
757.500	445.101	79.999	20.009	100.240	20.042	24.189	0.485
758.000	445.295	80.000	20.008	100.252	20.041	24.544	0.491
758.500	445.526	79.999	20.008	100.264	20.039	25.264	0.454
759.000	445.802	80.000	20.009	100.271	20.039	25.275	0.466
759.500	446.092	80.000	20.009	100.272	20.038	25.307	0.536
760.000	446.319	80.001	20.009	100.263	20.039	25.017	0.542
760.500	446.587	80.000	20.009	100.255	20.039	25.253	0.507
761.000	446.814	80.000	20.009	100.250	20.040	24.927	0.495
761.500	447.033	80.000	20.008	100.250	20.043	24.034	0.470
762.000	447.292	80.000	20.009	100.250	20.039	25.111	0.462
762.500	447.567	79.999	20.008	100.258	20.041	24.405	0.506
763.000	447.782	79.999	20.008	100.261	20.039	25.269	0.512
763.500	448.024	80.001	20.009	100.260	20.041	24.473	0.473
764.000	448.301	80.000	20.009	100.253	20.038	25.464	0.488
764.500	448.490	80.001	20.009	100.245	20.040	24.794	0.493
765.000	448.777	80.000	20.009	100.240	20.040	24.723	0.471
765.500	449.023	79.999	20.009	100.239	20.040	24.888	0.505
766.000	449.282	80.001	20.009	100.241	20.040	24.778	0.519
766.500	449.493	79.998	20.009	100.250	20.043	23.969	0.487
767.000	449.730	80.001	20.009	100.258	20.041	24.596	0.459
767.500	449.973	79.999	20.008	100.260	20.042	24.333	0.464
768.000	450.238	80.000	20.009	100.253	20.041	24.515	0.494
768.500	450.503	80.001	20.009	100.247	20.041	24.404	0.519
769.000	450.681	80.000	20.009	100.246	20.041	24.398	0.487
769.500	450.940	80.001	20.009	100.246	20.043	23.804	0.440
770.000	451.203	79.999	20.008	100.249	20.042	24.192	0.480
770.500	451.471	80.001	20.009	100.256	20.041	24.402	0.527
771.000	451.712	79.998	20.008	100.263	20.041	24.636	0.520
771.500	451.942	80.001	20.009	100.263	20.042	24.084	0.489
772.000	452.169	80.000	20.009	100.256	20.044	23.520	0.464
772.500	452.409	80.001	20.009	100.249	20.040	24.750	0.462
773.000	452.681	79.999	20.009	100.244	20.042	24.202	0.489
773.500	452.927	79.999	20.009	100.244	20.043	23.923	0.515
774.000	453.144	79.999	20.009	100.251	20.042	24.273	0.491
774.500	453.403	80.000	20.008	100.266	20.041	24.510	0.470
775.000	453.653	80.001	20.008	100.279	20.042	24.332	0.492
775.500	453.886	79.999	20.009	100.285	20.040	24.878	0.496
776.000	454.126	80.000	20.009	100.282	20.039	25.064	0.478
776.500	454.372	80.001	20.009	100.267	20.039	25.251	0.479
777.000	454.598	79.999	20.009	100.252	20.040	24.734	0.479
777.500	454.858	79.999	20.009	100.243	20.041	24.591	0.479
778.000	455.131	79.999	20.009	100.243	20.040	24.783	0.510
778.500	455.360	80.002	20.008	100.249	20.041	24.471	0.517
779.000	455.640	80.000	20.009	100.257	20.041	24.544	0.505
779.500	455.879	79.999	20.009	100.265	20.041	24.601	0.514
780.000	456.164	80.000	20.009	100.262	20.042	24.286	0.521
780.500	456.402	80.000	20.009	100.255	20.042	24.246	0.523
781.000	456.664	80.000	20.009	100.252	20.041	24.593	0.512
781.500	456.915	80.000	20.009	100.252	20.041	24.386	0.507
782.000	457.159	79.999	20.008	100.253	20.040	24.782	0.504
782.500	457.376	80.000	20.009	100.261	20.042	24.294	0.478
783.000	457.624	79.999	20.009	100.268	20.042	24.131	0.463
783.500	457.862	80.000	20.008	100.269	20.043	23.954	0.476
784.000	458.135	79.999	20.009	100.264	20.041	24.415	0.498
784.500	458.375	80.001	20.009	100.255	20.045	23.372	0.512
785.000	458.608	80.001	20.009	100.248	20.043	23.771	0.493
785.500	458.878	79.999	20.008	100.247	20.042	24.329	0.488
786.000	459.140	80.001	20.008	100.255	20.043	23.958	0.517
786.500	459.405	80.000	20.009	100.266	20.042	24.086	0.529
787.000	459.639	80.000	20.008	100.280	20.044	23.464	0.513
787.500	459.911	79.998	20.009	100.283	20.045	23.378	0.503
788.000	460.172	80.000	20.008	100.279	20.044	23.513	0.519
788.500	460.405	79.999	20.009	100.264	20.043	23.878	0.513
789.000	460.630	80.001	20.009	100.248	20.044	23.570	0.476
789.500	460.864	80.000	20.009	100.237	20.045	23.198	0.458
790.000	461.110	80.000	20.009	100.238	20.044	23.638	0.469
790.500	461.403	80.000	20.009	100.241	20.046	22.959	0.510
791.000	461.646	80.000	20.009	100.249	20.045	23.443	0.537
791.500	461.871	80.000	20.009	100.257	20.045	23.167	0.502
792.000	462.097	79.999	20.008	100.261	20.045	23.231	0.460
792.500	462.358	79.999	20.009	100.255	20.045	23.301	0.469
793.000	462.563	80.000	20.009	100.250	20.044	23.595	0.476
793.500	462.874	80.001	20.009	100.249	20.046	23.093	0.491
794.000	463.126	80.000	20.009	100.249	20.046	22.899	0.540
794.500	463.356	80.000	20.009	100.257	20.046	23.116	0.523
795.000	463.604	80.000	20.009	100.270	20.046	23.030	0.480
795.500	463.872	79.999	20.009	100.282	20.048	22.320	0.497
796.000	464.118	80.001	20.009	100.285	20.048	22.481	0.514
796.500	464.376	80.000	20.009	100.284	20.048	22.295	0.509
797.000	464.626	80.001	20.009	100.270	20.049	21.960	0.506
797.500	464.870	80.000	20.009	100.261	20.050	21.875	0.501
798.000	465.102	80.000	20.008	100.259	20.047	22.617	0.485
798.500	465.369	80.001	20.009	100.265	20.046	22.900	0.487
799.000	465.642	80.001	20.008	100.274	20.047	22.651	0.519
799.500	465.841	80.000	20.009	100.288	20.046	23.004	0.506
800.000	466.096	80.001	20.009	100.292	20.047	22.741	0.463
800.500	466.388	80.000	20.009	100.286	20.049	22.159	0.501
801.000	466.644	80.001	20.008	100.277	20.047	22.702	0.548
801.500	466.871	79.999	20.009	100.270	20.047	22.736	0.516
802.000	467.126	80.001	20.009	100.265	20.047	22.613	0.482
802.500	467.393	79.999	20.008	100.271	20.047	22.626	0.502
803.000	467.657	80.001	20.008	100.279	20.046	23.097	0.526
803.500	467.882	80.000	20.009	100.286	20.047	22.585	0.510
804.000	468.161	80.000	20.009	100.286	20.047	22.526	0.496
804.500	468.401	80.001	20.009	100.280	20.047	22.631	0.511
805.000	468.659	80.000	20.009	100.272	20.049	22.109	0.509
805.500	468.948	79.999	20.009	100.265	20.046	22.903	0.522
806.000	469.134	80.000	20.009	100.263	20.046	22.983	0.511
806.500	469.433	80.001	20.008	100.270	20.047	22.630	0.480
807.000	469.672	80.001	20.008	100.280	20.046	22.988	0.512
807.500	469.874	79.998	20.008	100.285	20.047	22.744	0.490
808.000	470.171	80.001	20.009	100.284	20.044	23.645	0.470
808.500	470.390	80.000	20.009	100.270	20.048	22.271	0.508
809.000	470.625	80.000	20.009	100.255	20.049	22.180	0.485
809.500	470.897	80.000	20.009	100.242	20.046	22.875	0.480
810.000	471.151	80.000	20.009	100.238	20.045	23.373	0.517
810.500	471.375	80.001	20.008	100.240	20.046	22.894	0.502
811.000	471.635	79.999	20.008	100.248	20.047	22.736	0.480
811.500	471.885	80.001	20.008	100.256	20.049	22.080	0.497
812.000	472.177	80.000	20.008	100.256	20.047	22.669	0.527
812.500	472.424	80.000	20.009	100.252	20.049	22.047	0.541
813.000	472.638	80.000	20.009	100.250	20.047	22.636	0.500
813.500	472.920	80.000	20.008	100.249	20.045	23.253	0.478
814.000	473.156	80.000	20.009	100.250	20.046	22.894	0.507
814.500	473.338	80.000	20.008	100.256	20.048	22.408	0.468
815.000	473.632	80.001	20.009	100.261	20.047	22.571	0.447
815.500	473.865	80.000	20.008	100.262	20.046	22.990	0.501
816.000	474.176	79.999	20.009	100.261	20.048	22.460	0.535
816.500	474.355	80.001	20.009	100.255	20.047	22.665	0.517
817.000	474.626	79.999	20.009	100.251	20.046	23.040	0.470
817.500	474.859	80.002	20.008	100.253	20.046	22.942	0.477
818.000	475.141	79.999	20.008	100.261	20.046	23.052	0.509
818.500	475.348	80.000	20.008	100.271	20.045	23.358	0.502
819.000	475.634	80.000	20.009	100.279	20.044	23.665	0.491
819.500	475.895	80.000	20.008	100.280	20.046	22.886	0.520
820.000	476.101	80.001	20.009	100.271	20.046	22.993	0.507
820.500	476.365	80.000	20.009	100.262	20.044	23.533	0.469
821.000	476.638	80.000	20.009	100.254	20.045	23.379	0.504
821.500	476.889	80.000	20.009	100.253	20.045	23.314	0.531
822.000	477.119	80.000	20.009	100.255	20.045	23.419	0.502
822.500	477.350	80.002	20.008	100.262	20.046	23.070	0.471
823.000	477.611	80.000	20.009	100.263	20.041	24.554	0.477
823.500	477.796	80.002	20.009	100.261	20.045	23.395	0.469
824.000	478.135	80.000	20.009	100.254	20.045	23.285	0.485
824.500	478.406	80.000	20.009	100.247	20.045	23.358	0.567
825.000	478.653	80.000	20.009	100.246	20.044	23.614	0.564
825.500	478.888	80.001	20.009	100.247	20.043	23.928	0.500
826.000	479.120	80.000	20.008	100.249	20.039	25.117	0.474
826.500	479.389	80.000	20.009	100.256	20.041	24.609	0.484
827.000	479.599	79.999	20.009	100.258	20.040	24.895	0.491
827.500	479.838	80.000	20.008	100.252	20.041	24.654	0.464
828.000	480.098	80.001	20.009	100.249	20.041	24.413	0.473
828.500	480.375	80.000	20.008	100.249	20.044	23.675	0.518
829.000	480.578	79.999	20.009	100.252	20.040	24.717	0.509
829.500	480.833	80.001	20.008	100.258	20.042	24.336	0.469
830.000	481.093	80.002	20.008	100.268	20.042	24.197	0.486
830.500	481.356	80.000	20.009	100.270	20.042	24.221	0.518
831.000	481.605	80.001	20.009	100.263	20.043	23.927	0.517
831.500	481.840	80.000	20.009	100.255	20.045	23.339	0.498
832.000	482.081	79.999	20.009	100.252	20.042	24.086	0.481
832.500	482.298	80.000	20.009	100.253	20.043	23.931	0.467
833.000	482.560	79.999	20.010	100.262	20.042	24.140	0.468
833.500	482.813	80.001	20.009	100.277	20.044	23.630	0.497
834.000	483.074	80.000	20.009	100.289	20.045	23.295	0.515
834.500	483.328	79.999	20.009	100.295	20.045	23.393	0.515
835.000	483.525	80.001	20.008	100.292	20.042	24.179	0.483
835.500	483.830	80.000	20.009	100.284	20.046	23.055	0.477
836.000	484.032	80.001	20.009	100.277	20.042	24.176	0.505
836.500	484.322	80.000	20.009	100.276	20.043	23.809	0.499
837.000	484.558	80.000	20.009	100.278	20.045	23.324	0.509
837.500	484.798	80.000	20.008	100.286	20.043	23.774	0.501
838.000	485.044	79.999	20.008	100.288	20.042	24.073	0.481
838.500	485.282	80.001	20.009	100.287	20.043	24.026	0.485
839.000	485.534	80.000	20.009	100.275	20.041	24.380	0.487
839.500	485.758	80.000	20.009	100.262	20.042	24.210	0.483
840.000	486.042	80.000	20.009	100.253	20.043	23.837	0.492
840.500	486.222	80.000	20.008	100.255	20.038	25.602	0.486
841.000	486.498	80.001	20.008	100.261	20.041	24.671	0.460
841.500	486.717	80.001	20.009	100.268	20.042	24.238	0.475
842.000	486.966	80.000	20.009	100.273	20.042	24.238	0.481
842.500	487.182	80.000	20.009	100.270	20.041	24.514	0.466
843.000	487.437	80.000	20.009	100.261	20.039	25.045	0.468
843.500	487.720	79.999	20.009	100.254	20.040	24.720	0.504
844.000	487.941	80.001	20.009	100.254	20.042	24.313	0.521
844.500	488.195	80.001	20.009	100.257	20.040	24.841	0.490
845.000	488.435	80.001	20.009	100.265	20.039	25.174	0.485
845.500	488.655	79.999	20.008	100.270	20.041	24.670	0.477
846.000	488.956	80.000	20.009	100.271	20.041	24.487	0.490
846.500	489.144	80.000	20.009	100.270	20.042	24.149	0.505
847.000	489.435	80.000	20.009	100.266	20.040	24.877	0.484
847.500	489.661	80.000	20.008	100.265	20.040	24.720	0.498
848.000	489.866	80.000	20.009	100.270	20.039	25.021	0.474
848.500	490.156	80.000	20.009	100.277	20.038	25.335	0.463
849.000	490.374	79.998	20.009	100.282	20.042	24.144	0.502
849.500	490.648	80.001	20.009	100.282	20.040	24.937	0.499
850.000	490.868	79.999	20.009	100.277	20.039	25.174	0.493
850.500	491.135	80.000	20.009	100.271	20.040	24.925	0.491
851.000	491.379	80.001	20.009	100.264	20.040	24.714	0.499
851.500	491.621	80.001	20.009	100.260	20.041	24.627	0.499
852.000	491.814	80.001	20.009	100.262	20.039	25.253	0.461
852.500	492.099	80.000	20.009	100.263	20.040	24.977	0.457
853.000	492.323	79.999	20.009	100.260	20.043	23.828	0.494
853.500	492.562	80.001	20.009	100.254	20.038	25.414	0.486
854.000	492.810	80.000	20.009	100.246	20.041	24.467	0.475
854.500	493.056	80.000	20.009	100.240	20.041	24.607	0.491
855.000	493.326	80.000	20.008	100.241	20.040	24.790	0.505
855.500	493.537	80.001	20.009	100.245	20.041	24.598	0.498
856.000	493.777	79.999	20.009	100.252	20.041	24.663	0.466
856.500	494.046	80.001	20.009	100.258	20.042	24.264	0.480
857.000	494.299	80.001	20.009	100.254	20.041	24.533	0.516
857.500	494.565	80.000	20.009	100.246	20.041	24.513	0.521
858.000	494.784	80.002	20.009	100.244	20.041	24.605	0.502
858.500	495.051	80.000	20.009	100.243	20.041	24.466	0.485
859.000	495.257	80.001	20.009	100.245	20.042	24.242	0.479
859.500	495.551	80.000	20.008	100.252	20.042	24.235	0.487
860.000	495.798	80.000	20.009	100.258	20.043	23.934	0.520
860.500	496.016	79.999	20.009	100.258	20.044	23.523	0.503
861.000	496.221	80.001	20.009	100.258	20.042	24.192	0.445
861.500	496.504	80.000	20.009	100.257	20.042	24.238	0.456
862.000	496.755	80.000	20.008	100.259	20.043	23.838	0.511
862.500	497.008	80.000	20.008	100.264	20.043	23.823	0.519
863.000	497.247	80.001	20.008	100.267	20.045	23.363	0.498
863.500	497.517	79.999	20.008	100.266	20.042	24.167	0.501
864.000	497.729	80.000	20.009	100.263	20.042	24.136	0.495
864.500	498.001	80.001	20.009	100.254	20.043	23.897	0.483
865.000	498.241	80.000	20.009	100.243	20.042	24.134	0.498
865.500	498.475	80.000	20.009	100.242	20.041	24.566	0.493
866.000	498.692	80.000	20.008	100.249	20.043	23.819	0.462
866.500	498.963	80.000	20.008	100.260	20.041	24.523	0.470
867.000	499.219	80.000	20.008	100.269	20.045	23.408	0.508
867.500	499.483	80.000	20.008	100.278	20.045	23.415	0.523
868.000	499.734	80.001	20.008	100.278	20.044	23.651	0.517
868.500	499.988	80.001	20.008	100.271	20.045	23.417	0.510
869.000	500.255	80.000	20.008	100.266	20.044	23.680	0.513
869.500	500.480	79.999	20.008	100.269	20.042	24.072	0.507
870.000	500.798	80.000	20.008	100.270	20.043	23.815	0.517
870.500	500.978	80.000	20.008	100.270	20.043	23.891	0.521
871.000	501.263	80.001	20.009	100.269	20.045	23.367	0.482
871.500	501.510	80.000	20.009	100.266	20.045	23.203	0.498
872.000	501.725	80.000	20.009	100.258	20.042	24.167	0.497
872.500	502.003	80.001	20.008	100.255	20.047	22.801	0.478
873.000	502.253	80.000	20.008	100.256	20.043	23.935	0.511
873.500	502.477	79.999	20.009	100.263	20.045	23.444	0.501
874.000	502.749	80.001	20.008	100.267	20.045	23.403	0.485
874.500	502.995	80.000	20.009	100.270	20.045	23.422	0.507
875.000	503.233	80.000	20.008	100.264	20.046	22.984	0.501
875.500	503.495	80.000	20.008	100.257	20.043	23.809	0.492
876.000	503.737	80.001	20.008	100.249	20.044	23.759	0.502
876.500	503.967	80.000	20.008	100.248	20.046	23.060	0.488
877.000	504.251	80.000	20.008	100.254	20.045	23.413	0.493
877.500	504.481	80.000	20.008	100.266	20.045	23.241	0.514
878.000	504.749	80.000	20.008	100.274	20.045	23.199	0.506
878.500	504.998	79.999	20.008	100.274	20.046	22.870	0.508
879.000	505.207	80.001	20.008	100.267	20.047	22.764	0.488
879.500	505.508	80.001	20.009	100.255	20.045	23.138	0.484
880.000	505.745	80.002	20.008	100.247	20.047	22.623	0.524
880.500	505.990	80.000	20.008	100.246	20.045	23.272	0.510
881.000	506.205	80.000	20.008	100.249	20.047	22.676	0.471
881.500	506.454	79.999	20.008	100.256	20.047	22.753	0.462
882.000	506.641	80.000	20.009	100.262	20.045	23.197	0.451
882.500	506.934	80.000	20.008	100.258	20.045	23.295	0.458
883.000	507.179	80.000	20.009	100.250	20.044	23.637	0.509
883.500	507.441	80.000	20.009	100.242	20.042	24.250	0.523
884.000	507.685	80.001	20.009	100.238	20.045	23.196	0.507
884.500	507.907	80.000	20.008	100.239	20.044	23.712	0.486
885.000	508.166	79.999	20.008	100.245	20.045	23.370	0.474
885.500	508.403	80.000	20.009	100.253	20.044	23.479	0.488
886.000	508.664	80.000	20.008	100.260	20.044	23.496	0.497
886.500	508.908	80.000	20.009	100.259	20.044	23.603	0.501
887.000	509.168	80.001	20.009	100.252	20.046	23.049	0.504
887.500	509.441	80.001	20.008	100.252	20.047	22.775	0.518
888.000	509.720	80.000	20.009	100.252	20.047	22.606	0.543
888.500	509.929	80.001	20.009	100.254	20.047	22.737	0.520
889.000	510.178	80.000	20.008	100.262	20.045	23.168	0.473
889.500	510.456	80.000	20.008	100.269	20.045	23.441	0.492
890.000	510.703	80.001	20.008	100.267	20.046	23.029	0.526
890.500	510.926	79.999	20.009	100.259	20.043	23.841	0.498
891.000	511.211	80.002	20.009	100.249	20.045	23.272	0.488
891.500	511.456	80.000	20.008	100.239	20.043	23.863	0.519
892.000	511.686	80.000	20.009	100.236	20.044	23.648	0.503
892.500	511.877	80.001	20.008	100.240	20.044	23.720	0.448
893.000	512.168	80.000	20.008	100.247	20.041	24.525	0.451
893.500	512.407	80.002	20.008	100.251	20.042	24.295	0.506
894.000	512.658	79.999	20.009	100.249	20.040	24.798	0.510
894.500	512.915	80.001	20.009	100.244	20.044	23.678	0.499
895.000	513.156	79.999	20.007	100.241	20.045	23.423	0.503
895.500	513.440	80.000	20.009	100.238	20.041	24.412	0.511
896.000	513.666	80.001	20.010	100.220	20.044	23.640	0.517
896.500	513.887	80.001	20.010	100.209	20.043	23.959	0.479
897.000	514.149	80.000	20.009	100.207	20.044	23.676	0.465
897.500	514.359	80.001	20.008	100.202	20.043	23.805	0.477
898.000	514.596	80.000	20.008	100.198	20.041	24.440	0.459
898.500	514.867	80.001	20.008	100.215	20.042	24.341	0.477
899.000	515.143	80.000	20.008	100.232	20.041	24.650	0.528
899.500	515.391	80.000	20.008	100.241	20.039	25.156	0.536
900.000	515.651	80.000	20.008	100.249	20.041	24.641	0.516
900.500	515.856	80.001	20.008	100.256	20.040	24.830	0.486
901.000	516.127	80.001	20.008	100.260	20.042	24.122	0.470
901.500	516.377	80.001	20.008	100.261	20.043	23.883	0.499
902.000	516.608	80.001	20.008	100.254	20.043	23.784	0.501
902.500	516.898	80.002	20.008	100.250	20.042	24.293	0.501
903.000	517.154	80.001	20.008	100.250	20.041	24.493	0.533
903.500	517.376	80.001	20.008	100.251	20.040	24.796	0.512
904.000	517.692	80.001	20.008	100.253	20.039	25.317	0.508
904.500	517.916	80.001	20.007	100.262	20.040	24.825	0.539
905.000	518.133	80.001	20.008	100.266	20.042	24.302	0.491
905.500	518.392	80.002	20.008	100.265	20.039	25.169	0.459
906.000	518.680	80.001	20.009	100.263	20.037	25.712	0.512
906.500	518.910	80.002	20.008	100.259	20.040	24.751	0.532
907.000	519.169	80.000	20.008	100.256	20.042	24.119	0.503
907.500	519.379	80.001	20.008	100.256	20.041	24.402	0.479
908.000	519.614	80.000	20.007	100.256	20.043	23.912	0.457
908.500	519.885	80.001	20.008	100.257	20.043	23.924	0.476
909.000	520.119	80.001	20.008	100.260	20.043	24.041	0.506
909.500	520.402	80.002	20.008	100.253	20.040	24.763	0.511
910.000	520.680	80.001	20.008	100.246	20.043	23.950	0.539
910.500	520.926	80.001	20.008	100.238	20.044	23.677	0.543
911.000	521.191	80.002	20.008	100.236	20.044	23.700	0.518
911.500	521.421	80.001	20.008	100.237	20.044	23.470	0.503
912.000	521.691	80.000	20.008	100.243	20.046	22.882	0.497
912.500	521.917	80.002	20.008	100.249	20.047	22.679	0.498
913.000	522.176	80.000	20.007	100.257	20.046	23.004	0.490
913.500	522.422	80.002	20.009	100.253	20.046	22.961	0.495
914.000	522.694	80.001	20.010	100.248	20.046	22.953	0.511
914.500	522.928	80.001	20.008	100.261	20.046	22.976	0.512
915.000	523.160	79.999	20.008	100.286	20.044	23.707	0.486
915.500	523.415	79.999	20.008	100.305	20.044	23.472	0.477
916.000	523.666	80.001	20.008	100.321	20.045	23.267	0.497
916.500	523.916	80.000	20.008	100.330	20.048	22.408	0.504
917.000	524.155	80.002	20.009	100.317	20.045	23.250	0.495
917.500	524.459	80.000	20.009	100.286	20.045	23.234	0.516
918.000	524.693	80.000	20.009	100.261	20.044	23.694	0.540
918.500	524.961	80.002	20.008	100.248	20.042	24.091	0.520
919.000	525.178	79.999	20.008	100.247	20.043	23.828	0.494
919.500	525.397	80.000	20.009	100.252	20.041	24.645	0.461
920.000	525.629	80.001	20.009	100.263	20.041	24.541	0.444
920.500	525.885	80.000	20.008	100.270	20.038	25.487	0.469
921.000	526.134	80.000	20.009	100.273	20.037	25.643	0.496
921.500	526.400	79.997	20.008	100.271	20.037	25.708	0.510
922.000	526.637	80.002	20.010	100.292	20.038	25.420	0.509
922.500	526.900	80.001	20.012	100.248	20.036	25.930	0.501
923.000	527.159	80.000	20.009	100.213	20.036	26.217	0.511
923.500	527.435	80.001	20.008	100.193	20.034	26.785	0.528
924.000	527.670	80.000	20.008	100.181	20.036	25.980	0.523
924.500	527.884	80.001	20.008	100.147	20.033	26.931	0.480
925.000	528.151	80.001	20.008	100.179	20.035	26.286	0.465
925.500	528.412	80.001	20.007	100.206	20.038	25.391	0.505
926.000	528.668	80.001	20.007	100.225	20.037	25.732	0.523
926.500	528.927	80.001	20.007	100.236	20.039	25.057	0.516
927.000	529.162	80.000	20.010	100.230	20.039	25.094	0.504
927.500	529.431	80.001	20.007	100.248	20.040	24.844	0.499
928.000	529.683	80.002	20.007	100.264	20.039	25.029	0.512
928.500	529.915	80.001	20.006	100.270	20.040	24.932	0.502
929.000	530.170	80.001	20.011	100.258	20.041	24.510	0.485
929.500	530.453	80.000	20.008	100.280	20.042	24.323	0.513
930.000	530.657	80.000	20.007	100.301	20.042	24.311	0.513
930.500	530.864	80.000	20.008	100.316	20.042	24.224	0.449
931.000	531.161	80.000	20.008	100.323	20.039	25.020	0.458
931.500	531.419	80.001	20.009	100.339	20.043	23.814	0.530
932.000	531.618	80.001	20.009	100.332	20.042	24.338	0.506
932.500	531.897	79.999	20.009	100.300	20.040	24.712	0.467
933.000	532.135	80.001	20.009	100.275	20.039	25.236	0.497
933.500	532.402	80.001	20.009	100.263	20.038	25.602	0.511
934.000	532.588	80.000	20.009	100.258	20.036	25.953	0.479
934.500	532.875	80.000	20.008	100.259	20.038	25.550	0.463
935.000	533.118	79.999	20.009	100.260	20.039	25.267	0.501
935.500	533.293	80.002	20.009	100.258	20.040	24.946	0.474
936.000	533.574	79.999	20.009	100.252	20.039	25.130	0.437
936.500	533.827	80.001	20.008	100.248	20.040	24.863	0.494
937.000	534.076	80.000	20.008	100.249	20.037	25.742	0.518
937.500	534.276	80.001	20.008	100.255	20.039	25.257	0.476
938.000	534.546	80.000	20.008	100.264	20.040	24.707	0.460
938.500	534.787	80.001	20.008	100.274	20.042	24.294	0.491
939.000	535.048	80.000	20.009	100.277	20.043	23.954	0.506
939.500	535.306	80.000	20.008	100.274	20.041	24.687	0.511
940.000	535.515	80.001	20.008	100.264	20.040	24.707	0.493
940.500	535.749	80.001	20.009	100.258	20.041	24.518	0.455
941.000	535.987	80.001	20.008	100.263	20.040	24.859	0.457
941.500	536.269	80.002	20.008	100.272	20.043	23.969	0.496
942.000	536.544	80.001	20.009	100.283	20.043	24.060	0.538
942.500	536.780	80.002	20.009	100.295	20.041	24.532	0.534
943.000	536.993	80.001	20.009	100.298	20.042	24.272	0.480
943.500	537.246	80.002	20.009	100.290	20.041	24.562	0.457
944.000	537.447	80.001	20.008	100.283	20.043	23.940	0.460
944.500	537.663	80.002	20.008	100.276	20.041	24.543	0.435
945.000	537.916	80.001	20.009	100.276	20.044	23.724	0.442
945.500	538.210	80.001	20.008	100.280	20.041	24.463	0.508
946.000	538.425	80.000	20.008	100.281	20.040	24.980	0.528
946.500	538.727	80.000	20.009	100.278	20.042	24.360	0.513
947.000	538.919	80.001	20.009	100.269	20.038	25.318	0.505
947.500	539.189	80.001	20.009	100.255	20.040	24.796	0.478
948.000	539.428	80.000	20.009	100.247	20.040	24.802	0.486
948.500	539.654	80.000	20.009	100.246	20.042	24.211	0.487
949.000	539.882	80.000	20.009	100.249	20.040	24.904	0.459
949.500	540.134	80.001	20.009	100.256	20.041	24.556	0.467
950.000	540.380	80.001	20.009	100.263	20.037	25.860	0.489
950.500	540.612	79.999	20.009	100.262	20.041	24.416	0.488
951.000	540.886	80.001	20.009	100.259	20.039	25.158	0.492
951.500	541.096	80.000	20.009	100.257	20.040	24.878	0.494
952.000	541.358	80.000	20.009	100.257	20.040	24.975	0.478
952.500	541.596	80.001	20.008	100.259	20.040	24.731	0.487
953.000	541.823	80.001	20.008	100.261	20.040	24.806	0.483
953.500	542.093	80.000	20.009	100.264	20.039	25.040	0.481
954.000	542.333	80.000	20.009	100.266	20.042	24.215	0.503
954.500	542.590	80.001	20.009	100.266	20.041	24.589	0.503
955.000	542.794	79.999	20.009	100.265	20.043	23.888	0.479
955.500	543.083	80.001	20.009	100.268	20.044	23.462	0.477
956.000	543.348	80.001	20.008	100.276	20.044	23.623	0.524
956.500	543.552	80.001	20.008	100.283	20.042	24.182	0.511
957.000	543.758	80.000	20.009	100.283	20.041	24.376	0.439
957.500	544.020	80.001	20.009	100.283	20.042	24.068	0.439
958.000	544.254	80.001	20.009	100.281	20.043	23.846	0.482
958.500	544.523	80.001	20.009	100.279	20.043	23.966	0.500
959.000	544.756	80.001	20.008	100.279	20.046	23.071	0.503
959.500	545.017	80.001	20.009	100.287	20.046	23.090	0.497
960.000	545.275	79.999	20.008	100.296	20.045	23.403	0.507
960.500	545.528	80.000	20.008	100.302	20.045	23.174	0.515
961.000	545.780	80.002	20.009	100.299	20.047	22.783	0.508
961.500	546.010	80.000	20.009	100.293	20.050	21.764	0.494
962.000	546.266	80.001	20.009	100.287	20.048	22.356	0.484
962.500	546.520	80.001	20.009	100.286	20.047	22.712	0.498
963.000	546.712	80.001	20.009	100.289	20.048	22.432	0.478
963.500	546.999	80.000	20.008	100.301	20.047	22.797	0.462
964.000	547.241	80.001	20.009	100.311	20.047	22.710	0.504
964.500	547.520	80.000	20.009	100.316	20.045	23.443	0.526
965.000	547.762	80.001	20.009	100.313	20.043	24.066	0.521
965.500	547.974	79.999	20.009	100.303	20.042	24.263	0.488
966.000	548.247	80.001	20.009	100.289	20.043	23.826	0.469
966.500	548.447	80.000	20.008	100.283	20.044	23.492	0.478
967.000	548.721	80.000	20.008	100.281	20.043	23.948	0.473
967.500	548.981	80.000	20.008	100.284	20.042	24.208	0.505
968.000	549.241	79.999	20.009	100.283	20.041	24.487	0.527
968.500	549.480	80.002	20.008	100.281	20.041	24.616	0.509
969.000	549.735	80.001	20.009	100.269	20.041	24.406	0.496
969.500	549.979	80.000	20.008	100.254	20.039	25.290	0.496
970.000	550.229	80.001	20.009	100.244	20.041	24.400	0.496
970.500	550.485	80.000	20.008	100.244	20.037	25.800	0.500
971.000	550.800	80.000	20.008	100.246	20.039	25.104	0.539
971.500	551.007	80.002	20.008	100.253	20.038	25.359	0.546
972.000	551.247	80.001	20.008	100.260	20.039	25.005	0.484
972.500	551.467	80.001	20.008	100.257	20.040	24.902	0.453
973.000	551.727	80.001	20.009	100.253	20.040	24.701	0.470
973.500	551.965	80.002	20.009	100.253	20.042	24.365	0.489
974.000	552.185	80.000	20.009	100.261	20.042	24.380	0.478
974.500	552.448	80.000	20.008	100.271	20.042	24.380	0.471
975.000	552.695	80.000	20.009	100.283	20.044	23.718	0.497
975.500	552.971	80.001	20.009	100.295	20.044	23.559	0.517
976.000	553.209	80.000	20.009	100.300	20.044	23.459	0.518
976.500	553.458	80.001	20.010	100.294	20.046	23.132	0.501
977.000	553.735	80.002	20.009	100.287	20.045	23.265	0.507
977.500	553.978	80.000	20.008	100.286	20.045	23.312	0.523
978.000	554.249	80.000	20.008	100.288	20.046	23.037	0.517
978.500	554.483	79.999	20.008	100.293	20.045	23.207	0.510
979.000	554.718	80.000	20.008	100.298	20.043	24.030	0.487
979.500	554.977	80.000	20.008	100.298	20.044	23.701	0.481
980.000	555.239	80.000	20.009	100.289	20.044	23.629	0.508
980.500	555.441	80.000	20.008	100.279	20.041	24.384	0.493
981.000	555.710	80.000	20.009	100.269	20.040	24.863	0.468
981.500	555.983	79.999	20.008	100.263	20.038	25.422	0.506
982.000	556.238	80.001	20.009	100.260	20.039	25.162	0.534
982.500	556.495	80.000	20.008	100.261	20.039	25.292	0.520
983.000	556.709	79.999	20.008	100.262	20.038	25.467	0.491
983.500	556.981	80.001	20.009	100.261	20.039	25.262	0.479
984.000	557.210	79.999	20.009	100.253	20.039	25.091	0.493
984.500	557.466	80.001	20.008	100.249	20.041	24.383	0.493
985.000	557.744	80.000	20.009	100.248	20.040	24.698	0.510
985.500	557.999	80.001	20.009	100.254	20.039	25.060	0.534
986.000	558.240	79.999	20.009	100.263	20.040	24.792	0.514
986.500	558.462	80.000	20.008	100.278	20.042	24.379	0.479
987.000	558.731	79.999	20.008	100.288	20.041	24.639	0.477
987.500	558.962	80.001	20.009	100.290	20.041	24.513	0.495
988.000	559.226	80.000	20.008	100.283	20.041	24.420	0.497
988.500	559.488	80.001	20.009	100.276	20.042	24.219	0.511
989.000	559.723	80.000	20.008	100.271	20.038	25.321	0.512
989.500	560.014	80.001	20.009	100.271	20.042	24.261	0.511
990.000	560.279	80.000	20.008	100.277	20.039	25.295	0.541
990.500	560.558	80.000	20.008	100.282	20.042	24.252	0.550
991.000	560.768	80.000	20.009	100.284	20.042	24.262	0.517
991.500	561.048	80.000	20.008	100.281	20.043	24.005	0.490
992.000	561.278	80.000	20.009	100.274	20.042	24.155	0.500
992.500	561.561	80.000	20.008	100.267	20.039	25.202	0.511
993.000	561.847	80.001	20.008	100.269	20.042	24.221	0.541
993.500	562.059	80.000	20.008	100.275	20.041	24.413	0.534
994.000	562.344	80.000	20.008	100.283	20.042	24.236	0.498
994.500	562.606	80.002	20.009	100.292	20.041	24.503	0.522
995.000	562.880	80.000	20.008	100.300	20.042	24.142	0.541
995.500	563.106	80.000	20.009	100.297	20.041	24.436	0.519
996.000	563.345	80.001	20.009	100.290	20.041	24.665	0.483
996.500	563.577	80.000	20.008	100.281	20.041	24.580	0.467
997.000	563.814	80.001	20.008	100.276	20.040	24.837	0.470
997.500	564.094	80.001	20.008	100.275	20.040	24.839	0.493
998.000	564.306	80.000	20.009	100.278	20.040	24.779	0.504
998.500	564.547	80.000	20.009	100.285	20.040	24.804	0.473
999.000	564.811	80.002	20.008	100.286	20.040	24.946	0.479
999.500	565.077	80.000	20.009	100.283	20.038	25.339	0.517
1000.000	565.332	80.000	20.008	100.276	20.038	25.489	0.525
1000.500	565.593	80.000	20.009	100.270	20.038	25.601	0.518
1001.000	565.875	80.000	20.009	100.265	20.036	26.192	0.530
1001.500	566.130	79.999	20.008	100.272	20.035	26.383	0.540
1002.000	566.375	80.000	20.008	100.280	20.034	26.696	0.519
1002.500	566.619	80.001	20.008	100.281	20.033	27.159	0.494
1003.000	566.837	80.000	20.009	100.281	20.035	26.542	0.476
1003.500	567.136	79.999	20.009	100.274	20.034	26.613	0.490
1004.000	567.377	79.999	20.009	100.260	20.035	26.384	0.528
1004.500	567.619	80.001	20.008	100.251	20.034	26.771	0.512
1005.000	567.913	80.000	20.009	100.250	20.032	27.225	0.510
1005.500	568.116	80.001	20.008	100.250	20.034	26.736	0.516
1006.000	568.381	80.001	20.009	100.255	20.034	26.617	0.482
1006.500	568.591	79.999	20.009	100.261	20.032	27.244	0.472
1007.000	568.860	79.999	20.009	100.260	20.033	26.889	0.477
1007.500	569.135	80.000	20.008	100.255	20.033	26.999	0.511
1008.000	569.392	80.000	20.009	100.250	20.032	27.175	0.538
1008.500	569.622	80.000	20.009	100.249	20.034	26.830	0.510
1009.000	569.908	79.999	20.008	100.249	20.029	28.102	0.502
1009.500	570.114	80.001	20.008	100.251	20.031	27.488	0.504
1010.000	570.362	79.999	20.009	100.257	20.032	27.409	0.473
1010.500	570.612	80.000	20.008	100.262	20.029	28.224	0.476
1011.000	570.878	80.001	20.008	100.261	20.030	27.933	0.507
1011.500	571.138	79.999	20.009	100.254	20.028	28.657	0.521
1012.000	571.350	80.001	20.008	100.248	20.026	29.050	0.499
1012.500	571.613	80.000	20.009	100.248	20.028	28.476	0.474
1013.000	571.881	79.999	20.008	100.247	20.027	28.800	0.503
1013.500	572.150	80.000	20.008	100.249	20.027	28.940	0.534
1014.000	572.381	80.000	20.008	100.256	20.027	28.927	0.519
1014.500	572.666	80.001	20.008	100.262	20.029	28.349	0.508
1015.000	572.880	80.000	20.009	100.258	20.029	28.294	0.507
1015.500	573.107	80.000	20.009	100.250	20.029	28.208	0.471
1016.000	573.355	79.999	20.008	100.244	20.029	28.319	0.458
1016.500	573.614	80.000	20.009	100.242	20.027	28.825	0.491
1017.000	573.857	80.000	20.009	100.241	20.029	28.357	0.504
1017.500	574.118	79.999	20.009	100.245	20.026	29.196	0.503
1018.000	574.357	79.998	20.008	100.254	20.027	28.946	0.502
1018.500	574.584	80.001	20.008	100.260	20.028	28.492	0.483
1019.000	574.866	80.001	20.009	100.257	20.028	28.535	0.487
1019.500	575.127	80.001	20.009	100.251	20.027	28.716	0.526
1020.000	575.391	80.001	20.008	100.244	20.028	28.682	0.534
1020.500	575.649	79.999	20.009	100.239	20.027	28.762	0.523
1021.000	575.914	79.999	20.008	100.239	20.028	28.542	0.522
1021.500	576.171	80.001	20.009	100.245	20.027	28.780	0.523
1022.000	576.459	80.000	20.008	100.252	20.026	29.043	0.534
1022.500	576.681	79.999	20.008	100.257	20.030	28.061	0.528
1023.000	576.942	80.000	20.008	100.255	20.030	27.981	0.496
1023.500	577.197	80.001	20.009	100.244	20.030	27.909	0.499
1024.000	577.435	80.000	20.009	100.234	20.029	28.251	0.505
1024.500	577.700	80.000	20.009	100.228	20.028	28.483	0.498
1024.999	577.965	80.000	20.009	100.229	20.030	28.001	0.517
1025.499	578.203	80.000	20.008	100.234	20.028	28.494	0.516
1025.999	578.446	80.001	20.008	100.245	20.031	27.760	0.491
1026.499	578.721	80.000	20.008	100.254	20.028	28.438	0.500
1026.999	578.949	80.000	20.008	100.254	20.028	28.421	0.511
1027.500	579.219	80.000	20.009	100.246	20.028	28.667	0.501
1028.000	579.503	80.000	20.009	100.239	20.027	28.752	0.526
1028.499	579.747	79.999	20.009	100.234	20.027	28.838	0.541
1029.000	579.985	80.001	20.008	100.235	20.029	28.271	0.505
1029.500	580.259	80.000	20.008	100.243	20.027	28.836	0.497
1029.999	580.479	79.999	20.008	100.252	20.029	28.254	0.503
1030.499	580.712	80.000	20.008	100.258	20.027	28.901	0.474
1030.999	580.975	79.999	20.008	100.254	20.026	29.130	0.475
1031.499	581.280	80.001	20.009	100.245	20.025	29.378	0.532
1031.999	581.546	80.000	20.009	100.234	20.026	29.241	0.569
1032.499	581.774	80.001	20.008	100.226	20.025	29.361	0.532
1032.999	582.019	80.000	20.008	100.221	20.024	29.669	0.483
1033.499	582.281	79.999	20.008	100.229	20.024	29.755	0.490
1033.999	582.544	80.001	20.009	100.237	20.026	29.184	0.516
1034.499	582.802	79.999	20.008	100.243	20.028	28.671	0.523
1034.999	583.107	80.000	20.008	100.248	20.028	28.637	0.542
1035.499	583.336	80.000	20.008	100.247	20.026	29.186	0.548
1036.000	583.549	79.999	20.008	100.242	20.029	28.161	0.488
1036.501	583.847	80.000	20.008	100.241	20.028	28.662	0.477
1037.000	584.065	80.000	20.009	100.247	20.027	28.987	0.514
1037.499	584.342	79.999	20.008	100.257	20.027	28.930	0.505
1037.999	584.629	80.000	20.008	100.266	20.027	28.943	0.529
1038.500	584.896	80.000	20.008	100.272	20.027	28.817	0.559
1039.000	585.127	80.000	20.009	100.271	20.026	29.259	0.526
1039.499	585.355	80.000	20.008	100.261	20.029	28.287	0.478
1040.000	585.653	80.000	20.009	100.248	20.029	28.222	0.493
1040.501	585.880	79.999	20.009	100.239	20.026	29.277	0.526
1041.001	586.126	80.000	20.009	100.238	20.026	29.055	0.499
1041.501	586.357	79.999	20.008	100.241	20.027	28.742	0.476
1042.000	586.625	80.001	20.008	100.249	20.026	29.108	0.488
1042.499	586.895	80.000	20.009	100.256	20.029	28.243	0.518
1043.000	587.106	80.000	20.008	100.257	20.027	28.732	0.509
1043.500	587.370	79.999	20.008	100.256	20.027	28.864	0.479
1043.999	587.591	80.000	20.009	100.255	20.028	28.493	0.480
1044.499	587.886	80.000	20.008	100.254	20.027	28.821	0.500
1044.999	588.124	80.001	20.009	100.254	20.026	29.129	0.525
1045.500	588.381	80.000	20.008	100.262	20.029	28.272	0.514
1046.000	588.631	80.000	20.008	100.264	20.029	28.336	0.500
1046.499	588.915	79.999	20.009	100.265	20.031	27.660	0.520
1046.999	589.103	80.001	20.009	100.261	20.029	28.320	0.503
1047.499	589.315	80.001	20.009	100.254	20.027	28.832	0.437
1047.999	589.584	79.999	20.008	100.248	20.028	28.651	0.441
1048.499	589.830	79.999	20.009	100.246	20.028	28.601	0.498
1048.999	590.111	79.998	20.008	100.252	20.029	28.177	0.521
1049.500	590.326	80.000	20.009	100.265	20.031	27.778	0.511
1050.000	590.607	80.001	20.008	100.281	20.030	27.829	0.496
1050.499	590.813	80.000	20.008	100.289	20.029	28.311	0.492
1050.999	591.092	79.999	20.008	100.289	20.033	27.159	0.487
1051.500	591.318	80.000	20.008	100.281	20.033	27.081	0.495
1052.000	591.601	79.998	20.009	100.269	20.031	27.600	0.507
1052.499	591.834	80.000	20.008	100.260	20.029	28.132	0.513
1052.999	592.096	80.001	20.008	100.260	20.031	27.570	0.505
1053.499	592.346	80.000	20.009	100.266	20.030	27.942	0.503
1053.999	592.612	80.000	20.009	100.268	20.030	27.841	0.514
1054.499	592.879	80.000	20.009	100.271	20.033	27.106	0.524
1054.999	593.077	80.000	20.009	100.271	20.033	26.980	0.499
1055.499	593.332	80.000	20.009	100.267	20.033	26.934	0.459
1055.999	593.578	80.000	20.009	100.261	20.031	27.598	0.477
1056.499	593.852	79.999	20.009	100.264	20.032	27.409	0.510
1056.999	594.101	80.000	20.008	100.272	20.031	27.671	0.521
1057.499	594.373	80.001	20.009	100.274	20.033	27.061	0.522
1058.000	594.577	80.001	20.008	100.274	20.033	27.000	0.499
1058.501	594.805	80.000	20.008	100.275	20.031	27.672	0.454
1059.000	595.073	80.000	20.008	100.271	20.032	27.194	0.464
1059.499	595.331	80.001	20.009	100.264	20.035	26.377	0.511
1060.000	595.524	80.000	20.008	100.262	20.036	25.941	0.488
1060.500	595.776	80.000	20.009	100.267	20.037	25.715	0.448
1060.999	596.034	80.000	20.009	100.275	20.034	26.632	0.478
1061.500	596.308	80.001	20.008	100.283	20.036	26.186	0.521
1062.001	596.571	80.000	20.008	100.288	20.038	25.439	0.535
1062.500	596.840	80.001	20.009	100.288	20.037	25.666	0.534
1062.999	597.041	80.000	20.008	100.284	20.036	25.985	0.501
1063.499	597.294	79.999	20.008	100.275	20.035	26.377	0.462
1063.999	597.523	80.000	20.009	100.274	20.033	26.986	0.468
1064.499	597.796	80.000	20.008	100.276	20.034	26.626	0.492
1064.999	598.047	80.000	20.008	100.283	20.034	26.705	0.513
1065.500	598.297	80.000	20.008	100.291	20.032	27.288	0.512
1066.001	598.554	80.000	20.008	100.294	20.032	27.242	0.504
1066.500	598.789	80.001	20.009	100.289	20.033	26.901	0.499
1067.000	599.077	79.999	20.009	100.281	20.033	26.882	0.508
1067.500	599.332	80.000	20.009	100.274	20.032	27.355	0.533
1067.999	599.563	80.001	20.009	100.267	20.032	27.370	0.515
1068.499	599.786	80.001	20.008	100.268	20.033	26.958	0.470
1068.999	600.076	80.000	20.009	100.275	20.034	26.828	0.483
1069.499	600.284	80.000	20.009	100.279	20.031	27.612	0.506
1069.999	600.533	80.001	20.009	100.279	20.034	26.759	0.478
1070.500	600.766	80.000	20.009	100.277	20.033	27.156	0.469
1071.000	601.032	80.000	20.009	100.269	20.032	27.305	0.490
1071.499	601.299	79.999	20.009	100.261	20.030	27.993	0.516
1071.999	601.532	80.001	20.009	100.258	20.027	28.983	0.516
1072.499	601.772	80.000	20.009	100.263	20.025	29.554	0.487
1072.999	602.033	80.001	20.008	100.272	20.026	29.043	0.487
1073.499	602.266	80.000	20.008	100.284	20.028	28.592	0.498
1073.999	602.525	80.000	20.009	100.286	20.025	29.644	0.493
1074.499	602.752	80.000	20.009	100.286	20.025	29.602	0.489
1074.999	603.012	80.001	20.009	100.281	20.025	29.339	0.486
1075.499	603.286	80.000	20.008	100.272	20.026	29.287	0.510
1075.999	603.578	80.000	20.008	100.265	20.026	29.282	0.550
1076.499	603.840	80.001	20.008	100.264	20.026	29.167	0.560
1076.999	604.061	80.000	20.008	100.266	20.026	29.203	0.519
1077.499	604.318	79.999	20.008	100.266	20.026	29.328	0.481
1077.999	604.547	80.000	20.008	100.267	20.027	28.764	0.482
1078.499	604.817	80.001	20.009	100.266	20.025	29.637	0.492
1078.999	605.091	80.000	20.009	100.266	20.027	28.959	0.522
1079.499	605.268	80.000	20.009	100.263	20.026	29.178	0.497
1079.999	605.532	80.002	20.009	100.266	20.026	29.230	0.446
1080.499	605.758	80.001	20.009	100.273	20.026	29.049	0.465
1080.999	606.012	79.999	20.008	100.281	20.026	29.052	0.485
1081.499	606.274	79.999	20.009	100.284	20.026	29.252	0.498
1081.999	606.520	80.002	20.009	100.284	20.027	28.866	0.512
1082.499	606.750	79.999	20.008	100.282	20.027	28.897	0.492
1082.999	606.989	80.000	20.009	100.273	20.025	29.430	0.473
1083.499	607.245	80.000	20.009	100.263	20.026	29.277	0.482
1084.000	607.487	79.999	20.009	100.259	20.028	28.413	0.496
1084.500	607.740	80.000	20.009	100.261	20.027	28.760	0.497
1085.000	608.015	79.999	20.009	100.266	20.027	28.782	0.511
1085.500	608.277	80.001	20.008	100.272	20.026	29.184	0.532
1085.999	608.505	80.000	20.008	100.273	20.026	29.205	0.514
1086.499	608.717	80.000	20.009	100.272	20.026	29.120	0.466
1086.999	608.953	80.000	20.009	100.268	20.024	29.785	0.444
1087.499	609.221	79.999	20.008	100.258	20.024	29.873	0.476
1088.000	609.418	80.001	20.008	100.253	20.023	29.963	0.484
1088.501	609.635	80.000	20.008	100.254	20.025	29.399	0.439
1089.000	609.896	79.999	20.008	100.261	20.025	29.479	0.446
1089.499	610.151	80.000	20.008	100.271	20.022	30.320	0.497
1089.999	610.362	80.000	20.008	100.282	20.027	29.020	0.491
1090.499	610.632	79.999	20.008	100.284	20.028	28.622	0.474
1090.999	610.859	80.000	20.009	100.280	20.026	29.093	0.488
1091.499	611.102	79.999	20.008	100.266	20.029	28.377	0.483
1091.999	611.343	80.000	20.008	100.251	20.029	28.336	0.477
1092.499	611.554	79.999	20.009	100.242	20.030	28.055	0.468
1093.000	611.838	80.000	20.009	100.241	20.028	28.624	0.474
1093.500	612.076	80.001	20.008	100.248	20.026	29.149	0.508
1093.999	612.342	80.000	20.008	100.258	20.027	28.739	0.513
1094.499	612.584	80.000	20.008	100.269	20.028	28.602	0.506
1094.999	612.816	79.999	20.008	100.270	20.027	28.843	0.491
1095.500	613.071	80.001	20.009	100.264	20.027	28.725	0.481
1096.001	613.294	80.000	20.008	100.252	20.027	28.927	0.483
1096.501	613.558	80.000	20.009	100.244	20.026	29.117	0.482
1097.000	613.827	80.000	20.008	100.241	20.025	29.346	0.510
1097.499	614.036	79.999	20.009	100.242	20.026	29.085	0.505
1097.999	614.292	80.000	20.009	100.251	20.027	28.843	0.472
1098.499	614.531	80.000	20.008	100.259	20.028	28.561	0.480
1098.999	614.783	80.000	20.009	100.266	20.026	29.037	0.493
1099.499	615.042	79.999	20.008	100.265	20.025	29.375	0.501
1099.999	615.324	80.000	20.009	100.257	20.028	28.515	0.526
1100.499	615.555	80.000	20.009	100.245	20.027	28.959	0.527
1101.000	615.790	80.000	20.009	100.238	20.026	29.150	0.489
1101.500	616.043	79.999	20.009	100.236	20.026	29.146	0.476
1101.999	616.253	80.001	20.008	100.239	20.026	29.084	0.475
1102.499	616.516	79.999	20.009	100.251	20.027	28.897	0.469
1102.999	616.770	80.000	20.008	100.259	20.028	28.662	0.495
1103.499	617.030	80.000	20.009	100.265	20.025	29.360	0.515
1103.999	617.280	79.999	20.009	100.262	20.026	29.305	0.512
1104.500	617.477	79.999	20.009	100.253	20.026	29.160	0.479
1105.000	617.750	80.001	20.009	100.248	20.027	28.734	0.458
1105.499	618.051	80.000	20.009	100.248	20.026	29.167	0.521
1106.000	618.304	80.000	20.008	100.249	20.027	28.915	0.564
1106.501	618.583	79.998	20.008	100.253	20.026	29.232	0.543
1107.000	618.821	80.000	20.008	100.261	20.027	28.898	0.525
1107.499	619.098	80.001	20.008	100.261	20.026	29.276	0.516
1107.999	619.334	79.999	20.009	100.258	20.029	28.148	0.514
1108.499	619.578	80.000	20.008	100.257	20.028	28.642	0.497
1108.999	619.798	79.999	20.009	100.256	20.029	28.170	0.472
1109.500	620.080	80.001	20.008	100.254	20.029	28.288	0.483
1110.000	620.330	79.999	20.008	100.255	20.026	29.036	0.517
1110.499	620.596	80.000	20.008	100.259	20.027	28.901	0.525
1110.999	620.868	80.000	20.008	100.260	20.027	28.902	0.527
1111.499	621.075	79.999	20.009	100.256	20.027	29.008	0.508
1111.999	621.329	80.000	20.009	100.249	20.025	29.557	0.470
1112.499	621.578	80.000	20.008	100.241	20.025	29.563	0.482
1113.000	621.822	80.000	20.008	100.233	20.025	29.589	0.498
1113.501	622.049	80.001	20.009	100.229	20.023	30.067	0.482
1114.000	622.348	79.998	20.008	100.234	20.025	29.421	0.499
1114.499	622.583	80.001	20.008	100.244	20.024	29.725	0.530
1114.999	622.830	80.000	20.009	100.255	20.024	29.721	0.508
1115.500	623.076	80.000	20.009	100.263	20.026	29.342	0.488
1116.000	623.406	80.001	20.009	100.267	20.024	29.663	0.534
1116.499	623.572	79.999	20.009	100.260	20.025	29.543	0.536
1116.999	623.850	80.001	20.009	100.250	20.024	29.901	0.470
1117.499	624.083	80.001	20.009	100.245	20.024	29.879	0.478
1118.000	624.341	79.999	20.009	100.245	20.025	29.527	0.501
1118.500	624.590	79.998	20.009	100.246	20.022	30.313	0.499
1118.999	624.849	80.002	20.009	100.258	20.025	29.588	0.507
1119.499	625.109	79.999	20.009	100.267	20.026	29.320	0.513
1119.999	625.355	80.000	20.009	100.268	20.025	29.372	0.513
1120.500	625.606	80.001	20.009	100.263	20.022	30.397	0.502
1121.000	625.853	80.000	20.009	100.254	20.026	29.170	0.498
1121.499	626.109	80.000	20.008	100.243	20.025	29.599	0.500
1122.000	626.342	79.999	20.009	100.240	20.026	29.171	0.496
1122.500	626.597	80.000	20.009	100.239	20.025	29.420	0.489
1122.999	626.853	80.000	20.008	100.246	20.024	29.788	0.500
1123.499	627.175	79.999	20.008	100.254	20.027	28.960	0.544
1123.999	627.390	80.001	20.008	100.260	20.029	28.406	0.557
1124.499	627.635	79.999	20.009	100.262	20.026	29.036	0.499
1124.999	627.881	79.998	20.008	100.259	20.025	29.429	0.475
1125.499	628.084	80.004	20.008	100.258	20.028	28.709	0.470
1126.000	628.395	80.002	20.009	100.258	20.027	28.812	0.481
1126.501	628.630	80.002	20.010	100.258	20.027	28.897	0.530
1127.001	628.865	79.999	20.009	100.265	20.027	28.905	0.508
1127.500	629.101	80.001	20.009	100.276	20.030	27.820	0.471
1127.999	629.336	80.001	20.008	100.284	20.029	28.398	0.471
1128.499	629.587	79.999	20.008	100.286	20.028	28.700	0.479
1128.999	629.836	80.000	20.008	100.287	20.027	28.902	0.493
1129.499	630.090	80.000	20.009	100.279	20.029	28.238	0.502
1129.999	630.379	79.999	20.008	100.271	20.026	29.222	0.523
1130.499	630.566	80.000	20.008	100.264	20.028	28.441	0.509
1130.999	630.813	80.001	20.008	100.268	20.029	28.296	0.455
1131.499	631.097	80.000	20.008	100.271	20.029	28.310	0.482
1131.999	631.337	79.999	20.008	100.276	20.031	27.769	0.528
1132.499	631.590	80.000	20.008	100.277	20.029	28.205	0.509
1132.999	631.844	80.001	20.008	100.277	20.028	28.684	0.500
1133.499	632.090	80.000	20.008	100.269	20.029	28.187	0.504
1134.000	632.358	80.001	20.008	100.258	20.028	28.592	0.507
1134.500	632.577	79.999	20.008	100.246	20.028	28.550	0.500
1134.999	632.835	80.001	20.008	100.239	20.029	28.215	0.482
1135.499	633.073	79.999	20.008	100.239	20.028	28.410	0.486
1135.999	633.343	80.000	20.008	100.244	20.030	28.078	0.502
1136.499	633.639	79.999	20.008	100.257	20.027	28.773	0.537
1136.999	633.863	80.000	20.008	100.265	20.028	28.502	0.542
1137.500	634.069	79.999	20.008	100.271	20.028	28.594	0.475
1138.000	634.344	80.000	20.008	100.272	20.030	28.017	0.456
1138.499	634.523	80.000	20.008	100.270	20.028	28.576	0.468
1138.999	634.820	80.000	20.008	100.265	20.028	28.494	0.465
1139.499	635.098	79.999	20.008	100.265	20.033	26.886	0.525
1140.000	635.360	79.999	20.008	100.268	20.031	27.762	0.557
1140.500	635.620	80.000	20.008	100.275	20.029	28.286	0.531
1140.999	635.863	80.000	20.008	100.282	20.028	28.694	0.513
1141.499	636.072	79.999	20.008	100.283	20.028	28.546	0.477
1141.999	636.372	80.000	20.008	100.282	20.030	28.037	0.480
1142.499	636.592	80.001	20.008	100.271	20.028	28.671	0.514
1142.999	636.808	79.999	20.008	100.256	20.029	28.335	0.478
1143.499	637.115	79.999	20.008	100.247	20.031	27.665	0.479
1144.000	637.432	79.999	20.008	100.246	20.027	28.757	0.574
1144.500	637.617	80.000	20.008	100.247	20.028	28.430	0.563
1144.999	637.860	79.999	20.008	100.257	20.027	28.766	0.465
1145.499	638.139	80.000	20.008	100.269	20.031	27.610	0.475
1146.000	638.346	80.000	20.008	100.275	20.029	28.299	0.504
1146.500	638.634	80.000	20.008	100.275	20.031	27.679	0.490
1146.999	638.899	80.000	20.008	100.274	20.029	28.285	0.524
1147.499	639.166	79.998	20.008	100.265	20.028	28.525	0.543
1147.999	639.414	80.001	20.008	100.260	20.028	28.536	0.523
1148.499	639.654	80.000	20.008	100.256	20.028	28.600	0.501
1148.999	639.870	79.998	20.008	100.259	20.028	28.587	0.472
1149.499	640.168	80.001	20.007	100.267	20.028	28.556	0.485
1149.999	640.381	80.001	20.008	100.279	20.029	28.316	0.512
1150.499	640.639	80.000	20.008	100.279	20.029	28.285	0.491
1151.000	640.920	79.999	20.008	100.276	20.030	28.017	0.505
1151.500	641.152	80.001	20.008	100.264	20.027	28.971	0.526
1151.999	641.445	79.999	20.008	100.249	20.029	28.202	0.519
1152.499	641.630	80.000	20.008	100.235	20.029	28.383	0.501
1152.999	641.948	79.999	20.008	100.231	20.030	27.891	0.490
1153.499	642.209	80.000	20.008	100.234	20.028	28.414	0.541
1153.999	642.457	80.000	20.008	100.242	20.028	28.519	0.544
1154.499	642.703	80.000	20.008	100.249	20.027	28.914	0.501
1154.999	642.948	80.000	20.008	100.256	20.029	28.274	0.493
1155.499	643.250	80.000	20.008	100.252	20.032	27.403	0.519
1155.999	643.453	80.000	20.008	100.244	20.030	27.946	0.526
1156.499	643.739	79.999	20.008	100.236	20.030	27.880	0.497
1156.999	643.930	79.999	20.008	100.231	20.031	27.736	0.483
1157.499	644.167	80.001	20.008	100.234	20.030	27.915	0.453
1157.999	644.429	79.999	20.008	100.242	20.030	27.972	0.464
1158.499	644.717	80.000	20.008	100.249	20.028	28.531	0.524
1158.999	644.963	80.000	20.008	100.257	20.029	28.134	0.542
1159.499	645.192	80.000	20.008	100.261	20.029	28.211	0.504
1160.000	645.485	80.001	20.008	100.254	20.028	28.568	0.498
1160.501	645.749	79.999	20.008	100.246	20.028	28.472	0.539
1161.001	645.976	80.000	20.008	100.238	20.030	27.947	0.524
1161.500	646.265	80.000	20.008	100.232	20.028	28.628	0.503
1161.999	646.558	79.999	20.008	100.232	20.028	28.558	0.549
1162.499	646.764	80.001	20.008	100.238	20.027	28.965	0.540
1162.999	647.015	79.999	20.008	100.246	20.027	28.745	0.478
1163.499	647.269	80.000	20.008	100.252	20.031	27.580	0.481
1163.999	647.497	80.000	20.008	100.255	20.029	28.337	0.494
1164.499	647.772	80.000	20.008	100.248	20.028	28.544	0.493
1164.999	648.024	80.002	20.008	100.237	20.026	29.113	0.515
1165.500	648.309	80.000	20.008	100.230	20.029	28.249	0.532
1166.000	648.576	80.000	20.008	100.223	20.026	29.081	0.545
1166.499	648.836	79.999	20.008	100.221	20.028	28.462	0.540
1166.999	649.061	80.000	20.008	100.224	20.030	28.085	0.506
1167.499	649.327	80.000	20.008	100.232	20.031	27.698	0.488
1168.000	649.586	79.999	20.008	100.236	20.031	27.781	0.508
1168.500	649.811	80.000	20.008	100.235	20.030	27.929	0.504
1169.000	650.085	80.000	20.008	100.234	20.030	28.071	0.491
1169.500	650.329	80.001	20.008	100.231	20.031	27.771	0.509
1170.000	650.602	79.999	20.008	100.233	20.030	27.844	0.518
1170.500	650.859	80.001	20.008	100.240	20.029	28.273	0.523
1170.999	651.121	79.999	20.008	100.255	20.033	27.111	0.524
1171.500	651.402	79.999	20.008	100.265	20.032	27.446	0.531
1172.000	651.596	80.000	20.008	100.273	20.030	28.081	0.509
1172.499	651.818	80.000	20.008	100.269	20.030	27.851	0.446
1172.999	652.094	80.001	20.009	100.258	20.032	27.333	0.457
1173.499	652.349	80.000	20.008	100.243	20.034	26.658	0.514
1173.999	652.592	80.000	20.008	100.238	20.031	27.531	0.514
1174.499	652.832	80.000	20.008	100.239	20.033	26.891	0.490
1174.999	653.126	80.001	20.008	100.244	20.033	27.116	0.509
1175.499	653.385	80.000	20.008	100.252	20.031	27.508	0.544
1176.000	653.584	80.000	20.009	100.260	20.029	28.202	0.505
1176.500	653.859	80.001	20.009	100.258	20.032	27.341	0.466
1176.999	654.078	79.999	20.009	100.250	20.032	27.476	0.484
1177.499	654.377	80.001	20.009	100.241	20.029	28.187	0.506
1177.999	654.625	79.998	20.009	100.240	20.030	27.998	0.532
1178.499	654.833	80.000	20.009	100.241	20.029	28.223	0.501
1178.999	655.105	80.000	20.008	100.245	20.029	28.100	0.468
1179.499	655.353	80.002	20.008	100.254	20.032	27.329	0.500
1179.999	655.624	79.999	20.009	100.262	20.035	26.451	0.520
1180.499	655.873	80.001	20.008	100.259	20.031	27.692	0.520
1180.999	656.068	79.999	20.009	100.250	20.030	28.083	0.482
1181.499	656.351	80.002	20.009	100.244	20.033	26.996	0.461
1181.999	656.550	79.999	20.009	100.237	20.031	27.762	0.480
1182.499	656.806	79.999	20.009	100.238	20.032	27.455	0.468
1183.000	657.071	79.999	20.009	100.244	20.033	27.018	0.488
1183.500	657.370	80.002	20.009	100.257	20.033	26.960	0.543
1183.999	657.643	79.999	20.009	100.266	20.033	26.953	0.568
1184.499	657.838	80.001	20.009	100.271	20.033	26.953	0.520
1184.999	658.102	79.999	20.009	100.271	20.035	26.395	0.463
1185.499	658.361	80.001	20.009	100.268	20.035	26.517	0.491
1185.999	658.606	79.999	20.009	100.264	20.035	26.242	0.514
1186.499	658.838	80.000	20.008	100.262	20.036	25.987	0.491
1187.000	659.127	80.000	20.008	100.270	20.035	26.512	0.499
1187.500	659.322	79.999	20.008	100.277	20.036	26.181	0.502
1187.999	659.562	80.001	20.008	100.284	20.034	26.733	0.459
1188.500	659.841	79.998	20.009	100.284	20.033	26.949	0.477
1189.000	660.100	80.000	20.009	100.283	20.034	26.706	0.528
1189.499	660.318	80.000	20.009	100.270	20.034	26.676	0.507
1190.000	660.601	80.001	20.008	100.260	20.034	26.686	0.489
1190.500	660.856	80.000	20.009	100.254	20.034	26.775	0.520
1191.000	661.048	79.999	20.008	100.257	20.030	28.025	0.493
1191.501	661.303	80.000	20.008	100.264	20.030	27.909	0.447
1192.000	661.551	79.999	20.008	100.271	20.029	28.317	0.475
1192.499	661.809	80.000	20.008	100.273	20.030	27.855	0.505
1192.999	662.061	80.000	20.009	100.271	20.031	27.759	0.508
1193.499	662.269	80.000	20.009	100.263	20.031	27.627	0.485
1193.999	662.551	80.000	20.008	100.254	20.033	26.957	0.475
1194.499	662.762	79.999	20.008	100.252	20.030	27.785	0.491
1195.000	662.990	80.000	20.009	100.253	20.028	28.530	0.466
1195.500	663.308	80.000	20.008	100.256	20.031	27.701	0.493
1195.999	663.538	79.999	20.008	100.262	20.031	27.585	0.547
1196.499	663.755	80.000	20.008	100.264	20.029	28.124	0.497
1196.999	664.008	79.999	20.008	100.265	20.032	27.386	0.458
1197.499	664.285	79.999	20.009	100.264	20.030	28.087	0.500
1197.999	664.469	79.998	20.008	100.258	20.032	27.293	0.496
1198.499	664.759	80.001	20.009	100.250	20.029	28.248	0.468
1198.999	665.018	80.000	20.009	100.249	20.030	27.953	0.511
1199.499	665.312	80.000	20.009	100.248	20.031	27.698	0.551
1199.999	665.504	80.001	20.008	100.255	20.030	27.851	0.520
1200.499	665.787	79.998	20.008	100.264	20.033	26.944	0.481
1201.000	666.066	80.000	20.008	100.273	20.032	27.280	0.519
1201.500	666.254	79.999	20.008	100.274	20.034	26.850	0.514
1201.999	666.561	80.000	20.008	100.270	20.034	26.823	0.481
1202.499	666.766	79.999	20.008	100.256	20.033	27.146	0.503
1202.999	667.063	80.001	20.009	100.244	20.036	26.029	0.507
1203.499	667.288	79.999	20.009	100.234	20.036	25.970	0.512
1203.999	667.535	79.999	20.008	100.234	20.034	26.751	0.497
1204.499	667.753	80.000	20.009	100.240	20.032	27.201	0.468
1204.999	668.036	80.000	20.008	100.251	20.034	26.726	0.483
1205.499	668.271	79.999	20.008	100.260	20.032	27.323	0.510
1206.000	668.537	80.001	20.008	100.266	20.032	27.247	0.510
1206.500	668.794	79.999	20.008	100.262	20.034	26.708	0.512
1206.999	669.023	79.999	20.009	100.254	20.032	27.169	0.504
1207.500	669.316	80.000	20.009	100.244	20.033	27.141	0.504
1208.000	669.524	80.000	20.009	100.241	20.031	27.606	0.512
1208.499	669.749	79.998	20.009	100.245	20.033	26.885	0.467
1208.999	670.067	80.000	20.008	100.253	20.031	27.671	0.488
1209.499	670.277	79.998	20.008	100.261	20.033	27.170	0.535
1209.999	670.539	80.001	20.008	100.267	20.033	27.003	0.500
1210.499	670.766	79.998	20.008	100.269	20.032	27.383	0.481
1211.000	670.969	79.999	20.009	100.263	20.035	26.496	0.460
1211.500	671.222	80.000	20.008	100.259	20.032	27.273	0.443
1211.999	671.523	80.000	20.009	100.257	20.032	27.200	0.505
1212.499	671.748	79.999	20.008	100.261	20.034	26.585	0.540
1212.999	671.983	80.000	20.008	100.269	20.035	26.494	0.493
1213.499	672.230	79.999	20.008	100.279	20.031	27.652	0.471
1213.999	672.511	80.000	20.008	100.287	20.032	27.283	0.505
1214.499	672.762	79.998	20.008	100.296	20.030	28.053	0.530
1214.999	672.974	80.000	20.007	100.317	20.028	28.463	0.498
1215.499	673.284	80.001	20.011	100.277	20.028	28.529	0.493
1215.999	673.497	80.000	20.009	100.235	20.028	28.490	0.522
1216.500	673.752	79.999	20.008	100.208	20.031	27.636	0.496
1217.000	673.995	80.000	20.008	100.192	20.028	28.600	0.484
1217.499	674.275	80.000	20.008	100.167	20.030	27.811	0.511
1217.999	674.505	79.999	20.008	100.199	20.030	28.033	0.516
1218.499	674.818	80.000	20.005	100.230	20.032	27.252	0.527
1218.999	675.017	80.002	20.012	100.215	20.035	26.429	0.527
1219.499	675.292	80.000	20.009	100.205	20.033	26.930	0.493
1219.999	675.557	79.997	20.006	100.241	20.031	27.501	0.507
1220.499	675.760	80.000	20.008	100.280	20.033	27.117	0.504
1220.999	676.070	80.001	20.008	100.305	20.031	27.559	0.491
1221.499	676.297	79.999	20.008	100.351	20.031	27.492	0.525
1221.999	676.554	79.999	20.008	100.376	20.031	27.632	0.510
1222.499	676.779	79.999	20.008	100.342	20.032	27.231	0.483
1223.000	677.052	79.999	20.009	100.304	20.033	26.861	0.490
1223.500	677.286	80.000	20.008	100.281	20.033	26.904	0.502
1223.999	677.570	79.999	20.008	100.269	20.031	27.486	0.513
1224.499	677.763	80.000	20.008	100.261	20.030	27.833	0.498
1224.999	678.037	79.999	20.008	100.259	20.031	27.567	0.472
1225.500	678.298	79.999	20.008	100.259	20.033	26.890	0.501
1226.000	678.555	79.999	20.008	100.260	20.031	27.657	0.526
1226.499	678.785	80.000	20.008	100.258	20.032	27.231	0.502
1227.000	679.079	79.998	20.008	100.251	20.033	26.928	0.506
1227.501	679.318	80.000	20.009	100.243	20.033	26.920	0.529
1228.000	679.526	80.000	20.008	100.235	20.036	26.021	0.490
1228.500	679.785	80.000	20.008	100.234	20.034	26.734	0.457
1229.000	679.998	79.998	20.008	100.237	20.033	27.018	0.470
1229.499	680.296	79.999	20.008	100.248	20.034	26.792	0.491
1230.000	680.582	79.999	20.008	100.256	20.035	26.314	0.547
1230.500	680.769	80.001	20.008	100.265	20.033	27.014	0.528
1231.000	681.054	79.998	20.008	100.263	20.033	27.085	0.472
1231.500	681.249	79.999	20.008	100.256	20.032	27.207	0.476
1231.999	681.536	80.000	20.009	100.239	20.032	27.242	0.481
1232.499	681.784	79.999	20.009	100.229	20.033	27.111	0.509
1233.000	682.016	79.999	20.008	100.232	20.032	27.183	0.508
1233.500	682.285	79.998	20.008	100.242	20.033	26.890	0.491
1234.000	682.533	80.000	20.008	100.255	20.032	27.174	0.509
1234.500	682.792	79.999	20.008	100.271	20.033	26.920	0.512
1234.999	683.079	79.999	20.008	100.280	20.032	27.326	0.526
1235.499	683.266	80.000	20.008	100.275	20.031	27.541	0.510
1235.999	683.552	80.000	20.009	100.262	20.030	27.801	0.473
1236.499	683.812	80.000	20.008	100.252	20.030	27.793	0.509
1236.999	684.005	80.000	20.008	100.250	20.032	27.204	0.500
1237.499	684.274	79.999	20.008	100.252	20.033	27.060	0.457
1237.999	684.539	80.000	20.008	100.260	20.035	26.479	0.498
1238.499	684.806	80.000	20.008	100.273	20.031	27.515	0.533
1238.999	685.036	80.000	20.008	100.278	20.029	28.124	0.514
1239.499	685.266	79.999	20.008	100.274	20.030	27.980	0.478
1239.999	685.531	80.000	20.009	100.269	20.031	27.679	0.478
1240.499	685.779	79.999	20.008	100.262	20.029	28.202	0.504
1240.999	686.037	80.000	20.008	100.255	20.033	26.997	0.510
1241.499	686.276	79.999	20.008	100.254	20.030	27.985	0.502
1241.999	686.520	80.000	20.008	100.262	20.029	28.216	0.490
1242.499	686.785	79.999	20.008	100.272	20.030	28.061	0.496
1242.999	687.027	79.999	20.008	100.273	20.028	28.437	0.508
1243.499	687.272	80.000	20.008	100.272	20.029	28.392	0.497
1243.999	687.567	80.000	20.008	100.269	20.028	28.464	0.514
1244.499	687.839	79.999	20.009	100.259	20.028	28.495	0.554
1244.999	688.127	80.001	20.009	100.245	20.029	28.140	0.564
1245.500	688.372	80.000	20.009	100.244	20.030	27.856	0.546
1246.000	688.618	79.999	20.008	100.244	20.028	28.693	0.512
1246.499	688.867	80.001	20.008	100.247	20.030	27.928	0.493
1246.999	689.107	79.999	20.008	100.257	20.029	28.340	0.492
1247.499	689.430	79.999	20.008	100.264	20.030	28.065	0.526
1247.999	689.552	80.001	20.008	100.264	20.028	28.419	0.504
1248.500	689.872	79.999	20.008	100.260	20.029	28.358	0.444
1249.000	690.082	80.000	20.009	100.254	20.027	28.827	0.486
1249.500	690.369	80.000	20.008	100.249	20.028	28.439	0.514
1250.000	690.609	80.001	20.009	100.249	20.027	28.824	0.512
1250.499	690.855	80.000	20.008	100.249	20.028	28.418	0.506
1250.999	691.122	79.999	20.009	100.254	20.026	29.198	0.499
1251.499	691.367	79.999	20.008	100.261	20.030	27.905	0.513
1251.999	691.665	80.000	20.008	100.263	20.029	28.162	0.527
1252.499	691.897	80.000	20.008	100.262	20.033	27.094	0.536
1252.999	692.164	80.000	20.008	100.261	20.030	27.819	0.515
1253.499	692.408	80.000	20.008	100.260	20.029	28.211	0.505
1254.000	692.669	80.000	20.008	100.256	20.030	28.053	0.508
1254.500	692.946	80.000	20.008	100.257	20.028	28.518	0.522
1254.999	693.148	79.999	20.008	100.264	20.028	28.545	0.509
1255.499	693.408	80.000	20.008	100.272	20.028	28.436	0.470
1255.999	693.717	80.000	20.008	100.280	20.027	28.758	0.515
1256.499	693.987	80.000	20.008	100.284	20.028	28.503	0.574
1256.999	694.199	80.000	20.009	100.283	20.028	28.607	0.530
1257.499	694.417	80.000	20.009	100.278	20.028	28.505	0.455
1257.999	694.672	79.999	20.009	100.270	20.028	28.700	0.451
1258.499	694.924	80.000	20.009	100.263	20.029	28.378	0.491
1259.000	695.142	80.000	20.008	100.262	20.028	28.503	0.489
1259.500	695.410	80.000	20.009	100.263	20.029	28.347	0.478
1259.999	695.651	80.000	20.008	100.262	20.030	27.794	0.497
1260.499	695.933	79.999	20.009	100.262	20.028	28.606	0.516
1260.999	696.194	80.000	20.009	100.262	20.028	28.598	0.533
1261.499	696.387	80.000	20.009	100.255	20.026	29.087	0.499
1261.999	696.619	80.001	20.008	100.247	20.028	28.699	0.440
1262.500	696.863	79.999	20.009	100.240	20.027	28.762	0.451
1263.000	697.143	80.000	20.008	100.238	20.029	28.181	0.500
1263.499	697.354	80.000	20.008	100.237	20.029	28.117	0.507
1263.999	697.595	79.998	20.008	100.242	20.029	28.191	0.471
1264.499	697.865	80.001	20.008	100.249	20.029	28.239	0.482
1264.999	698.153	80.001	20.008	100.256	20.029	28.206	0.535
1265.499	698.364	79.999	20.008	100.254	20.028	28.603	0.529
1265.999	698.657	80.000	20.008	100.248	20.028	28.510	0.502
1266.499	698.903	80.000	20.008	100.244	20.028	28.685	0.522
1266.999	699.121	80.001	20.008	100.243	20.029	28.339	0.502
1267.499	699.378	80.000	20.009	100.243	20.028	28.649	0.470
1267.999	699.624	80.000	20.008	100.248	20.028	28.443	0.489
1268.499	699.870	80.000	20.008	100.254	20.028	28.629	0.497
1268.999	700.081	80.000	20.008	100.260	20.027	28.767	0.475
1269.499	700.317	80.001	20.009	100.261	20.027	28.983	0.452
1269.999	700.600	79.999	20.009	100.255	20.029	28.295	0.483
1270.499	700.813	79.999	20.009	100.245	20.028	28.621	0.507
1270.999	701.041	79.999	20.008	100.238	20.028	28.550	0.469
1271.499	701.291	80.001	20.009	100.235	20.029	28.263	0.460
1271.999	701.503	79.999	20.008	100.236	20.027	28.957	0.470
1272.499	701.763	80.000	20.008	100.242	20.023	30.004	0.466
1272.999	701.971	80.000	20.009	100.250	20.029	28.248	0.469
1273.499	702.252	80.000	20.009	100.255	20.024	29.684	0.479
1273.999	702.510	80.000	20.008	100.250	20.026	29.297	0.515
1274.499	702.778	80.000	20.008	100.243	20.026	29.258	0.533
1275.000	702.946	80.000	20.009	100.234	20.027	28.964	0.481
1275.500	703.190	80.000	20.008	100.228	20.028	28.634	0.424
1275.999	703.439	80.001	20.008	100.230	20.029	28.330	0.453
1276.499	703.717	79.999	20.009	100.237	20.028	28.533	0.510
1276.999	703.984	80.000	20.008	100.244	20.028	28.690	0.536
1277.499	704.214	80.001	20.009	100.251	20.026	29.211	0.521
1277.999	704.483	79.999	20.009	100.252	20.026	29.226	0.498
1278.499	704.696	80.000	20.008	100.244	20.025	29.605	0.490
1278.999	704.974	80.001	20.009	100.237	20.027	29.003	0.486
1279.499	705.223	79.999	20.008	100.234	20.025	29.514	0.509
1280.000	705.479	80.000	20.008	100.235	20.025	29.470	0.516
1280.500	705.695	80.000	20.008	100.243	20.028	28.661	0.488
1280.999	705.965	80.000	20.008	100.257	20.027	28.928	0.478
1281.500	706.215	80.000	20.009	100.265	20.028	28.671	0.503
1282.000	706.472	79.999	20.008	100.268	20.028	28.494	0.514
1282.499	706.704	80.001	20.008	100.267	20.027	28.992	0.498
1283.000	706.960	79.999	20.009	100.265	20.027	28.953	0.488
1283.500	707.242	80.002	20.008	100.260	20.027	29.007	0.513
1284.000	707.441	80.000	20.008	100.265	20.028	28.590	0.510
1284.500	707.714	80.000	20.008	100.268	20.027	28.747	0.477
1284.999	707.924	79.999	20.008	100.267	20.027	28.759	0.477
1285.499	708.191	79.999	20.008	100.267	20.028	28.704	0.480
1286.000	708.466	80.000	20.009	100.260	20.028	28.656	0.510
1286.500	708.700	79.999	20.009	100.247	20.027	28.891	0.526
1287.000	708.922	80.000	20.009	100.244	20.026	29.035	0.482
1287.500	709.215	80.001	20.008	100.244	20.027	28.735	0.485
1287.999	709.461	80.000	20.008	100.247	20.027	28.953	0.527
1288.499	709.653	79.999	20.008	100.261	20.026	29.224	0.489
1288.999	709.957	80.000	20.008	100.271	20.026	29.170	0.467
1289.499	710.209	79.999	20.008	100.272	20.026	29.181	0.526
1289.999	710.426	79.999	20.008	100.272	20.024	29.854	0.513
1290.500	710.663	80.000	20.009	100.263	20.025	29.384	0.461
1291.001	710.927	80.000	20.009	100.249	20.025	29.628	0.477
1291.500	711.219	79.999	20.008	100.246	20.026	29.114	0.528
1291.999	711.481	80.000	20.008	100.246	20.026	29.275	0.555
1292.499	711.749	80.000	20.008	100.247	20.026	29.297	0.542
1292.999	711.980	79.998	20.008	100.254	20.027	28.896	0.514
1293.499	712.246	80.000	20.009	100.262	20.025	29.522	0.498
1293.999	712.465	80.000	20.008	100.257	20.025	29.394	0.491
1294.499	712.713	79.998	20.008	100.253	20.024	29.674	0.476
1294.999	712.941	80.000	20.008	100.252	20.025	29.359	0.472
1295.499	713.192	80.000	20.009	100.251	20.025	29.433	0.478
1296.000	713.515	80.000	20.009	100.253	20.024	29.768	0.527
1296.500	713.780	79.999	20.008	100.261	20.020	30.954	0.581
1296.999	714.015	80.000	20.008	100.267	20.022	30.391	0.544
1297.499	714.276	80.000	20.008	100.267	20.026	29.296	0.498
1297.999	714.513	79.999	20.009	100.264	20.024	29.790	0.496
1298.499	714.779	80.000	20.009	100.255	20.022	30.291	0.500
1298.999	715.040	80.000	20.009	100.245	20.022	30.409	0.515
1299.499	715.308	79.999	20.008	100.243	20.023	30.056	0.528
1299.999	715.568	80.000	20.008	100.243	20.026	29.083	0.529
1300.499	715.832	80.000	20.008	100.247	20.023	30.171	0.526
1300.999	716.091	80.001	20.008	100.254	20.025	29.342	0.524
1301.499	716.365	79.999	20.008	100.262	20.024	29.668	0.528
1301.999	716.604	79.999	20.008	100.259	20.024	29.870	0.523
1302.499	716.836	80.000	20.009	100.252	20.023	30.248	0.492
1302.999	717.088	79.999	20.008	100.247	20.025	29.345	0.477
1303.499	717.355	80.000	20.009	100.250	20.022	30.294	0.501
1303.999	717.664	80.000	20.008	100.256	20.021	30.779	0.548
1304.500	717.874	80.000	20.008	100.267	20.023	30.172	0.548
1305.000	718.187	80.000	20.008	100.281	20.021	30.743	0.521
1305.499	718.398	79.999	20.008	100.287	20.025	29.520	0.524
1305.999	718.645	80.001	20.008	100.284	20.025	29.407	0.491
1306.499	718.869	79.999	20.008	100.276	20.023	30.238	0.464
1306.999	719.175	80.000	20.009	100.263	20.023	29.975	0.500
1307.499	719.439	80.001	20.008	100.257	20.020	31.114	0.550
1307.999	719.731	80.000	20.008	100.255	20.024	29.931	0.563
1308.499	719.968	80.000	20.008	100.262	20.021	30.680	0.543
1308.999	720.252	80.000	20.008	100.265	20.023	29.973	0.526
1309.500	720.475	80.000	20.008	100.271	20.023	30.057	0.514
1310.000	720.729	79.999	20.008	100.270	20.021	30.683	0.492
1310.500	720.950	80.000	20.009	100.264	20.023	30.097	0.476
1311.000	721.211	80.000	20.008	100.251	20.023	30.206	0.478
1311.499	721.454	79.999	20.009	100.243	20.024	29.675	0.493
1311.999	721.701	80.001	20.008	100.243	20.025	29.408	0.497
1312.499	721.952	80.000	20.008	100.243	20.024	29.763	0.494
1312.999	722.246	79.999	20.008	100.250	20.024	29.739	0.522
1313.499	722.512	80.000	20.008	100.257	20.027	28.962	0.553
1313.999	722.752	79.999	20.008	100.263	20.023	29.970	0.533
1314.500	722.983	79.999	20.008	100.260	20.027	28.731	0.489
1315.000	723.264	80.000	20.008	100.258	20.027	28.872	0.491
1315.499	723.545	80.001	20.008	100.252	20.023	29.998	0.537
1315.999	723.814	79.999	20.008	100.252	20.025	29.598	0.556
1316.499	724.037	79.999	20.008	100.252	20.025	29.370	0.521
1316.999	724.355	80.000	20.008	100.255	20.025	29.505	0.516
1317.499	724.543	80.000	20.008	100.260	20.022	30.273	0.523
1317.999	724.862	79.999	20.008	100.266	20.023	29.985	0.507
1318.499	725.107	80.000	20.008	100.267	20.026	29.095	0.536
1318.999	725.365	80.000	20.008	100.264	20.025	29.343	0.533
1319.499	725.617	79.999	20.008	100.262	20.023	30.046	0.506
1319.999	725.865	80.000	20.008	100.259	20.025	29.601	0.505
1320.499	726.148	79.999	20.008	100.259	20.023	30.184	0.516
1321.000	726.390	80.000	20.008	100.264	20.024	29.863	0.528
1321.500	726.696	80.000	20.008	100.271	20.025	29.517	0.536
1321.999	726.983	80.001	20.008	100.273	20.024	29.714	0.571
1322.499	727.213	80.000	20.008	100.270	20.024	29.837	0.555
1323.000	727.486	80.000	20.008	100.262	20.021	30.685	0.510
1323.500	727.733	79.999	20.008	100.250	20.022	30.421	0.511
1323.999	727.957	80.000	20.008	100.241	20.022	30.282	0.495
1324.499	728.237	80.000	20.008	100.240	20.022	30.563	0.488
1324.999	728.471	79.999	20.008	100.242	20.022	30.526	0.509
1325.500	728.647	80.000	20.008	100.250	20.022	30.443	0.462
1326.000	728.974	79.999	20.008	100.257	20.022	30.315	0.457
1326.499	729.309	80.000	20.008	100.262	20.022	30.381	0.582
1326.999	729.492	80.000	20.008	100.262	20.023	30.047	0.590
1327.499	729.710	80.000	20.008	100.255	20.022	30.548	0.459
1327.999	729.984	80.000	20.008	100.247	20.023	29.957	0.447
1328.499	730.309	79.999	20.008	100.246	20.022	30.409	0.546
1328.999	730.517	79.999	20.008	100.245	20.020	31.038	0.566
1329.499	730.818	80.000	20.008	100.249	20.024	29.739	0.521
1329.999	731.062	80.000	20.008	100.262	20.023	30.031	0.527
1330.499	731.338	79.999	20.008	100.270	20.021	30.728	0.532
1330.999	731.607	80.000	20.008	100.270	20.021	30.885	0.532
1331.499	731.847	79.999	20.009	100.271	20.021	30.727	0.527
1331.999	732.079	80.000	20.008	100.266	20.024	29.776	0.491
1332.499	732.369	79.999	20.009	100.255	20.024	29.865	0.497
1332.999	732.660	80.000	20.008	100.254	20.023	30.061	0.552
1333.499	732.884	80.000	20.008	100.255	20.022	30.414	0.548
1333.999	733.143	80.000	20.009	100.254	20.025	29.630	0.499
1334.499	733.409	80.001	20.008	100.257	20.020	30.914	0.504
1335.000	733.695	80.001	20.009	100.260	20.024	29.900	0.538
1335.500	733.949	80.000	20.008	100.256	20.023	30.025	0.545
1335.999	734.154	79.999	20.009	100.248	20.022	30.509	0.500
1336.499	734.449	80.000	20.009	100.240	20.024	29.793	0.480
1336.999	734.745	79.999	20.009	100.235	20.023	30.078	0.545
1337.499	735.006	80.000	20.009	100.234	20.026	29.253	0.574
1338.000	735.273	80.000	20.008	100.239	20.023	30.254	0.543
1338.501	735.520	80.001	20.008	100.247	20.020	30.902	0.521
1339.000	735.770	80.001	20.009	100.255	20.023	30.151	0.506
1339.499	735.990	80.000	20.008	100.259	20.023	30.139	0.484
1339.999	736.270	80.000	20.008	100.257	20.023	30.144	0.485
1340.499	736.570	79.999	20.008	100.249	20.021	30.719	0.540
1340.999	736.861	80.001	20.008	100.243	20.021	30.724	0.585
1341.499	737.111	80.000	20.008	100.243	20.025	29.461	0.566
1341.999	737.379	80.000	20.008	100.245	20.024	29.782	0.530
1342.499	737.615	80.000	20.008	100.255	20.022	30.334	0.511
1342.999	737.908	80.000	20.008	100.270	20.021	30.664	0.516
1343.499	738.125	80.000	20.008	100.279	20.024	29.809	0.519
1343.999	738.432	80.000	20.008	100.279	20.023	29.998	0.517
1344.499	738.707	80.000	20.008	100.278	20.023	30.069	0.553
1344.999	738.948	80.000	20.008	100.272	20.022	30.282	0.549
1345.499	739.237	80.000	20.008	100.263	20.023	30.082	0.523
1345.999	739.455	80.000	20.008	100.260	20.022	30.560	0.518
1346.499	739.736	80.000	20.008	100.260	20.023	30.044	0.503
1346.999	739.984	80.000	20.008	100.262	20.023	30.046	0.514
1347.499	740.268	80.000	20.008	100.267	20.022	30.343	0.531
1347.999	740.533	80.000	20.009	100.270	20.022	30.325	0.541
1348.500	740.787	80.001	20.008	100.271	20.020	31.180	0.534
1349.000	741.029	79.999	20.008	100.270	20.023	30.163	0.508
1349.499	741.283	80.000	20.009	100.262	20.023	30.022	0.496
1349.999	741.559	80.000	20.008	100.253	20.023	30.171	0.513
1350.500	741.808	80.000	20.009	100.250	20.025	29.562	0.527
1351.000	742.094	79.998	20.009	100.249	20.027	28.799	0.530
1351.499	742.355	80.001	20.008	100.251	20.025	29.390	0.541
