Sample Weight (mg):	3.04
Heating Rate (C/s):	0.5
Combustor Temp (C):	900
N2 Flow Rate (cc/min):	80
O2 Flow Rate (cc/min):	20
Time (s)	Temperature (C)	N2 flow rate (cc/min)	O2 flow rate (cc/min)	Flow Rate (cc/min)	Oxygen (%)	HRR (W/g)	Heating rate (C/s)
0.000	90.697	79.998	20.008	99.991	20.160	-7.521	0.009
0.500	90.727	80.000	20.008	99.999	20.159	-7.350	0.004
1.000	90.773	80.005	20.005	100.007	20.157	-7.160	0.045
1.500	90.759	80.001	20.009	100.012	20.151	-6.536	0.054
2.000	90.796	80.003	20.009	100.016	20.147	-6.166	0.028
2.500	90.785	80.001	20.009	100.023	20.142	-5.587	0.025
3.000	90.764	80.002	20.009	100.042	20.138	-5.263	-0.003
3.500	90.783	80.001	20.009	100.076	20.134	-4.755	-0.017
4.000	90.781	80.002	20.009	100.126	20.128	-4.182	0.007
4.500	90.769	80.002	20.009	100.186	20.124	-3.783	0.001
5.000	90.741	80.002	20.010	100.246	20.117	-3.054	-0.027
5.500	90.740	80.002	20.010	100.299	20.117	-3.085	-0.034
6.000	90.775	80.003	20.009	100.339	20.112	-2.582	0.003
6.500	90.750	80.002	20.009	100.369	20.110	-2.307	0.022
7.000	90.820	80.003	20.010	100.395	20.108	-2.129	0.027
7.500	90.789	80.002	20.009	100.423	20.103	-1.599	0.042
8.000	90.770	80.002	20.009	100.454	20.100	-1.270	-0.006
8.500	90.813	80.003	20.009	100.477	20.099	-1.161	-0.013
9.000	90.812	80.002	20.009	100.492	20.094	-0.635	0.033
9.501	90.841	80.003	20.009	100.496	20.095	-0.783	0.035
10.001	90.871	80.003	20.009	100.489	20.095	-0.770	0.043
10.501	90.853	80.002	20.010	100.474	20.091	-0.367	0.035
11.000	90.898	80.002	20.010	100.469	20.093	-0.561	0.019
11.500	90.859	80.002	20.009	100.475	20.087	0.007	0.016
12.001	90.845	80.001	20.010	100.490	20.089	-0.133	-0.023
12.501	90.835	80.002	20.009	100.508	20.083	0.511	-0.038
13.001	90.829	80.003	20.009	100.524	20.083	0.465	-0.020
13.500	90.852	80.002	20.010	100.531	20.080	0.768	0.000
14.000	90.836	80.000	20.010	100.531	20.078	0.954	0.012
14.500	90.867	80.003	20.010	100.530	20.079	0.846	0.011
15.001	90.910	80.001	20.009	100.534	20.078	1.010	0.045
15.501	90.922	80.004	20.009	100.548	20.078	0.962	0.065
16.000	90.920	80.002	20.009	100.566	20.076	1.158	0.032
16.500	90.953	80.002	20.009	100.584	20.077	1.080	0.020
17.000	90.987	80.003	20.009	100.600	20.071	1.697	0.049
17.500	90.979	80.001	20.009	100.604	20.069	1.889	0.047
18.000	91.028	80.002	20.009	100.597	20.067	2.105	0.034
18.500	91.026	80.001	20.009	100.583	20.066	2.203	0.044
19.000	91.065	80.002	20.009	100.569	20.067	2.120	0.042
19.500	91.114	80.002	20.009	100.561	20.064	2.452	0.062
20.000	91.122	80.002	20.009	100.563	20.062	2.629	0.073
20.500	91.135	80.003	20.009	100.571	20.064	2.472	0.039
21.000	91.191	80.002	20.009	100.590	20.064	2.473	0.046
21.500	91.236	80.002	20.010	100.612	20.063	2.493	0.085
22.000	91.294	80.001	20.009	100.625	20.064	2.432	0.101
22.500	91.371	80.002	20.009	100.630	20.059	2.899	0.119
23.000	91.415	80.002	20.009	100.629	20.059	2.971	0.128
23.500	91.428	80.003	20.009	100.622	20.060	2.792	0.089
24.000	91.419	80.002	20.010	100.614	20.060	2.840	0.031
24.500	91.499	80.002	20.009	100.613	20.059	2.925	0.038
25.000	91.503	80.003	20.009	100.619	20.061	2.738	0.078
25.500	91.602	80.002	20.009	100.622	20.059	2.897	0.093
26.000	91.660	80.002	20.009	100.625	20.060	2.847	0.130
26.500	91.659	80.002	20.010	100.624	20.065	2.355	0.107
27.000	91.758	80.003	20.009	100.612	20.064	2.429	0.078
27.500	91.825	80.002	20.010	100.595	20.062	2.632	0.132
28.000	91.912	80.001	20.009	100.586	20.061	2.773	0.160
28.500	91.923	80.002	20.009	100.582	20.060	2.799	0.126
29.000	92.000	80.001	20.009	100.582	20.060	2.834	0.093
29.500	92.025	80.002	20.009	100.589	20.062	2.651	0.095
30.000	92.052	80.003	20.009	100.597	20.057	3.116	0.077
30.501	92.142	80.001	20.010	100.597	20.061	2.759	0.084
31.000	92.237	80.002	20.010	100.592	20.059	2.937	0.151
31.500	92.239	80.003	20.009	100.586	20.056	3.271	0.141
32.000	92.342	80.002	20.009	100.581	20.058	3.002	0.101
32.501	92.450	80.003	20.010	100.584	20.059	2.978	0.157
33.001	92.463	80.002	20.009	100.597	20.058	3.059	0.166
33.500	92.528	80.002	20.009	100.615	20.055	3.393	0.100
34.000	92.552	80.001	20.009	100.634	20.055	3.328	0.084
34.500	92.632	80.002	20.009	100.649	20.054	3.407	0.096
35.000	92.665	80.002	20.009	100.655	20.054	3.505	0.108
35.500	92.780	80.003	20.010	100.650	20.053	3.562	0.130
36.000	92.822	80.003	20.010	100.642	20.051	3.746	0.152
36.500	92.978	80.003	20.009	100.639	20.053	3.578	0.177
37.000	93.028	80.004	20.010	100.642	20.054	3.454	0.202
37.500	93.126	80.002	20.009	100.653	20.053	3.546	0.177
38.001	93.173	80.001	20.010	100.666	20.050	3.889	0.147
38.501	93.225	80.003	20.010	100.679	20.055	3.387	0.122
39.000	93.320	80.001	20.009	100.676	20.055	3.343	0.123
39.500	93.468	80.002	20.009	100.657	20.056	3.237	0.195
40.001	93.492	80.002	20.010	100.632	20.058	2.997	0.208
40.501	93.593	80.002	20.009	100.611	20.059	2.933	0.149
41.000	93.718	80.002	20.009	100.598	20.057	3.156	0.175
41.500	93.744	80.000	20.009	100.598	20.055	3.311	0.188
42.000	93.911	80.003	20.010	100.610	20.053	3.523	0.172
42.500	94.029	80.001	20.009	100.621	20.056	3.218	0.239
43.000	94.120	80.001	20.009	100.628	20.055	3.382	0.247
43.500	94.220	80.002	20.009	100.628	20.057	3.109	0.199
44.001	94.205	80.002	20.009	100.618	20.056	3.224	0.138
44.501	94.371	80.002	20.010	100.604	20.055	3.333	0.118
45.000	94.464	80.001	20.009	100.597	20.053	3.560	0.205
45.500	94.560	80.002	20.009	100.596	20.054	3.484	0.224
46.000	94.606	80.002	20.010	100.599	20.053	3.559	0.166
46.500	94.735	80.002	20.010	100.612	20.054	3.442	0.159
47.001	94.820	80.003	20.009	100.628	20.052	3.696	0.195
47.501	94.926	80.002	20.010	100.639	20.051	3.775	0.202
48.001	95.057	80.002	20.010	100.641	20.054	3.427	0.214
48.501	95.198	80.002	20.010	100.645	20.051	3.766	0.255
49.000	95.335	80.002	20.009	100.644	20.048	4.041	0.275
49.500	95.383	80.001	20.010	100.648	20.052	3.635	0.231
50.000	95.463	80.003	20.010	100.657	20.051	3.799	0.156
50.501	95.620	80.001	20.009	100.671	20.054	3.504	0.182
51.001	95.731	80.002	20.009	100.679	20.051	3.734	0.253
51.501	95.802	80.002	20.009	100.679	20.050	3.834	0.225
52.001	95.897	80.003	20.009	100.668	20.050	3.871	0.174
52.500	96.096	80.002	20.010	100.652	20.049	3.945	0.230
53.000	96.130	80.002	20.010	100.636	20.051	3.777	0.264
53.500	96.175	80.001	20.009	100.622	20.048	4.087	0.156
54.001	96.347	80.001	20.009	100.622	20.049	3.972	0.148
54.501	96.500	80.004	20.009	100.634	20.047	4.169	0.271
55.000	96.646	80.002	20.009	100.650	20.048	4.126	0.312
55.501	96.797	80.001	20.009	100.665	20.049	4.003	0.298
56.001	96.916	80.001	20.009	100.672	20.044	4.482	0.283
56.500	97.055	80.001	20.009	100.666	20.045	4.420	0.264
57.000	97.124	80.003	20.010	100.657	20.044	4.509	0.233
57.501	97.147	80.003	20.010	100.648	20.045	4.418	0.150
58.001	97.314	80.002	20.010	100.650	20.044	4.492	0.141
58.501	97.487	80.001	20.009	100.665	20.043	4.615	0.265
59.001	97.554	80.002	20.009	100.686	20.043	4.582	0.290
59.501	97.755	80.003	20.009	100.704	20.041	4.838	0.254
60.000	97.905	80.003	20.010	100.716	20.037	5.171	0.309
60.500	97.986	80.001	20.010	100.720	20.037	5.242	0.291
61.000	98.103	80.002	20.010	100.720	20.037	5.196	0.215
61.501	98.299	80.002	20.009	100.717	20.037	5.204	0.255
62.001	98.456	80.001	20.009	100.717	20.033	5.655	0.333
62.501	98.565	80.002	20.009	100.723	20.036	5.355	0.309
63.001	98.692	80.001	20.009	100.730	20.033	5.651	0.251
63.501	98.809	80.002	20.009	100.734	20.034	5.527	0.241
64.000	99.032	80.002	20.009	100.737	20.033	5.626	0.292
64.501	99.120	80.000	20.010	100.731	20.034	5.565	0.325
65.001	99.228	80.002	20.010	100.724	20.032	5.706	0.253
65.501	99.455	80.001	20.009	100.719	20.032	5.714	0.265
66.001	99.591	80.001	20.010	100.715	20.030	5.965	0.349
66.500	99.744	80.001	20.009	100.719	20.031	5.838	0.326
67.000	99.897	80.002	20.010	100.733	20.029	6.010	0.298
67.501	100.065	80.001	20.009	100.748	20.032	5.687	0.313
68.001	100.197	80.002	20.010	100.756	20.032	5.740	0.311
68.501	100.406	80.001	20.010	100.759	20.032	5.767	0.321
69.001	100.509	80.001	20.010	100.754	20.029	6.057	0.326
69.501	100.706	80.001	20.010	100.746	20.029	6.036	0.306
70.001	100.908	80.002	20.010	100.739	20.031	5.883	0.349
70.500	101.075	80.001	20.009	100.737	20.030	5.983	0.384
71.000	101.221	80.002	20.009	100.743	20.029	6.001	0.341
71.501	101.434	80.000	20.009	100.751	20.026	6.364	0.336
72.001	101.532	80.004	20.010	100.759	20.030	5.978	0.335
72.501	101.724	80.001	20.010	100.764	20.028	6.204	0.301
73.001	101.902	80.001	20.009	100.765	20.030	5.916	0.330
73.500	102.101	80.002	20.010	100.757	20.025	6.431	0.374
74.000	102.304	80.001	20.009	100.749	20.026	6.339	0.389
74.500	102.455	80.002	20.010	100.745	20.026	6.358	0.378
75.000	102.646	80.001	20.009	100.746	20.024	6.554	0.348
75.500	102.828	80.002	20.010	100.746	20.023	6.661	0.357
76.000	103.011	80.001	20.009	100.760	20.022	6.749	0.369
76.500	103.188	80.001	20.009	100.777	20.027	6.260	0.363
77.000	103.399	80.002	20.010	100.784	20.022	6.739	0.374
77.500	103.586	80.002	20.010	100.782	20.023	6.659	0.393
78.000	103.747	80.002	20.010	100.773	20.026	6.377	0.373
78.501	103.981	80.000	20.009	100.758	20.026	6.339	0.372
79.001	104.193	80.001	20.010	100.748	20.026	6.378	0.421
79.501	104.373	80.003	20.010	100.750	20.024	6.529	0.419
80.001	104.537	80.001	20.009	100.761	20.026	6.384	0.368
80.501	104.768	80.001	20.010	100.777	20.024	6.586	0.370
81.000	104.970	80.002	20.009	100.792	20.023	6.702	0.414
81.500	105.160	80.002	20.010	100.794	20.025	6.495	0.412
82.000	105.400	80.001	20.010	100.784	20.022	6.731	0.411
82.501	105.640	80.001	20.010	100.771	20.024	6.596	0.455
83.001	105.810	80.002	20.010	100.763	20.024	6.569	0.445
83.501	106.007	80.001	20.010	100.756	20.024	6.604	0.389
84.001	106.269	80.001	20.010	100.762	20.020	6.929	0.413
84.501	106.430	80.002	20.010	100.776	20.022	6.774	0.441
85.000	106.631	80.001	20.009	100.788	20.021	6.848	0.392
85.500	106.838	80.003	20.010	100.796	20.018	7.203	0.385
86.000	107.124	80.002	20.010	100.801	20.022	6.808	0.450
86.500	107.341	80.003	20.010	100.795	20.021	6.869	0.498
87.000	107.530	80.002	20.010	100.787	20.021	6.910	0.455
87.501	107.782	80.002	20.010	100.781	20.021	6.868	0.423
88.001	107.953	80.001	20.010	100.772	20.023	6.715	0.432
88.500	108.195	80.002	20.010	100.769	20.020	6.950	0.418
89.000	108.398	80.002	20.009	100.776	20.021	6.911	0.429
89.501	108.600	80.001	20.009	100.783	20.019	7.047	0.425
90.001	108.856	80.001	20.010	100.791	20.020	7.006	0.431
90.501	109.095	80.001	20.009	100.799	20.020	6.937	0.476
91.000	109.275	80.001	20.010	100.800	20.020	7.024	0.457
91.500	109.558	80.001	20.010	100.795	20.021	6.917	0.441
92.001	109.673	80.000	20.010	100.787	20.021	6.864	0.431
92.501	109.994	80.002	20.009	100.779	20.018	7.184	0.417
93.000	110.205	80.001	20.009	100.778	20.018	7.177	0.484
93.501	110.512	80.001	20.010	100.783	20.018	7.184	0.525
94.001	110.717	80.002	20.010	100.790	20.020	6.966	0.515
94.500	110.974	80.002	20.009	100.799	20.020	7.022	0.487
95.001	111.234	80.001	20.010	100.806	20.019	7.046	0.489
95.501	111.498	80.003	20.010	100.809	20.016	7.395	0.520
96.001	111.750	80.001	20.010	100.801	20.018	7.136	0.520
96.501	111.962	80.001	20.010	100.794	20.015	7.481	0.490
97.001	112.193	80.003	20.011	100.787	20.017	7.310	0.454
97.501	112.442	80.001	20.010	100.787	20.018	7.185	0.461
98.001	112.707	80.002	20.010	100.787	20.017	7.312	0.497
98.501	112.973	80.001	20.009	100.795	20.016	7.396	0.523
99.001	113.171	80.002	20.010	100.802	20.018	7.191	0.497
99.501	113.461	80.001	20.010	100.805	20.019	7.123	0.476
100.000	113.718	80.002	20.010	100.798	20.015	7.498	0.518
100.500	113.976	80.002	20.010	100.790	20.015	7.445	0.531
101.000	114.213	80.001	20.010	100.782	20.015	7.495	0.505
101.500	114.443	80.002	20.010	100.776	20.017	7.254	0.481
102.000	114.729	80.001	20.009	100.780	20.014	7.570	0.492
102.500	114.974	80.002	20.009	100.787	20.014	7.619	0.523
103.000	115.287	80.002	20.010	100.795	20.012	7.795	0.544
103.500	115.589	80.002	20.009	100.804	20.011	7.893	0.586
104.001	115.852	80.001	20.010	100.804	20.014	7.622	0.590
104.501	116.064	80.002	20.010	100.796	20.014	7.614	0.521
105.000	116.382	80.000	20.010	100.788	20.012	7.771	0.503
105.500	116.555	80.003	20.010	100.778	20.012	7.855	0.510
106.000	116.845	80.001	20.009	100.775	20.012	7.835	0.477
106.501	117.166	80.002	20.009	100.782	20.009	8.112	0.537
107.001	117.440	80.002	20.009	100.789	20.011	7.956	0.602
107.501	117.712	80.002	20.009	100.798	20.011	7.882	0.570
108.001	117.955	80.002	20.009	100.803	20.015	7.461	0.531
108.500	118.232	80.002	20.010	100.797	20.015	7.456	0.517
109.000	118.468	80.002	20.010	100.781	20.014	7.582	0.517
109.501	118.742	80.003	20.010	100.768	20.012	7.793	0.512
110.001	119.071	80.001	20.010	100.758	20.014	7.614	0.556
110.501	119.364	80.002	20.010	100.756	20.011	7.926	0.612
111.000	119.631	80.002	20.010	100.759	20.014	7.640	0.591
111.501	119.923	80.003	20.010	100.771	20.013	7.716	0.560
112.001	120.161	80.001	20.010	100.778	20.012	7.852	0.545
112.500	120.425	80.001	20.010	100.775	20.012	7.762	0.516
113.000	120.737	80.002	20.010	100.768	20.013	7.703	0.539
113.500	120.973	80.002	20.010	100.756	20.015	7.475	0.562
114.000	121.259	80.001	20.010	100.749	20.014	7.642	0.535
114.501	121.603	80.002	20.009	100.749	20.014	7.591	0.576
115.001	121.833	80.002	20.010	100.759	20.014	7.620	0.602
115.500	122.146	80.001	20.009	100.774	20.012	7.854	0.559
116.000	122.429	80.002	20.009	100.787	20.012	7.847	0.570
116.500	122.683	80.002	20.010	100.790	20.012	7.797	0.567
117.001	122.994	80.001	20.010	100.788	20.013	7.659	0.551
117.501	123.240	80.001	20.010	100.774	20.011	7.885	0.560
118.000	123.583	80.002	20.010	100.759	20.014	7.587	0.573
118.501	123.815	80.002	20.011	100.746	20.012	7.791	0.583
119.001	124.133	80.001	20.010	100.742	20.014	7.601	0.562
119.501	124.407	80.002	20.009	100.742	20.013	7.710	0.571
120.000	124.700	80.002	20.009	100.750	20.013	7.739	0.580
120.500	124.985	80.002	20.009	100.757	20.014	7.554	0.572
121.000	125.253	80.001	20.010	100.764	20.016	7.417	0.565
121.500	125.569	80.002	20.010	100.760	20.017	7.296	0.568
122.000	125.879	80.001	20.010	100.752	20.015	7.473	0.605
122.500	126.067	80.002	20.010	100.743	20.015	7.509	0.562
123.000	126.430	80.000	20.010	100.736	20.015	7.498	0.525
123.500	126.729	80.002	20.010	100.734	20.016	7.384	0.607
124.000	127.075	80.001	20.010	100.742	20.016	7.422	0.654
124.500	127.326	80.002	20.009	100.753	20.016	7.368	0.621
125.000	127.634	80.002	20.010	100.761	20.015	7.465	0.578
125.501	127.931	80.002	20.010	100.765	20.015	7.462	0.582
126.001	128.220	80.001	20.009	100.759	20.017	7.267	0.596
126.500	128.482	80.001	20.010	100.750	20.014	7.570	0.568
127.000	128.785	80.001	20.010	100.737	20.015	7.451	0.558
127.500	129.112	80.002	20.010	100.730	20.013	7.712	0.598
128.000	129.371	80.001	20.010	100.734	20.013	7.647	0.608
128.500	129.637	80.002	20.009	100.741	20.015	7.541	0.555
129.000	129.955	80.001	20.009	100.752	20.013	7.680	0.554
129.500	130.280	80.002	20.009	100.759	20.015	7.501	0.614
130.000	130.611	80.002	20.010	100.758	20.017	7.282	0.649
130.500	130.906	80.001	20.010	100.745	20.016	7.384	0.641
131.000	131.180	80.002	20.010	100.730	20.016	7.335	0.598
131.500	131.477	80.000	20.010	100.716	20.015	7.514	0.570
132.000	131.748	80.001	20.009	100.710	20.015	7.503	0.570
132.500	132.072	80.003	20.009	100.713	20.015	7.490	0.582
133.000	132.367	80.002	20.009	100.721	20.010	7.997	0.607
133.500	132.705	80.001	20.009	100.728	20.012	7.753	0.626
134.000	133.013	80.002	20.009	100.733	20.013	7.652	0.639
134.500	133.313	80.001	20.010	100.728	20.012	7.846	0.627
135.000	133.608	80.002	20.010	100.719	20.014	7.564	0.602
135.500	133.933	80.001	20.010	100.707	20.017	7.328	0.608
136.000	134.248	80.003	20.010	100.703	20.014	7.614	0.630
136.500	134.528	80.001	20.009	100.704	20.014	7.597	0.618
137.000	134.866	80.002	20.009	100.712	20.015	7.538	0.607
137.500	135.151	80.002	20.009	100.721	20.015	7.441	0.620
138.000	135.472	80.000	20.010	100.729	20.013	7.659	0.615
138.500	135.761	80.002	20.009	100.726	20.013	7.687	0.608
139.000	136.035	80.001	20.010	100.716	20.014	7.633	0.586
139.500	136.384	80.002	20.010	100.701	20.013	7.706	0.593
140.000	136.674	80.001	20.010	100.690	20.015	7.454	0.631
140.500	136.949	80.002	20.010	100.683	20.012	7.803	0.602
141.000	137.285	80.002	20.009	100.689	20.012	7.784	0.588
141.500	137.518	80.002	20.009	100.700	20.009	8.141	0.590
142.000	137.898	80.002	20.010	100.712	20.012	7.773	0.591
142.500	138.189	80.001	20.010	100.715	20.011	7.903	0.642
143.000	138.451	80.001	20.009	100.714	20.009	8.110	0.612
143.500	138.782	80.001	20.009	100.705	20.008	8.247	0.573
144.000	139.043	80.001	20.010	100.694	20.005	8.488	0.592
144.500	139.356	80.002	20.010	100.687	20.008	8.166	0.583
145.000	139.652	80.001	20.009	100.690	20.009	8.157	0.591
145.500	139.991	80.001	20.010	100.692	20.006	8.365	0.622
146.000	140.294	80.003	20.009	100.694	20.006	8.399	0.639
146.500	140.615	80.001	20.008	100.697	20.009	8.131	0.633
147.000	140.875	80.002	20.009	100.696	20.007	8.283	0.602
147.500	141.182	80.002	20.010	100.690	20.009	8.123	0.574
148.000	141.460	80.000	20.009	100.682	20.009	8.120	0.576
148.500	141.755	80.003	20.009	100.680	20.007	8.347	0.579
149.000	142.028	80.001	20.009	100.681	20.004	8.634	0.571
149.501	142.317	80.003	20.008	100.683	20.004	8.582	0.565
150.000	142.686	80.000	20.009	100.690	20.004	8.592	0.610
150.500	142.969	80.003	20.009	100.700	20.003	8.704	0.655
151.000	143.255	80.000	20.009	100.702	19.998	9.248	0.610
151.500	143.600	80.002	20.009	100.694	20.002	8.872	0.600
152.000	143.850	80.001	20.009	100.677	19.999	9.183	0.613
152.500	144.174	80.002	20.009	100.658	19.997	9.309	0.585
153.000	144.432	80.002	20.009	100.647	19.997	9.308	0.578
153.500	144.774	80.001	20.009	100.641	19.996	9.443	0.591
154.000	145.068	80.003	20.009	100.648	19.994	9.636	0.618
154.500	145.322	80.001	20.009	100.664	19.994	9.626	0.593
155.000	145.645	80.000	20.008	100.682	19.998	9.234	0.563
155.500	145.958	80.001	20.008	100.691	19.998	9.265	0.606
156.000	146.261	80.002	20.009	100.690	19.996	9.421	0.626
156.500	146.597	80.002	20.008	100.680	19.993	9.754	0.628
157.000	146.848	80.001	20.009	100.663	19.994	9.656	0.612
157.500	147.155	80.002	20.009	100.648	19.994	9.658	0.572
158.000	147.452	80.001	20.009	100.645	19.992	9.878	0.581
158.500	147.721	80.001	20.008	100.652	19.992	9.826	0.585
159.000	147.983	80.001	20.008	100.663	19.992	9.874	0.548
159.500	148.211	80.002	20.009	100.679	19.993	9.808	0.511
160.000	148.577	80.002	20.010	100.688	19.991	9.984	0.542
160.500	148.824	80.001	20.010	100.683	19.993	9.789	0.603
161.000	149.180	80.002	20.009	100.676	19.992	9.858	0.608
161.500	149.414	80.003	20.010	100.667	19.990	10.067	0.597
162.000	149.754	80.002	20.010	100.665	19.990	10.073	0.582
162.500	150.047	80.000	20.009	100.667	19.991	9.932	0.603
163.000	150.322	80.002	20.009	100.675	19.990	10.069	0.600
163.500	150.658	80.001	20.009	100.683	19.989	10.173	0.590
164.000	150.961	80.001	20.009	100.691	19.987	10.359	0.625
164.500	151.242	80.001	20.010	100.686	19.985	10.603	0.612
165.000	151.486	80.001	20.009	100.674	19.984	10.672	0.555
165.500	151.793	80.003	20.010	100.660	19.987	10.391	0.538
166.000	152.105	80.001	20.009	100.651	19.983	10.809	0.585
166.500	152.378	80.002	20.009	100.647	19.983	10.797	0.602
167.000	152.619	80.002	20.010	100.655	19.979	11.197	0.550
167.500	152.964	80.001	20.009	100.667	19.981	11.008	0.550
168.000	153.247	80.001	20.009	100.680	19.981	11.003	0.607
168.500	153.510	80.002	20.009	100.681	19.977	11.422	0.587
169.000	153.786	80.001	20.009	100.676	19.979	11.173	0.543
169.500	154.108	80.001	20.010	100.661	19.975	11.609	0.569
170.000	154.361	80.002	20.009	100.645	19.971	11.993	0.586
170.500	154.654	80.001	20.009	100.634	19.970	12.115	0.560
171.000	155.008	80.000	20.008	100.632	19.971	12.038	0.596
171.500	155.276	80.002	20.009	100.634	19.968	12.300	0.634
172.000	155.634	80.001	20.008	100.642	19.969	12.248	0.624
172.500	155.882	80.002	20.009	100.651	19.966	12.550	0.616
173.000	156.134	80.002	20.008	100.650	19.967	12.465	0.553
173.500	156.472	80.001	20.009	100.643	19.964	12.762	0.545
174.000	156.709	80.002	20.009	100.635	19.965	12.617	0.583
174.500	156.985	80.001	20.009	100.626	19.963	12.871	0.544
175.001	157.284	80.003	20.008	100.623	19.962	12.907	0.544
175.500	157.647	80.001	20.009	100.627	19.961	13.084	0.619
176.000	157.944	80.002	20.008	100.640	19.962	13.004	0.661
176.500	158.173	80.002	20.008	100.654	19.959	13.250	0.593
177.000	158.526	80.001	20.009	100.664	19.958	13.415	0.553
177.500	158.791	80.002	20.009	100.660	19.956	13.599	0.600
178.000	159.084	80.002	20.009	100.650	19.956	13.629	0.588
178.500	159.427	80.001	20.009	100.637	19.954	13.788	0.597
179.000	159.655	80.002	20.009	100.623	19.955	13.655	0.604
179.500	160.019	80.002	20.009	100.619	19.952	14.034	0.582
180.000	160.272	80.002	20.009	100.624	19.950	14.234	0.605
180.500	160.526	80.002	20.009	100.632	19.951	14.089	0.562
181.000	160.874	80.001	20.010	100.639	19.947	14.472	0.554
181.500	161.167	80.002	20.009	100.645	19.946	14.564	0.621
182.000	161.368	80.002	20.009	100.641	19.950	14.192	0.567
182.500	161.689	80.001	20.009	100.632	19.946	14.602	0.508
183.000	161.961	80.003	20.010	100.620	19.948	14.371	0.557
183.500	162.231	80.002	20.009	100.613	19.942	14.983	0.567
184.000	162.584	80.002	20.009	100.607	19.946	14.645	0.583
184.500	162.876	80.002	20.009	100.608	19.944	14.823	0.634
185.000	163.104	80.002	20.009	100.613	19.940	15.184	0.582
185.500	163.454	80.003	20.009	100.623	19.941	15.075	0.549
186.000	163.658	80.000	20.009	100.623	19.939	15.361	0.566
186.500	163.960	80.003	20.010	100.623	19.938	15.484	0.530
187.000	164.255	80.001	20.010	100.617	19.937	15.506	0.551
187.500	164.499	80.002	20.009	100.606	19.937	15.583	0.568
188.000	164.790	80.002	20.010	100.599	19.935	15.738	0.537
188.500	165.045	80.001	20.009	100.600	19.933	15.947	0.540
189.001	165.351	80.002	20.009	100.605	19.932	16.013	0.554
189.501	165.694	80.002	20.009	100.618	19.935	15.690	0.605
190.001	165.956	80.002	20.010	100.630	19.935	15.701	0.627
190.500	166.215	80.001	20.010	100.631	19.937	15.571	0.563
191.000	166.514	80.003	20.010	100.626	19.935	15.778	0.539
191.501	166.775	80.002	20.010	100.613	19.933	15.954	0.559
192.000	167.027	80.002	20.010	100.597	19.932	16.071	0.537
192.500	167.310	80.001	20.009	100.588	19.933	15.958	0.524
193.000	167.581	80.002	20.010	100.587	19.931	16.138	0.544
193.500	167.863	80.001	20.009	100.590	19.931	16.199	0.553
194.000	168.189	80.002	20.009	100.604	19.932	16.095	0.580
194.500	168.425	80.002	20.010	100.618	19.931	16.173	0.585
195.000	168.767	80.002	20.009	100.626	19.932	16.018	0.570
195.500	168.994	80.001	20.010	100.624	19.934	15.873	0.574
196.000	169.284	80.002	20.009	100.616	19.932	16.015	0.543
196.500	169.545	80.002	20.009	100.604	19.933	16.000	0.534
197.000	169.805	80.001	20.009	100.590	19.934	15.896	0.536
197.500	170.055	80.003	20.010	100.586	19.936	15.608	0.515
198.000	170.384	80.002	20.009	100.593	19.934	15.828	0.544
198.500	170.615	80.002	20.009	100.608	19.935	15.727	0.570
199.000	170.932	80.002	20.010	100.624	19.933	15.902	0.554
199.500	171.161	80.002	20.009	100.639	19.932	16.020	0.547
200.000	171.461	80.003	20.010	100.641	19.932	16.011	0.538
200.500	171.733	80.003	20.009	100.636	19.930	16.223	0.550
201.000	171.990	80.002	20.009	100.622	19.931	16.194	0.550
201.500	172.223	80.002	20.009	100.606	19.934	15.866	0.509
202.000	172.508	80.002	20.010	100.595	19.936	15.655	0.504
202.500	172.783	80.002	20.009	100.593	19.937	15.587	0.539
203.001	173.098	80.002	20.009	100.594	19.936	15.682	0.575
203.500	173.345	80.002	20.010	100.601	19.938	15.388	0.576
204.000	173.592	80.002	20.008	100.609	19.940	15.254	0.528
204.500	173.910	80.002	20.009	100.607	19.939	15.357	0.529
205.000	174.125	80.002	20.008	100.600	19.939	15.303	0.549
205.500	174.403	80.002	20.009	100.592	19.940	15.263	0.513
206.000	174.731	80.002	20.010	100.583	19.939	15.367	0.550
206.500	174.998	80.001	20.009	100.580	19.939	15.305	0.601
207.000	175.252	80.002	20.009	100.584	19.940	15.217	0.558
207.500	175.527	80.002	20.009	100.596	19.942	15.041	0.525
208.000	175.788	80.003	20.009	100.610	19.942	15.034	0.532
208.500	176.024	80.001	20.009	100.619	19.942	15.012	0.517
209.000	176.260	80.003	20.009	100.616	19.946	14.625	0.485
209.500	176.558	80.001	20.009	100.608	19.946	14.617	0.503
210.000	176.883	80.003	20.009	100.597	19.950	14.222	0.578
210.500	177.107	80.002	20.009	100.584	19.951	14.104	0.586
211.000	177.396	80.002	20.009	100.583	19.951	14.063	0.532
211.500	177.659	80.001	20.009	100.593	19.954	13.825	0.533
212.000	177.952	80.001	20.009	100.609	19.956	13.620	0.554
212.500	178.237	80.002	20.009	100.623	19.957	13.507	0.567
213.000	178.464	80.002	20.009	100.632	19.954	13.740	0.545
213.500	178.763	80.001	20.009	100.634	19.959	13.271	0.519
214.000	179.054	80.002	20.009	100.630	19.959	13.229	0.558
214.500	179.312	80.002	20.010	100.617	19.961	13.111	0.570
215.000	179.546	80.002	20.010	100.604	19.962	13.008	0.521
215.500	179.779	80.002	20.010	100.600	19.963	12.896	0.480
216.000	180.056	80.002	20.009	100.599	19.964	12.753	0.488
216.500	180.309	80.002	20.009	100.599	19.966	12.549	0.520
217.000	180.543	80.003	20.010	100.605	19.967	12.482	0.508
217.500	180.842	80.001	20.009	100.612	19.969	12.258	0.510
218.000	181.131	80.003	20.009	100.614	19.971	12.030	0.561
218.500	181.436	80.002	20.010	100.612	19.971	12.027	0.592
219.000	181.637	80.002	20.010	100.604	19.975	11.574	0.550
219.500	181.940	80.003	20.009	100.598	19.975	11.638	0.504
220.000	182.157	80.002	20.009	100.597	19.975	11.644	0.512
220.500	182.442	80.002	20.009	100.599	19.978	11.294	0.511
221.000	182.739	80.001	20.009	100.608	19.979	11.175	0.542
221.501	182.943	80.002	20.008	100.624	19.982	10.928	0.542
222.000	183.205	80.002	20.009	100.636	19.984	10.637	0.484
222.500	183.452	80.001	20.009	100.638	19.986	10.512	0.488
223.000	183.725	80.003	20.009	100.637	19.986	10.438	0.514
223.500	183.991	80.001	20.010	100.623	19.987	10.334	0.529
224.000	184.252	80.002	20.010	100.608	19.992	9.838	0.533
224.500	184.487	80.002	20.010	100.596	19.991	9.976	0.511
225.000	184.797	80.002	20.009	100.594	19.993	9.800	0.520
225.500	185.052	80.003	20.010	100.597	19.993	9.753	0.555
226.000	185.307	80.002	20.009	100.613	19.996	9.433	0.538
226.500	185.622	80.002	20.010	100.628	19.998	9.259	0.540
227.000	185.823	80.001	20.009	100.638	19.996	9.397	0.543
227.500	186.093	80.002	20.009	100.638	20.001	8.979	0.493
228.000	186.363	80.002	20.010	100.636	20.001	8.953	0.506
228.500	186.679	80.002	20.009	100.628	20.000	9.035	0.563
229.000	186.874	80.002	20.010	100.618	19.997	9.324	0.549
229.500	187.135	80.003	20.009	100.610	20.002	8.825	0.483
230.000	187.340	80.000	20.009	100.617	20.006	8.373	0.461
230.500	187.611	80.004	20.009	100.624	20.005	8.464	0.471
231.001	187.869	80.001	20.010	100.633	20.008	8.236	0.503
231.500	188.096	80.002	20.009	100.644	20.007	8.318	0.507
232.000	188.382	80.002	20.009	100.651	20.009	8.071	0.499
232.500	188.658	80.002	20.009	100.644	20.008	8.176	0.537
233.000	188.869	80.002	20.009	100.636	20.008	8.192	0.525
233.500	189.165	80.002	20.009	100.627	20.009	8.075	0.497
234.000	189.427	80.003	20.010	100.619	20.009	8.107	0.533
234.500	189.669	80.002	20.010	100.619	20.011	7.885	0.531
235.001	189.963	80.002	20.010	100.633	20.013	7.706	0.520
235.500	190.101	80.002	20.009	100.642	20.014	7.579	0.484
236.000	190.437	80.003	20.009	100.650	20.012	7.764	0.453
236.500	190.722	80.002	20.010	100.653	20.014	7.549	0.548
237.000	190.974	80.001	20.009	100.645	20.012	7.798	0.579
237.500	191.190	80.002	20.009	100.632	20.014	7.632	0.502
238.000	191.461	80.002	20.010	100.618	20.013	7.714	0.477
238.500	191.741	80.002	20.009	100.608	20.017	7.327	0.519
239.000	191.988	80.002	20.010	100.610	20.018	7.195	0.539
239.500	192.201	80.003	20.009	100.619	20.016	7.332	0.494
240.000	192.502	80.001	20.010	100.626	20.015	7.534	0.487
240.500	192.737	80.003	20.010	100.638	20.017	7.245	0.525
241.000	193.020	80.001	20.010	100.642	20.018	7.206	0.527
241.500	193.227	80.002	20.010	100.629	20.018	7.140	0.504
242.000	193.506	80.003	20.010	100.615	20.020	7.004	0.488
242.500	193.729	80.001	20.010	100.601	20.021	6.857	0.494
243.000	193.978	80.002	20.009	100.591	20.021	6.900	0.487
243.500	194.266	80.002	20.010	100.590	20.024	6.554	0.504
244.000	194.498	80.002	20.010	100.600	20.021	6.813	0.529
244.500	194.744	80.003	20.010	100.615	20.022	6.801	0.499
245.000	194.948	80.002	20.009	100.629	20.021	6.900	0.464
245.500	195.191	80.002	20.009	100.638	20.019	7.042	0.448
246.000	195.483	80.002	20.010	100.641	20.021	6.847	0.491
246.500	195.722	80.002	20.010	100.631	20.020	6.959	0.533
247.000	196.001	80.002	20.010	100.617	20.022	6.735	0.525
247.500	196.286	80.003	20.009	100.606	20.021	6.852	0.541
248.000	196.488	80.002	20.009	100.598	20.021	6.891	0.525
248.500	196.731	80.002	20.010	100.600	20.024	6.532	0.466
249.000	196.985	80.002	20.010	100.613	20.024	6.601	0.471
249.500	197.227	80.003	20.009	100.628	20.023	6.662	0.497
250.000	197.455	80.001	20.010	100.633	20.023	6.621	0.483
250.500	197.729	80.003	20.010	100.633	20.025	6.419	0.486
251.000	197.967	80.002	20.009	100.621	20.024	6.528	0.507
251.500	198.224	80.002	20.010	100.605	20.026	6.350	0.503
252.000	198.407	80.003	20.009	100.594	20.027	6.249	0.467
252.500	198.661	80.002	20.010	100.593	20.027	6.214	0.439
253.000	198.922	80.002	20.010	100.601	20.027	6.252	0.476
253.500	199.177	80.003	20.010	100.616	20.027	6.219	0.515
254.000	199.465	80.001	20.009	100.632	20.029	6.033	0.530
254.500	199.678	80.003	20.010	100.643	20.031	5.872	0.522
255.000	199.981	80.002	20.010	100.644	20.028	6.178	0.509
255.500	200.209	80.001	20.010	100.631	20.029	6.034	0.523
256.001	200.369	80.003	20.010	100.615	20.030	5.983	0.459
256.500	200.638	80.003	20.009	100.599	20.030	5.926	0.409
257.000	200.886	80.002	20.010	100.584	20.028	6.100	0.474
257.500	201.137	80.002	20.009	100.581	20.028	6.161	0.508
258.000	201.438	80.001	20.010	100.585	20.029	6.010	0.526
258.500	201.679	80.004	20.010	100.595	20.030	5.900	0.547
259.000	201.872	80.003	20.009	100.612	20.026	6.337	0.488
259.500	202.152	80.003	20.009	100.625	20.029	6.045	0.453
260.000	202.423	80.003	20.010	100.628	20.031	5.865	0.512
260.500	202.662	80.002	20.010	100.621	20.026	6.317	0.531
261.000	202.891	80.001	20.010	100.612	20.029	6.017	0.489
261.500	203.069	80.003	20.009	100.598	20.029	6.007	0.438
262.000	203.371	80.000	20.009	100.586	20.030	5.913	0.443
262.500	203.578	80.003	20.009	100.585	20.029	6.041	0.494
263.000	203.854	80.002	20.010	100.592	20.030	5.909	0.496
263.500	204.115	80.003	20.010	100.599	20.028	6.151	0.510
264.000	204.351	80.002	20.009	100.606	20.029	6.038	0.518
264.500	204.617	80.002	20.009	100.612	20.032	5.766	0.499
265.000	204.889	80.003	20.010	100.608	20.030	5.956	0.519
265.500	205.118	80.002	20.010	100.600	20.028	6.092	0.520
266.000	205.341	80.002	20.010	100.592	20.030	5.931	0.477
266.500	205.612	80.003	20.010	100.583	20.031	5.843	0.473
267.000	205.822	80.003	20.010	100.574	20.026	6.353	0.487
267.500	206.109	80.003	20.010	100.578	20.027	6.269	0.489
268.000	206.369	80.002	20.010	100.587	20.027	6.259	0.522
268.500	206.589	80.002	20.009	100.594	20.027	6.222	0.513
269.000	206.855	80.002	20.009	100.603	20.029	6.059	0.483
269.500	207.104	80.002	20.010	100.607	20.030	5.903	0.501
270.000	207.370	80.003	20.010	100.599	20.027	6.214	0.515
270.500	207.608	80.002	20.010	100.590	20.031	5.876	0.509
271.000	207.873	80.002	20.010	100.583	20.030	5.931	0.504
271.500	208.131	80.002	20.009	100.579	20.033	5.669	0.513
272.000	208.380	80.001	20.010	100.582	20.031	5.849	0.515
272.500	208.644	80.003	20.010	100.590	20.029	6.027	0.510
273.000	208.890	80.000	20.009	100.603	20.031	5.828	0.512
273.500	209.077	80.003	20.009	100.618	20.033	5.641	0.472
274.000	209.350	80.002	20.009	100.624	20.032	5.718	0.447
274.501	209.610	80.002	20.009	100.618	20.032	5.707	0.496
275.000	209.816	80.001	20.010	100.606	20.031	5.865	0.500
275.500	210.085	80.003	20.010	100.593	20.029	6.071	0.470
276.000	210.352	80.003	20.010	100.575	20.028	6.121	0.505
276.500	210.575	80.002	20.010	100.568	20.029	6.003	0.513
277.000	210.824	80.002	20.010	100.576	20.031	5.860	0.481
277.500	211.102	80.001	20.009	100.589	20.030	5.894	0.499
278.000	211.392	80.004	20.010	100.603	20.032	5.702	0.548
278.500	211.594	80.001	20.009	100.612	20.029	6.055	0.530
279.000	211.879	80.003	20.010	100.612	20.029	6.038	0.489
279.500	212.116	80.002	20.009	100.604	20.031	5.871	0.504
280.000	212.330	80.002	20.010	100.591	20.031	5.852	0.486
280.500	212.600	80.002	20.010	100.571	20.033	5.625	0.468
281.000	212.858	80.003	20.010	100.561	20.033	5.672	0.507
281.500	213.042	80.004	20.010	100.563	20.033	5.608	0.485
282.000	213.348	80.002	20.009	100.571	20.032	5.675	0.466
282.500	213.613	80.002	20.009	100.587	20.030	5.901	0.531
283.000	213.773	80.002	20.009	100.605	20.034	5.539	0.498
283.500	214.066	80.003	20.010	100.617	20.033	5.594	0.439
284.000	214.323	80.003	20.010	100.618	20.032	5.752	0.501
284.500	214.538	80.003	20.009	100.609	20.034	5.511	0.511
285.000	214.779	80.002	20.010	100.596	20.032	5.714	0.464
285.500	215.055	80.003	20.010	100.584	20.035	5.422	0.487
286.000	215.301	80.003	20.010	100.577	20.034	5.570	0.520
286.500	215.625	80.002	20.010	100.580	20.034	5.517	0.546
287.000	215.841	80.002	20.009	100.588	20.036	5.279	0.555
287.500	216.126	80.002	20.009	100.600	20.036	5.330	0.520
288.000	216.333	80.003	20.009	100.609	20.034	5.520	0.496
288.500	216.579	80.001	20.009	100.617	20.038	5.156	0.473
289.000	216.825	80.003	20.009	100.615	20.038	5.102	0.473
289.500	217.135	80.003	20.010	100.608	20.037	5.231	0.524
290.000	217.392	80.002	20.010	100.598	20.038	5.147	0.561
290.500	217.608	80.002	20.010	100.587	20.035	5.417	0.521
291.001	217.850	80.002	20.010	100.578	20.035	5.421	0.466
291.500	218.117	80.003	20.010	100.577	20.035	5.427	0.483
292.000	218.314	80.003	20.009	100.584	20.035	5.460	0.486
292.500	218.598	80.003	20.009	100.592	20.037	5.252	0.473
293.000	218.865	80.003	20.010	100.602	20.036	5.294	0.516
293.500	219.063	80.002	20.009	100.603	20.038	5.081	0.508
294.000	219.361	80.002	20.010	100.594	20.035	5.376	0.480
294.500	219.564	80.001	20.010	100.581	20.038	5.154	0.499
295.000	219.861	80.003	20.009	100.565	20.038	5.110	0.500
295.500	220.092	80.003	20.010	100.554	20.037	5.184	0.514
296.000	220.425	80.002	20.009	100.553	20.038	5.090	0.546
296.500	220.635	80.003	20.010	100.565	20.037	5.253	0.553
297.000	220.836	80.002	20.009	100.580	20.036	5.292	0.477
297.500	221.189	80.002	20.009	100.596	20.040	4.861	0.482
298.000	221.359	80.002	20.010	100.607	20.039	5.001	0.539
298.500	221.643	80.003	20.009	100.612	20.038	5.124	0.489
299.000	221.883	80.001	20.010	100.606	20.041	4.823	0.489
299.500	222.123	80.002	20.010	100.592	20.036	5.312	0.502
300.000	222.350	80.002	20.009	100.575	20.040	4.914	0.473
300.500	222.588	80.002	20.010	100.562	20.040	4.907	0.466
301.000	222.881	80.003	20.010	100.556	20.039	5.044	0.498
301.500	223.154	80.003	20.009	100.561	20.041	4.801	0.548
302.000	223.378	80.001	20.009	100.573	20.041	4.814	0.531
302.500	223.614	80.003	20.009	100.589	20.039	5.024	0.478
303.000	223.906	80.002	20.009	100.602	20.042	4.745	0.494
303.500	224.167	80.002	20.009	100.602	20.041	4.769	0.540
304.000	224.434	80.002	20.010	100.592	20.042	4.652	0.541
304.500	224.642	80.002	20.010	100.584	20.041	4.802	0.502
305.001	224.922	80.003	20.010	100.577	20.044	4.507	0.482
305.500	225.170	80.003	20.009	100.574	20.044	4.474	0.508
306.000	225.415	80.002	20.010	100.583	20.043	4.621	0.510
306.500	225.652	80.002	20.009	100.593	20.042	4.713	0.487
307.000	225.905	80.003	20.009	100.602	20.041	4.783	0.486
307.500	226.154	80.003	20.009	100.610	20.044	4.474	0.496
308.000	226.397	80.001	20.010	100.612	20.044	4.457	0.497
308.500	226.681	80.003	20.010	100.603	20.045	4.409	0.509
309.000	226.933	80.002	20.011	100.596	20.044	4.529	0.532
309.500	227.219	80.003	20.010	100.591	20.046	4.232	0.537
310.001	227.420	80.003	20.010	100.591	20.045	4.385	0.512
310.500	227.681	80.003	20.010	100.593	20.045	4.376	0.475
311.000	227.988	80.001	20.009	100.608	20.044	4.469	0.515
311.500	228.157	80.003	20.009	100.622	20.042	4.688	0.522
312.000	228.403	80.001	20.010	100.627	20.042	4.666	0.446
312.500	228.679	80.003	20.010	100.626	20.045	4.350	0.468
313.000	228.870	80.002	20.010	100.616	20.044	4.529	0.494
313.500	229.219	80.004	20.010	100.601	20.044	4.473	0.503
314.000	229.464	80.002	20.010	100.585	20.041	4.753	0.567
314.500	229.653	80.003	20.010	100.576	20.042	4.656	0.515
315.000	229.895	80.002	20.010	100.575	20.043	4.620	0.433
315.500	230.183	80.003	20.009	100.584	20.044	4.458	0.480
316.000	230.432	80.002	20.009	100.592	20.043	4.597	0.534
316.500	230.638	80.002	20.010	100.601	20.045	4.385	0.496
317.000	230.911	80.003	20.009	100.603	20.045	4.434	0.467
317.500	231.183	80.001	20.010	100.594	20.046	4.317	0.512
318.001	231.443	80.002	20.010	100.582	20.043	4.549	0.538
318.500	231.690	80.002	20.010	100.571	20.042	4.709	0.520
319.000	231.893	80.003	20.010	100.564	20.044	4.471	0.479
319.500	232.150	80.002	20.010	100.563	20.041	4.813	0.455
320.001	232.420	80.002	20.010	100.568	20.043	4.559	0.493
320.500	232.700	80.003	20.010	100.576	20.043	4.558	0.538
321.000	232.919	80.002	20.010	100.586	20.042	4.696	0.525
321.500	233.169	80.001	20.010	100.594	20.043	4.574	0.484
322.000	233.415	80.003	20.009	100.597	20.043	4.618	0.482
322.500	233.676	80.002	20.010	100.595	20.043	4.545	0.501
323.000	233.912	80.002	20.009	100.590	20.043	4.563	0.502
323.500	234.153	80.002	20.010	100.582	20.043	4.572	0.487
324.000	234.441	80.003	20.009	100.574	20.043	4.580	0.503
324.500	234.671	80.003	20.009	100.578	20.041	4.848	0.524
325.000	234.949	80.001	20.008	100.585	20.042	4.675	0.513
325.500	235.203	80.002	20.008	100.593	20.041	4.828	0.520
326.000	235.458	80.003	20.010	100.601	20.040	4.915	0.521
326.500	235.702	80.002	20.007	100.616	20.039	5.013	0.504
327.000	235.971	80.002	20.009	100.618	20.041	4.795	0.506
327.500	236.165	80.003	20.009	100.605	20.045	4.399	0.488
328.000	236.406	80.001	20.009	100.583	20.040	4.916	0.449
328.500	236.677	80.002	20.009	100.566	20.040	4.891	0.473
329.000	236.948	80.003	20.009	100.550	20.041	4.775	0.527
329.500	237.235	80.002	20.009	100.545	20.042	4.693	0.550
330.000	237.468	80.002	20.008	100.559	20.043	4.626	0.539
330.500	237.689	80.002	20.008	100.582	20.040	4.936	0.487
331.000	237.955	80.002	20.009	100.600	20.042	4.743	0.470
331.500	238.230	80.003	20.009	100.605	20.041	4.815	0.514
332.000	238.484	80.002	20.008	100.601	20.041	4.783	0.535
332.500	238.737	80.002	20.008	100.593	20.042	4.662	0.518
333.000	239.023	80.003	20.009	100.580	20.042	4.681	0.524
333.500	239.307	80.003	20.010	100.564	20.041	4.777	0.555
334.000	239.518	80.004	20.009	100.563	20.040	4.853	0.532
334.500	239.774	80.002	20.009	100.574	20.041	4.757	0.480
335.000	240.071	80.003	20.008	100.590	20.043	4.637	0.510
335.500	240.237	80.001	20.008	100.607	20.041	4.747	0.508
336.000	240.539	80.004	20.009	100.622	20.041	4.767	0.465
336.500	240.792	80.002	20.009	100.620	20.042	4.667	0.511
337.000	241.067	80.003	20.009	100.609	20.042	4.647	0.541
337.500	241.306	80.003	20.009	100.595	20.043	4.568	0.521
338.000	241.574	80.002	20.009	100.590	20.043	4.640	0.511
338.500	241.828	80.003	20.009	100.591	20.040	4.904	0.515
339.000	242.086	80.003	20.009	100.596	20.042	4.703	0.517
339.500	242.329	80.003	20.010	100.596	20.039	5.029	0.506
340.000	242.636	80.002	20.010	100.589	20.040	4.885	0.525
340.500	242.877	80.003	20.009	100.573	20.041	4.833	0.549
341.000	243.104	80.002	20.009	100.558	20.040	4.922	0.508
341.500	243.355	80.004	20.009	100.545	20.043	4.575	0.473
342.000	243.657	80.003	20.009	100.539	20.044	4.524	0.515
342.500	243.876	80.002	20.009	100.547	20.040	4.882	0.537
343.000	244.138	80.002	20.009	100.562	20.043	4.565	0.501
343.500	244.449	80.002	20.009	100.577	20.040	4.851	0.527
344.000	244.662	80.002	20.009	100.593	20.040	4.930	0.548
344.500	244.923	80.003	20.008	100.606	20.040	4.912	0.499
345.000	245.209	80.003	20.009	100.607	20.042	4.705	0.510
345.500	245.516	80.003	20.009	100.596	20.041	4.788	0.570
346.000	245.755	80.002	20.009	100.584	20.040	4.864	0.569
346.501	245.919	80.002	20.009	100.571	20.041	4.835	0.475
347.000	246.226	80.003	20.009	100.564	20.041	4.813	0.437
347.500	246.518	80.003	20.010	100.563	20.040	4.885	0.535
348.000	246.755	80.002	20.009	100.574	20.037	5.240	0.564
348.500	247.008	80.003	20.009	100.587	20.038	5.111	0.509
349.000	247.250	80.002	20.009	100.598	20.039	5.029	0.493
349.500	247.519	80.003	20.010	100.599	20.035	5.413	0.503
350.000	247.802	80.002	20.009	100.597	20.039	5.049	0.531
350.500	248.040	80.003	20.009	100.589	20.038	5.128	0.536
351.000	248.293	80.002	20.009	100.582	20.036	5.321	0.506
351.500	248.547	80.004	20.009	100.581	20.035	5.450	0.499
352.000	248.824	80.002	20.009	100.587	20.036	5.270	0.519
352.500	249.023	80.003	20.008	100.595	20.035	5.464	0.503
353.000	249.274	80.001	20.009	100.603	20.037	5.212	0.463
353.500	249.580	80.002	20.009	100.608	20.034	5.500	0.504
354.000	249.815	80.003	20.009	100.603	20.035	5.462	0.549
354.500	250.118	80.003	20.010	100.596	20.036	5.292	0.540
355.000	250.366	80.002	20.009	100.588	20.034	5.506	0.545
355.500	250.587	80.004	20.010	100.579	20.032	5.720	0.510
356.000	250.885	80.002	20.010	100.573	20.033	5.652	0.494
356.500	251.122	80.002	20.009	100.572	20.033	5.610	0.527
357.000	251.386	80.003	20.009	100.577	20.035	5.448	0.518
357.500	251.683	80.002	20.010	100.580	20.034	5.485	0.531
358.000	251.926	80.002	20.010	100.583	20.034	5.543	0.550
358.500	252.141	80.002	20.010	100.583	20.033	5.622	0.499
359.000	252.403	80.004	20.009	100.581	20.030	5.893	0.468
359.500	252.626	80.002	20.010	100.567	20.030	5.919	0.481
360.000	252.938	80.002	20.010	100.555	20.030	5.940	0.510
360.500	253.124	80.003	20.009	100.547	20.032	5.710	0.517
361.000	253.342	80.004	20.010	100.546	20.029	6.048	0.451
361.500	253.612	80.001	20.010	100.548	20.029	6.018	0.446
362.000	253.904	80.003	20.010	100.556	20.027	6.215	0.525
362.500	254.152	80.002	20.010	100.565	20.030	5.892	0.551
363.000	254.409	80.002	20.010	100.570	20.028	6.122	0.523
363.500	254.661	80.002	20.009	100.565	20.025	6.461	0.507
364.000	254.947	80.002	20.009	100.559	20.027	6.224	0.523
364.500	255.124	80.003	20.009	100.550	20.026	6.311	0.501
365.000	255.447	80.002	20.009	100.543	20.026	6.381	0.482
365.500	255.626	80.003	20.009	100.542	20.025	6.447	0.500
366.000	255.941	80.004	20.010	100.548	20.026	6.372	0.498
366.500	256.199	80.003	20.009	100.559	20.023	6.660	0.534
367.000	256.427	80.003	20.009	100.574	20.021	6.833	0.530
367.500	256.661	80.002	20.009	100.589	20.024	6.600	0.474
368.000	256.901	80.002	20.009	100.595	20.021	6.817	0.468
368.500	257.176	80.003	20.009	100.592	20.022	6.807	0.495
369.001	257.436	80.003	20.010	100.581	20.027	6.228	0.525
369.500	257.717	80.002	20.010	100.571	20.022	6.758	0.538
370.000	257.963	80.002	20.010	100.566	20.021	6.820	0.534
370.500	258.202	80.003	20.009	100.569	20.020	6.987	0.507
371.000	258.446	80.003	20.009	100.579	20.021	6.878	0.484
371.500	258.721	80.002	20.010	100.593	20.020	6.921	0.501
372.000	259.017	80.003	20.010	100.605	20.021	6.909	0.545
372.500	259.250	80.003	20.009	100.603	20.019	7.117	0.550
373.000	259.514	80.001	20.010	100.591	20.018	7.135	0.513
373.500	259.750	80.002	20.010	100.575	20.018	7.185	0.499
374.000	259.998	80.002	20.010	100.560	20.017	7.318	0.492
374.500	260.212	80.003	20.009	100.546	20.016	7.378	0.473
375.000	260.511	80.003	20.009	100.546	20.018	7.148	0.487
375.500	260.758	80.003	20.009	100.552	20.014	7.580	0.530
376.000	261.046	80.002	20.010	100.567	20.015	7.484	0.541
376.500	261.284	80.003	20.009	100.580	20.015	7.506	0.531
377.000	261.518	80.003	20.009	100.589	20.014	7.590	0.499
377.500	261.753	80.002	20.010	100.590	20.010	8.003	0.471
378.000	262.025	80.001	20.009	100.585	20.011	7.891	0.488
378.500	262.308	80.003	20.010	100.570	20.014	7.614	0.531
379.000	262.516	80.003	20.009	100.558	20.009	8.147	0.523
379.500	262.766	80.002	20.009	100.554	20.009	8.146	0.475
380.000	263.064	80.003	20.010	100.557	20.008	8.208	0.503
380.500	263.242	80.003	20.009	100.568	20.006	8.390	0.512
381.000	263.461	80.002	20.009	100.583	20.005	8.461	0.436
381.501	263.778	80.002	20.010	100.592	20.006	8.377	0.466
382.000	263.999	80.002	20.009	100.592	20.007	8.315	0.537
382.500	264.243	80.002	20.009	100.585	20.005	8.560	0.501
383.000	264.499	80.003	20.009	100.569	20.003	8.705	0.483
383.500	264.755	80.003	20.009	100.553	20.002	8.770	0.507
384.000	265.006	80.003	20.009	100.546	20.001	8.949	0.509
384.500	265.227	80.002	20.009	100.546	20.001	8.918	0.489
385.000	265.536	80.002	20.009	100.552	20.000	9.016	0.501
385.500	265.729	80.002	20.009	100.566	19.999	9.132	0.516
386.000	266.128	80.002	20.010	100.576	19.997	9.289	0.547
386.500	266.295	80.003	20.010	100.581	19.994	9.617	0.579
387.000	266.599	80.003	20.010	100.575	19.994	9.657	0.518
387.500	266.780	80.002	20.010	100.564	19.992	9.879	0.478
388.000	266.933	80.002	20.009	100.553	19.991	9.903	0.409
388.500	267.344	80.002	20.010	100.549	19.988	10.257	0.449
389.000	267.499	80.002	20.010	100.549	19.987	10.369	0.566
389.500	267.918	80.003	20.010	100.557	19.987	10.403	0.571
390.000	268.124	80.004	20.010	100.565	19.985	10.590	0.600
390.500	268.344	80.002	20.009	100.571	19.984	10.650	0.525
391.000	268.578	80.001	20.010	100.571	19.984	10.658	0.439
391.500	268.836	80.003	20.010	100.565	19.981	10.997	0.473
392.000	269.038	80.003	20.010	100.550	19.982	10.895	0.476
392.500	269.332	80.003	20.011	100.535	19.982	10.924	0.478
393.000	269.537	80.003	20.010	100.518	19.978	11.304	0.497
393.500	269.916	80.003	20.010	100.513	19.978	11.292	0.542
394.000	270.067	80.002	20.009	100.520	19.976	11.497	0.557
394.500	270.386	80.003	20.010	100.532	19.975	11.575	0.500
395.000	270.574	80.002	20.009	100.545	19.974	11.693	0.488
395.500	270.751	80.002	20.009	100.554	19.975	11.603	0.436
396.000	271.079	80.003	20.010	100.552	19.975	11.612	0.435
396.500	271.322	80.002	20.010	100.537	19.970	12.134	0.538
397.000	271.562	80.003	20.010	100.522	19.972	11.883	0.527
397.500	271.830	80.003	20.010	100.511	19.969	12.187	0.496
398.000	271.999	80.003	20.010	100.511	19.967	12.426	0.473
398.500	272.319	80.003	20.009	100.521	19.967	12.440	0.463
399.000	272.574	80.002	20.009	100.537	19.965	12.612	0.532
399.500	272.792	80.004	20.009	100.549	19.966	12.527	0.524
400.000	273.047	80.001	20.010	100.555	19.965	12.679	0.473
400.500	273.365	80.004	20.009	100.553	19.963	12.886	0.523
401.000	273.481	80.002	20.010	100.538	19.964	12.760	0.503
401.500	273.756	80.002	20.010	100.522	19.961	13.052	0.413
402.000	274.003	80.003	20.010	100.510	19.959	13.258	0.457
402.500	274.223	80.003	20.010	100.501	19.957	13.431	0.495
403.000	274.504	80.004	20.009	100.498	19.955	13.626	0.484
403.500	274.719	80.002	20.009	100.507	19.954	13.777	0.498
404.000	274.977	80.003	20.009	100.517	19.952	13.915	0.484
404.500	275.214	80.003	20.009	100.526	19.951	14.074	0.484
405.000	275.360	80.003	20.009	100.528	19.949	14.293	0.439
405.500	275.652	80.003	20.009	100.520	19.948	14.376	0.410
406.000	275.873	80.001	20.010	100.506	19.947	14.518	0.476
406.500	276.221	80.002	20.010	100.496	19.947	14.554	0.541
407.000	276.347	80.004	20.010	100.494	19.944	14.846	0.521
407.500	276.652	80.003	20.009	100.507	19.945	14.683	0.453
408.000	276.917	80.004	20.010	100.529	19.943	14.896	0.501
408.500	277.141	80.003	20.010	100.550	19.944	14.825	0.530
409.000	277.382	80.003	20.009	100.567	19.941	15.120	0.477
409.500	277.673	80.002	20.009	100.575	19.941	15.111	0.498
410.000	277.914	80.003	20.010	100.574	19.941	15.130	0.532
410.500	278.118	80.002	20.009	100.565	19.939	15.299	0.489
411.000	278.413	80.003	20.009	100.555	19.938	15.397	0.472
411.500	278.671	80.001	20.010	100.547	19.934	15.842	0.526
412.000	278.898	80.003	20.010	100.542	19.935	15.747	0.519
412.500	279.129	80.003	20.009	100.543	19.934	15.872	0.472
413.000	279.419	80.003	20.010	100.555	19.931	16.128	0.490
413.500	279.646	80.003	20.010	100.571	19.929	16.347	0.519
414.000	279.887	79.999	20.005	100.590	19.927	16.576	0.492
414.500	280.097	80.005	20.017	100.607	19.928	16.500	0.459
415.000	280.398	80.002	20.012	100.549	19.925	16.822	0.481
415.500	280.599	80.003	20.008	100.500	19.925	16.719	0.507
416.000	280.846	80.001	20.008	100.464	19.925	16.773	0.475
416.500	281.122	80.004	20.007	100.436	19.926	16.695	0.485
417.000	281.330	80.002	20.013	100.395	19.927	16.548	0.503
417.501	281.608	80.004	20.011	100.452	19.925	16.745	0.485
418.000	281.871	80.003	20.007	100.538	19.925	16.723	0.514
418.500	282.084	80.001	20.008	100.617	19.927	16.548	0.509
419.000	282.306	80.003	20.009	100.662	19.924	16.826	0.456
419.500	282.558	80.003	20.010	100.699	19.924	16.872	0.455
420.000	282.848	80.003	20.010	100.700	19.923	16.937	0.508
420.500	283.053	80.004	20.010	100.659	19.921	17.150	0.518
421.000	283.297	80.001	20.009	100.610	19.919	17.342	0.472
421.500	283.520	80.003	20.009	100.583	19.919	17.379	0.458
422.000	283.783	80.004	20.010	100.575	19.918	17.455	0.476
422.500	284.013	80.002	20.009	100.572	19.919	17.417	0.489
423.000	284.226	80.002	20.010	100.566	19.915	17.839	0.468
423.500	284.491	80.004	20.010	100.558	19.915	17.828	0.460
424.000	284.753	80.001	20.010	100.547	19.913	18.019	0.502
424.500	284.992	80.003	20.010	100.547	19.913	18.019	0.514
425.000	285.234	80.003	20.010	100.549	19.911	18.165	0.491
425.500	285.514	80.003	20.010	100.553	19.911	18.211	0.501
426.000	285.771	80.002	20.010	100.560	19.909	18.399	0.530
426.500	285.980	80.003	20.009	100.570	19.910	18.339	0.502
427.000	286.269	80.004	20.010	100.578	19.907	18.589	0.482
427.500	286.513	80.004	20.009	100.582	19.906	18.752	0.515
428.000	286.739	80.003	20.010	100.579	19.906	18.762	0.501
428.500	286.973	80.004	20.010	100.572	19.904	18.984	0.465
429.000	287.261	80.005	20.010	100.555	19.903	19.066	0.491
429.500	287.433	80.002	20.011	100.536	19.902	19.111	0.491
430.000	287.736	80.002	20.010	100.528	19.903	19.011	0.468
430.501	287.924	80.003	20.010	100.533	19.901	19.263	0.483
431.000	288.193	80.002	20.009	100.546	19.899	19.427	0.474
431.500	288.454	80.003	20.009	100.568	19.900	19.367	0.494
432.000	288.715	80.002	20.009	100.585	19.902	19.164	0.525
432.500	288.899	80.002	20.009	100.590	19.900	19.342	0.483
433.000	289.212	80.002	20.010	100.585	19.900	19.327	0.471
433.500	289.435	80.004	20.010	100.571	19.899	19.454	0.516
434.000	289.661	80.002	20.010	100.557	19.900	19.342	0.493
434.500	289.942	80.002	20.009	100.544	19.896	19.768	0.478
435.000	290.140	80.003	20.010	100.541	19.897	19.606	0.493
435.500	290.436	80.002	20.009	100.547	19.897	19.652	0.487
436.000	290.641	80.002	20.009	100.557	19.894	19.965	0.498
436.500	290.923	80.002	20.009	100.568	19.894	19.970	0.494
437.000	291.121	80.003	20.009	100.576	19.894	19.946	0.483
437.500	291.404	80.003	20.009	100.572	19.893	20.110	0.481
438.000	291.647	80.002	20.009	100.564	19.894	19.973	0.503
438.500	291.894	80.003	20.010	100.553	19.894	19.971	0.508
439.000	292.136	80.003	20.010	100.543	19.892	20.198	0.490
439.500	292.386	80.003	20.009	100.537	19.891	20.293	0.491
440.000	292.639	80.003	20.010	100.543	19.889	20.464	0.498
440.500	292.837	80.003	20.009	100.552	19.889	20.516	0.477
441.000	293.090	80.003	20.009	100.560	19.888	20.617	0.451
441.500	293.350	80.002	20.009	100.567	19.887	20.696	0.482
442.000	293.595	80.003	20.010	100.565	19.885	20.925	0.509
442.500	293.847	80.004	20.010	100.557	19.883	21.071	0.501
443.000	294.060	80.002	20.010	100.539	19.882	21.163	0.480
443.500	294.320	80.003	20.010	100.531	19.882	21.157	0.469
444.000	294.554	80.003	20.009	100.524	19.879	21.481	0.483
444.500	294.801	80.003	20.009	100.530	19.880	21.455	0.488
445.000	295.113	80.002	20.010	100.542	19.879	21.508	0.521
445.500	295.331	80.002	20.009	100.558	19.877	21.683	0.545
446.001	295.557	80.003	20.010	100.570	19.876	21.785	0.487
446.500	295.856	80.003	20.009	100.575	19.877	21.701	0.485
447.000	296.059	80.003	20.010	100.568	19.876	21.870	0.514
447.500	296.363	80.003	20.009	100.561	19.874	22.056	0.504
448.000	296.629	80.001	20.010	100.561	19.874	21.983	0.538
448.500	296.883	80.003	20.009	100.558	19.872	22.286	0.544
449.000	297.114	80.002	20.009	100.564	19.870	22.430	0.502
449.500	297.367	80.004	20.009	100.581	19.873	22.178	0.484
450.000	297.623	80.001	20.009	100.591	19.873	22.175	0.497
450.501	297.868	80.002	20.009	100.594	19.869	22.567	0.505
451.000	298.132	80.004	20.010	100.593	19.866	22.805	0.505
451.500	298.364	80.002	20.009	100.584	19.863	23.165	0.503
452.000	298.647	80.002	20.009	100.575	19.863	23.134	0.505
452.500	298.873	80.003	20.010	100.556	19.863	23.200	0.511
453.000	299.143	80.004	20.009	100.543	19.861	23.414	0.503
453.500	299.362	80.001	20.010	100.540	19.860	23.493	0.493
454.000	299.683	80.004	20.009	100.544	19.860	23.493	0.514
454.500	299.892	80.002	20.009	100.546	19.861	23.349	0.535
455.000	300.153	80.002	20.009	100.558	19.858	23.685	0.500
455.500	300.372	80.003	20.010	100.568	19.857	23.756	0.475
456.000	300.642	80.002	20.009	100.569	19.855	24.035	0.484
456.500	300.860	80.002	20.010	100.561	19.853	24.169	0.488
457.000	301.161	80.002	20.010	100.547	19.853	24.161	0.504
457.500	301.417	80.003	20.010	100.537	19.852	24.270	0.538
458.000	301.633	80.002	20.010	100.529	19.850	24.493	0.514
458.500	301.911	80.003	20.009	100.532	19.847	24.783	0.483
459.000	302.143	80.002	20.009	100.541	19.848	24.705	0.502
459.500	302.413	80.004	20.009	100.557	19.845	25.006	0.506
460.001	302.669	80.002	20.009	100.568	19.844	25.102	0.514
460.500	302.906	80.002	20.010	100.574	19.842	25.343	0.509
461.000	303.162	80.002	20.009	100.567	19.839	25.624	0.493
461.500	303.459	80.004	20.010	100.558	19.838	25.750	0.523
462.000	303.680	80.003	20.009	100.548	19.835	26.058	0.536
462.500	303.904	80.001	20.010	100.541	19.832	26.363	0.481
463.000	304.177	80.004	20.009	100.540	19.830	26.564	0.471
463.500	304.424	80.002	20.009	100.548	19.825	27.072	0.509
464.000	304.658	80.002	20.009	100.558	19.827	26.832	0.500
464.500	304.928	80.002	20.009	100.567	19.821	27.477	0.493
465.000	305.170	80.003	20.009	100.573	19.820	27.614	0.508
465.500	305.479	80.002	20.010	100.568	19.820	27.643	0.532
466.000	305.683	80.002	20.009	100.561	19.817	27.883	0.532
466.500	305.922	80.003	20.010	100.550	19.814	28.216	0.478
467.001	306.155	80.003	20.010	100.543	19.809	28.714	0.458
467.500	306.422	80.003	20.010	100.544	19.808	28.867	0.486
468.000	306.669	80.004	20.010	100.550	19.805	29.182	0.507
468.500	306.928	80.001	20.009	100.558	19.804	29.228	0.510
469.000	307.171	80.002	20.009	100.567	19.800	29.635	0.504
469.500	307.420	80.003	20.009	100.572	19.795	30.136	0.497
470.000	307.715	80.002	20.009	100.564	19.794	30.309	0.518
470.500	307.947	80.003	20.010	100.556	19.792	30.484	0.536
471.000	308.199	80.003	20.010	100.546	19.785	31.228	0.505
471.500	308.465	80.002	20.010	100.537	19.782	31.528	0.501
472.000	308.692	80.003	20.009	100.534	19.780	31.765	0.506
472.500	308.969	80.002	20.009	100.543	19.775	32.223	0.498
473.000	309.238	80.002	20.009	100.551	19.772	32.569	0.525
473.500	309.504	80.004	20.009	100.556	19.768	32.965	0.541
474.000	309.766	80.001	20.010	100.555	19.762	33.580	0.531
474.500	309.973	80.003	20.009	100.544	19.757	34.131	0.498
475.000	310.234	80.003	20.009	100.528	19.754	34.377	0.468
475.500	310.493	80.003	20.010	100.511	19.752	34.657	0.494
476.000	310.745	80.002	20.010	100.505	19.750	34.804	0.516
476.500	311.005	80.002	20.009	100.514	19.743	35.533	0.512
477.000	311.209	80.002	20.009	100.529	19.739	35.911	0.488
477.500	311.479	80.003	20.010	100.544	19.735	36.378	0.469
478.000	311.709	80.002	20.009	100.556	19.730	36.884	0.487
478.500	311.961	80.002	20.009	100.560	19.726	37.333	0.491
479.000	312.215	80.003	20.010	100.553	19.720	37.873	0.494
479.500	312.415	80.002	20.009	100.543	19.716	38.315	0.480
480.000	312.752	80.003	20.010	100.529	19.710	38.927	0.495
480.500	312.932	80.002	20.010	100.516	19.706	39.314	0.527
481.000	313.187	80.003	20.010	100.513	19.701	39.911	0.476
481.500	313.490	80.003	20.010	100.513	19.696	40.330	0.497
482.000	313.718	80.003	20.009	100.518	19.693	40.721	0.545
482.500	313.951	80.003	20.009	100.531	19.689	41.153	0.496
483.000	314.196	80.003	20.010	100.541	19.684	41.633	0.469
483.500	314.467	80.003	20.009	100.542	19.679	42.179	0.497
484.000	314.677	80.003	20.010	100.538	19.673	42.767	0.499
484.500	314.937	80.002	20.009	100.526	19.668	43.318	0.475
485.000	315.171	80.002	20.010	100.512	19.661	43.954	0.482
485.500	315.425	80.004	20.009	100.507	19.659	44.164	0.491
486.001	315.668	80.003	20.009	100.510	19.652	44.958	0.492
486.501	315.968	80.001	20.009	100.522	19.646	45.510	0.520
487.000	316.142	80.002	20.009	100.537	19.639	46.230	0.509
487.500	316.368	80.002	20.008	100.553	19.633	46.828	0.437
488.000	316.635	80.003	20.009	100.557	19.627	47.518	0.446
488.500	316.887	80.002	20.009	100.547	19.622	47.977	0.506
489.000	317.146	80.002	20.009	100.531	19.615	48.724	0.515
489.500	317.353	80.002	20.009	100.521	19.610	49.264	0.489
490.000	317.623	80.004	20.010	100.512	19.601	50.212	0.472
490.500	317.866	80.002	20.009	100.512	19.596	50.706	0.495
491.001	318.151	80.002	20.009	100.520	19.594	50.881	0.521
491.500	318.395	80.002	20.009	100.532	19.584	51.951	0.528
492.000	318.663	80.002	20.010	100.537	19.576	52.705	0.520
492.500	318.908	80.001	20.009	100.539	19.569	53.481	0.513
493.000	319.156	80.002	20.010	100.532	19.563	54.035	0.503
493.500	319.387	80.003	20.009	100.524	19.558	54.606	0.486
494.000	319.615	80.002	20.010	100.512	19.551	55.321	0.469
494.500	319.868	80.002	20.009	100.502	19.545	56.004	0.470
495.000	320.078	80.001	20.010	100.498	19.537	56.740	0.472
495.500	320.367	80.002	20.010	100.504	19.529	57.563	0.481
496.000	320.657	80.002	20.010	100.512	19.522	58.295	0.539
496.500	320.926	80.002	20.010	100.520	19.513	59.186	0.569
497.000	321.141	80.001	20.009	100.528	19.509	59.678	0.522
497.500	321.393	80.002	20.010	100.532	19.504	60.157	0.476
498.000	321.704	80.003	20.009	100.525	19.494	61.221	0.515
498.500	321.924	80.003	20.010	100.517	19.487	61.887	0.547
499.000	322.186	80.002	20.009	100.507	19.480	62.670	0.506
499.500	322.442	80.002	20.010	100.494	19.473	63.362	0.500
500.000	322.696	80.002	20.009	100.487	19.467	64.033	0.514
500.500	322.894	80.003	20.009	100.493	19.462	64.535	0.481
501.000	323.174	80.002	20.009	100.501	19.452	65.492	0.465
501.500	323.438	80.002	20.010	100.512	19.444	66.317	0.511
502.000	323.678	80.002	20.010	100.524	19.436	67.148	0.524
502.500	323.919	80.002	20.009	100.524	19.427	68.136	0.492
503.000	324.191	80.000	20.010	100.515	19.420	68.792	0.497
503.500	324.424	80.003	20.010	100.500	19.413	69.548	0.509
504.000	324.640	80.003	20.010	100.484	19.407	70.223	0.477
504.500	324.911	80.002	20.010	100.471	19.400	70.952	0.468
505.000	325.153	80.004	20.010	100.471	19.392	71.732	0.500
505.500	325.417	80.002	20.009	100.472	19.384	72.516	0.509
506.000	325.615	80.001	20.010	100.481	19.378	73.124	0.484
506.500	325.885	80.003	20.009	100.497	19.369	74.050	0.465
507.000	326.184	80.003	20.010	100.505	19.362	74.804	0.519
507.500	326.371	80.002	20.010	100.506	19.356	75.442	0.528
508.000	326.619	80.002	20.010	100.501	19.346	76.521	0.461
508.500	326.839	80.003	20.010	100.491	19.337	77.399	0.451
509.000	327.136	80.002	20.010	100.476	19.327	78.491	0.492
509.500	327.362	80.002	20.010	100.469	19.322	78.966	0.520
510.000	327.609	80.002	20.010	100.468	19.312	80.004	0.498
510.500	327.828	80.002	20.010	100.474	19.306	80.605	0.470
511.000	328.121	80.002	20.009	100.483	19.295	81.730	0.489
511.500	328.363	80.003	20.009	100.496	19.286	82.608	0.524
512.000	328.596	80.002	20.010	100.500	19.281	83.202	0.505
512.500	328.886	80.003	20.010	100.499	19.275	83.768	0.499
513.000	329.093	80.002	20.009	100.494	19.266	84.686	0.510
513.500	329.412	80.002	20.010	100.486	19.261	85.299	0.512
514.000	329.620	80.002	20.010	100.473	19.249	86.457	0.526
514.500	329.840	80.003	20.010	100.464	19.239	87.511	0.477
515.000	330.101	80.002	20.010	100.465	19.233	88.176	0.454
515.500	330.403	80.002	20.009	100.470	19.225	88.974	0.522
516.000	330.666	80.003	20.009	100.484	19.215	89.942	0.564
516.500	330.883	80.002	20.010	100.499	19.206	90.936	0.522
517.000	331.140	80.001	20.009	100.510	19.195	92.008	0.477
517.500	331.339	80.002	20.010	100.512	19.191	92.471	0.465
518.000	331.605	80.002	20.010	100.507	19.182	93.405	0.460
518.500	331.892	80.002	20.010	100.494	19.176	94.065	0.509
519.000	332.072	80.001	20.010	100.486	19.166	95.024	0.510
519.500	332.326	80.002	20.010	100.483	19.159	95.768	0.450
520.000	332.607	80.003	20.009	100.483	19.151	96.600	0.485
520.500	332.835	80.002	20.009	100.488	19.142	97.530	0.523
521.000	333.083	80.002	20.009	100.499	19.136	98.144	0.493
521.500	333.424	80.002	20.010	100.502	19.125	99.237	0.532
522.000	333.651	80.002	20.009	100.502	19.118	99.984	0.578
522.500	333.887	80.001	20.009	100.502	19.109	100.922	0.516
523.000	334.148	80.002	20.009	100.502	19.101	101.801	0.480
523.500	334.385	80.003	20.010	100.493	19.096	102.333	0.497
524.000	334.641	80.002	20.009	100.491	19.083	103.680	0.495
524.500	334.857	80.002	20.009	100.488	19.076	104.401	0.483
525.000	335.094	80.001	20.009	100.489	19.065	105.437	0.463
525.500	335.321	80.001	20.009	100.492	19.059	106.086	0.458
526.000	335.578	80.002	20.010	100.497	19.054	106.603	0.474
526.500	335.862	80.001	20.009	100.503	19.043	107.752	0.513
527.000	336.119	80.002	20.009	100.506	19.035	108.519	0.541
527.500	336.374	80.003	20.010	100.503	19.031	109.014	0.526
528.000	336.611	80.001	20.010	100.492	19.020	110.069	0.502
528.500	336.893	80.003	20.010	100.484	19.015	110.601	0.506
529.000	337.156	80.002	20.010	100.471	19.006	111.598	0.533
529.500	337.404	80.002	20.010	100.462	19.002	112.031	0.528
530.000	337.648	80.002	20.009	100.465	18.992	113.008	0.501
530.500	337.871	80.001	20.010	100.478	18.982	114.066	0.479
531.000	338.092	80.002	20.009	100.491	18.979	114.372	0.455
531.500	338.342	80.002	20.009	100.502	18.970	115.230	0.457
532.000	338.632	80.002	20.009	100.509	18.962	116.109	0.506
532.500	338.821	80.002	20.009	100.510	18.953	117.071	0.510
533.000	339.097	80.002	20.010	100.500	18.946	117.738	0.472
533.500	339.345	80.001	20.010	100.486	18.942	118.207	0.494
534.000	339.578	80.003	20.010	100.478	18.934	119.048	0.502
534.500	339.884	80.001	20.010	100.477	18.927	119.738	0.510
535.000	340.130	80.002	20.009	100.484	18.918	120.653	0.546
535.500	340.366	80.002	20.009	100.496	18.913	121.197	0.517
536.000	340.683	80.002	20.009	100.511	18.907	121.797	0.518
536.500	340.888	80.002	20.009	100.522	18.901	122.393	0.537
537.000	341.128	80.003	20.009	100.528	18.894	123.106	0.483
537.500	341.394	80.001	20.009	100.521	18.886	123.974	0.475
538.001	341.657	80.001	20.010	100.511	18.880	124.586	0.518
538.501	341.880	80.003	20.009	100.496	18.875	125.132	0.508
539.001	342.100	80.002	20.010	100.489	18.867	125.989	0.465
539.500	342.416	80.002	20.010	100.483	18.861	126.578	0.489
540.000	342.563	80.002	20.009	100.485	18.853	127.338	0.500
540.500	342.841	80.002	20.009	100.495	18.850	127.680	0.444
541.000	343.078	80.002	20.009	100.509	18.842	128.539	0.470
541.500	343.343	80.002	20.009	100.517	18.835	129.263	0.508
542.000	343.671	80.002	20.009	100.521	18.831	129.730	0.547
542.500	343.862	80.001	20.010	100.519	18.824	130.444	0.556
543.000	344.135	80.003	20.010	100.511	18.818	131.062	0.492
543.500	344.372	80.002	20.010	100.503	18.813	131.546	0.487
544.000	344.660	80.001	20.010	100.496	18.808	132.060	0.517
544.500	344.882	80.002	20.010	100.495	18.802	132.728	0.517
545.000	345.172	80.002	20.010	100.502	18.797	133.225	0.511
545.500	345.368	80.001	20.009	100.509	18.792	133.657	0.499
546.000	345.627	80.002	20.009	100.524	18.783	134.595	0.471
546.500	345.852	80.001	20.009	100.535	18.780	134.971	0.470
547.000	346.142	80.003	20.009	100.541	18.779	135.031	0.499
547.500	346.357	80.002	20.009	100.538	18.771	135.920	0.510
548.000	346.646	80.000	20.010	100.533	18.766	136.402	0.505
548.500	346.836	80.003	20.009	100.524	18.760	137.025	0.492
549.001	347.104	80.000	20.009	100.521	18.756	137.467	0.469
549.501	347.356	80.002	20.009	100.527	18.750	138.146	0.489
550.000	347.624	80.002	20.010	100.537	18.746	138.554	0.520
550.500	347.834	80.002	20.009	100.550	18.740	139.131	0.499
551.000	348.108	80.002	20.009	100.558	18.736	139.570	0.481
551.500	348.342	80.003	20.009	100.559	18.733	139.843	0.496
552.000	348.583	80.001	20.009	100.552	18.729	140.374	0.491
552.500	348.861	80.002	20.010	100.545	18.726	140.661	0.496
553.000	349.083	80.002	20.010	100.537	18.721	141.142	0.509
553.500	349.345	80.002	20.010	100.532	18.719	141.427	0.492
554.000	349.615	80.001	20.010	100.538	18.715	141.764	0.508
554.500	349.852	80.002	20.009	100.549	18.709	142.384	0.520
555.000	350.113	80.004	20.009	100.564	18.705	142.798	0.503
555.500	350.334	80.002	20.009	100.578	18.702	143.094	0.490
556.000	350.576	80.001	20.009	100.592	18.696	143.712	0.472
556.500	350.865	80.004	20.009	100.597	18.690	144.284	0.497
557.000	351.103	80.001	20.010	100.593	18.686	144.729	0.529
557.500	351.341	80.002	20.010	100.578	18.682	145.192	0.501
558.000	351.621	80.002	20.010	100.568	18.674	145.922	0.497
558.500	351.864	80.002	20.009	100.560	18.666	146.828	0.521
559.000	352.098	80.002	20.010	100.554	18.663	147.095	0.500
559.500	352.318	80.002	20.009	100.563	18.659	147.494	0.466
560.000	352.615	80.002	20.010	100.577	18.651	148.327	0.485
560.500	352.796	80.001	20.009	100.589	18.643	149.166	0.497
561.000	353.030	80.000	20.009	100.600	18.635	149.981	0.447
561.500	353.314	80.002	20.009	100.609	18.631	150.387	0.467
562.000	353.555	80.001	20.010	100.609	18.624	151.140	0.522
562.500	353.760	80.001	20.009	100.610	18.616	151.897	0.485
563.000	354.025	80.002	20.010	100.610	18.606	152.975	0.458
563.500	354.251	80.002	20.009	100.612	18.599	153.686	0.481
564.000	354.506	80.002	20.010	100.619	18.590	154.597	0.486
564.500	354.773	80.002	20.010	100.633	18.581	155.478	0.501
565.000	355.002	80.001	20.009	100.650	18.569	156.649	0.508
565.500	355.248	80.001	20.009	100.665	18.564	157.183	0.486
566.000	355.510	80.002	20.009	100.672	18.555	158.146	0.492
566.500	355.723	80.001	20.010	100.673	18.548	158.902	0.492
567.000	356.004	80.002	20.009	100.668	18.540	159.736	0.484
567.500	356.253	80.001	20.009	100.657	18.532	160.534	0.512
568.000	356.484	80.002	20.010	100.641	18.525	161.244	0.505
568.500	356.745	80.002	20.009	100.630	18.511	162.638	0.486
569.000	356.967	80.002	20.009	100.624	18.501	163.603	0.487
569.500	357.211	80.003	20.009	100.624	18.482	165.571	0.474
570.000	357.427	80.001	20.009	100.627	18.469	166.812	0.463
570.500	357.659	80.001	20.009	100.628	18.454	168.401	0.454
571.000	357.942	80.002	20.009	100.623	18.445	169.379	0.482
571.500	358.199	80.003	20.010	100.614	18.433	170.599	0.528
572.000	358.438	80.001	20.010	100.613	18.424	171.547	0.518
572.500	358.701	80.001	20.010	100.619	18.417	172.204	0.499
573.001	358.948	80.002	20.009	100.622	18.411	172.864	0.506
573.501	359.166	80.004	20.009	100.623	18.406	173.387	0.488
574.000	359.410	80.002	20.011	100.627	18.401	173.913	0.463
574.500	359.644	80.004	20.009	100.627	18.396	174.413	0.469
575.000	359.917	80.004	20.010	100.616	18.393	174.772	0.492
575.500	360.188	80.004	20.010	100.610	18.383	175.733	0.526
576.000	360.383	80.002	20.009	100.606	18.372	176.861	0.505
576.500	360.608	80.002	20.009	100.593	18.361	178.054	0.443
577.000	360.869	80.001	20.009	100.565	18.353	178.873	0.453
577.500	361.124	80.004	20.009	100.544	18.342	180.108	0.501
578.000	361.373	80.002	20.009	100.530	18.336	180.725	0.510
578.501	361.594	80.002	20.009	100.530	18.331	181.260	0.487
579.000	361.891	80.002	20.009	100.547	18.332	181.223	0.494
579.500	362.101	80.001	20.008	100.569	18.333	181.202	0.512
580.000	362.377	80.003	20.009	100.571	18.335	181.039	0.496
580.500	362.622	80.003	20.009	100.562	18.341	180.406	0.504
581.000	362.841	80.001	20.009	100.542	18.348	179.694	0.492
581.500	363.127	80.003	20.010	100.507	18.352	179.260	0.485
582.000	363.351	80.003	20.009	100.473	18.357	178.760	0.507
582.500	363.599	80.002	20.009	100.459	18.361	178.376	0.491
583.001	363.822	80.002	20.008	100.455	18.362	178.310	0.472
583.501	364.089	80.003	20.008	100.463	18.365	178.155	0.481
584.000	364.375	80.003	20.008	100.468	18.372	177.414	0.522
584.500	364.620	80.004	20.008	100.461	18.382	176.488	0.542
585.000	364.830	80.002	20.010	100.455	18.388	175.840	0.493
585.500	365.093	80.000	20.010	100.467	18.401	174.486	0.464
586.000	365.307	80.003	20.008	100.482	18.412	173.297	0.475
586.500	365.575	80.002	20.008	100.487	18.420	172.506	0.479
587.000	365.830	80.002	20.009	100.490	18.425	171.949	0.502
587.500	366.120	80.001	20.008	100.497	18.434	171.073	0.534
588.000	366.359	80.003	20.008	100.488	18.446	169.838	0.537
588.500	366.633	80.002	20.009	100.472	18.456	168.856	0.521
589.000	366.855	80.000	20.009	100.471	18.462	168.215	0.504
589.500	367.135	80.003	20.009	100.484	18.471	167.283	0.499
590.001	367.379	80.001	20.009	100.502	18.482	166.024	0.513
590.500	367.603	80.002	20.009	100.520	18.491	165.158	0.497
591.000	367.878	80.002	20.009	100.541	18.497	164.440	0.484
591.500	368.113	80.001	20.009	100.571	18.504	163.760	0.504
592.000	368.370	80.002	20.009	100.610	18.514	162.767	0.501
592.500	368.619	80.001	20.009	100.646	18.522	161.932	0.499
593.000	368.876	80.002	20.009	100.669	18.526	161.484	0.506
593.500	369.099	80.002	20.009	100.674	18.535	160.547	0.493
594.000	369.380	80.002	20.009	100.672	18.543	159.734	0.492
594.501	369.639	80.002	20.010	100.670	18.548	159.171	0.522
595.000	369.884	80.002	20.009	100.666	18.556	158.333	0.522
595.500	370.156	80.002	20.010	100.677	18.561	157.813	0.511
596.000	370.355	80.001	20.009	100.719	18.568	157.115	0.494
596.500	370.662	80.003	20.009	100.761	18.573	156.613	0.488
597.000	370.862	80.001	20.009	100.788	18.578	156.078	0.507
597.500	371.096	80.001	20.008	100.808	18.585	155.372	0.470
598.000	371.381	80.001	20.009	100.811	18.592	154.665	0.476
598.500	371.629	80.003	20.010	100.792	18.592	154.602	0.526
599.000	371.906	80.001	20.009	100.777	18.599	153.895	0.529
599.500	372.151	80.002	20.009	100.776	18.603	153.483	0.524
600.000	372.393	80.002	20.009	100.785	18.611	152.653	0.505
600.500	372.642	80.000	20.009	100.802	18.614	152.399	0.489
601.000	372.886	80.003	20.009	100.824	18.619	151.884	0.492
601.501	373.136	80.002	20.009	100.833	18.626	151.174	0.493
602.001	373.383	80.001	20.009	100.826	18.631	150.648	0.496
602.500	373.690	80.002	20.010	100.809	18.636	150.017	0.526
603.000	373.870	80.002	20.010	100.788	18.642	149.372	0.520
603.500	374.167	80.002	20.009	100.772	18.649	148.695	0.482
604.000	374.428	80.001	20.010	100.763	18.654	148.147	0.517
604.500	374.623	80.003	20.009	100.766	18.662	147.370	0.507
605.000	374.863	80.001	20.009	100.771	18.666	146.944	0.445
605.500	375.088	80.003	20.009	100.780	18.672	146.311	0.450
606.000	375.360	80.002	20.009	100.781	18.677	145.805	0.481
606.500	375.631	80.002	20.010	100.776	18.683	145.165	0.520
607.000	375.836	80.002	20.010	100.762	18.689	144.609	0.510
607.500	376.122	80.002	20.009	100.751	18.695	143.951	0.483
608.000	376.288	80.003	20.009	100.747	18.702	143.167	0.471
608.500	376.563	80.002	20.009	100.747	18.708	142.584	0.447
609.000	376.832	80.002	20.009	100.752	18.710	142.418	0.493
609.500	377.090	80.002	20.009	100.758	18.720	141.400	0.536
610.000	377.358	80.001	20.009	100.759	18.723	141.088	0.526
610.500	377.615	80.002	20.010	100.752	18.726	140.786	0.525
611.000	377.885	80.002	20.010	100.744	18.734	139.905	0.526
611.500	378.104	80.002	20.010	100.736	18.740	139.323	0.508
612.001	378.344	80.002	20.009	100.730	18.748	138.458	0.474
612.500	378.549	80.002	20.009	100.733	18.749	138.399	0.452
613.000	378.816	80.002	20.009	100.740	18.759	137.381	0.458
613.500	379.147	80.002	20.009	100.749	18.765	136.727	0.535
614.000	379.376	80.002	20.009	100.757	18.768	136.390	0.579
614.500	379.570	80.002	20.010	100.761	18.778	135.423	0.492
615.000	379.824	80.003	20.009	100.754	18.782	134.964	0.436
615.500	380.078	80.002	20.010	100.738	18.790	134.102	0.478
616.000	380.316	80.003	20.010	100.723	18.797	133.349	0.500
616.500	380.591	80.002	20.010	100.714	18.807	132.333	0.502
617.000	380.801	80.001	20.009	100.714	18.815	131.530	0.499
617.500	381.075	80.002	20.009	100.722	18.823	130.697	0.485
618.000	381.319	80.001	20.010	100.739	18.832	129.842	0.501
618.501	381.573	80.002	20.009	100.750	18.839	129.077	0.508
619.000	381.840	80.003	20.009	100.750	18.845	128.498	0.509
619.500	382.117	80.002	20.010	100.741	18.853	127.686	0.532
620.000	382.343	80.003	20.010	100.727	18.860	126.971	0.524
620.500	382.585	80.000	20.009	100.716	18.868	126.080	0.485
621.000	382.813	80.002	20.010	100.713	18.878	125.087	0.469
621.500	383.074	80.002	20.009	100.717	18.883	124.490	0.480
622.000	383.342	80.002	20.009	100.731	18.895	123.327	0.509
622.500	383.572	80.002	20.010	100.746	18.905	122.272	0.513
623.000	383.797	80.002	20.010	100.749	18.912	121.573	0.476
623.500	384.102	80.002	20.010	100.748	18.923	120.471	0.493
624.000	384.307	80.002	20.010	100.737	18.929	119.815	0.520
624.500	384.570	80.002	20.010	100.728	18.938	118.885	0.489
625.000	384.798	80.004	20.009	100.721	18.947	117.892	0.480
625.500	385.031	80.003	20.010	100.721	18.957	116.925	0.476
626.000	385.275	80.001	20.009	100.728	18.965	116.070	0.469
626.500	385.527	80.003	20.009	100.743	18.975	115.052	0.487
627.000	385.766	80.001	20.010	100.751	18.986	113.914	0.494
627.500	386.008	80.002	20.010	100.751	18.993	113.151	0.486
628.000	386.324	80.001	20.009	100.747	19.001	112.372	0.519
628.500	386.487	80.003	20.010	100.734	19.014	111.030	0.519
629.000	386.779	80.001	20.010	100.718	19.025	109.867	0.467
629.500	387.005	80.003	20.009	100.709	19.032	109.146	0.486
630.000	387.218	80.002	20.009	100.712	19.041	108.187	0.478
630.500	387.454	80.002	20.010	100.724	19.053	106.931	0.444
631.000	387.752	80.005	20.009	100.742	19.063	105.972	0.492
631.500	387.976	80.002	20.010	100.760	19.073	104.922	0.528
632.000	388.229	80.003	20.009	100.770	19.082	104.022	0.499
632.500	388.507	80.003	20.010	100.769	19.095	102.658	0.504
633.000	388.757	80.002	20.010	100.760	19.102	101.974	0.530
633.500	389.029	80.003	20.010	100.746	19.112	100.849	0.525
634.000	389.274	80.002	20.010	100.736	19.121	99.990	0.519
634.500	389.529	80.002	20.009	100.733	19.129	99.104	0.509
635.000	389.808	80.002	20.010	100.741	19.141	97.886	0.517
635.500	390.009	80.003	20.009	100.757	19.154	96.564	0.507
636.000	390.261	80.002	20.009	100.768	19.164	95.527	0.467
636.500	390.570	80.002	20.010	100.777	19.172	94.733	0.507
637.000	390.780	80.001	20.010	100.775	19.179	93.941	0.540
637.500	390.995	80.003	20.010	100.765	19.192	92.556	0.472
638.000	391.304	80.001	20.010	100.749	19.200	91.788	0.474
638.500	391.547	80.004	20.010	100.741	19.213	90.402	0.538
639.000	391.829	80.002	20.010	100.733	19.221	89.590	0.538
639.500	392.111	80.002	20.010	100.738	19.233	88.391	0.544
640.000	392.283	80.003	20.010	100.746	19.244	87.210	0.510
640.500	392.524	80.002	20.009	100.753	19.255	86.071	0.434
641.000	392.840	80.001	20.009	100.760	19.263	85.253	0.485
641.500	393.082	80.002	20.009	100.760	19.274	84.076	0.557
642.000	393.326	80.004	20.010	100.754	19.285	83.028	0.522
642.500	393.570	80.002	20.010	100.749	19.296	81.861	0.487
643.000	393.817	80.002	20.009	100.750	19.307	80.708	0.489
643.500	394.046	80.003	20.010	100.752	19.314	80.026	0.484
644.000	394.346	80.003	20.010	100.767	19.324	78.991	0.503
644.500	394.606	80.003	20.010	100.777	19.332	78.112	0.544
645.000	394.924	80.003	20.010	100.781	19.344	76.912	0.569
645.500	395.095	80.001	20.010	100.781	19.354	75.794	0.533
646.000	395.348	80.001	20.010	100.781	19.365	74.721	0.457
646.500	395.578	80.002	20.010	100.777	19.373	73.874	0.454
647.000	395.819	80.002	20.010	100.782	19.383	72.811	0.477
647.500	396.116	80.002	20.009	100.790	19.393	71.793	0.504
648.000	396.339	80.002	20.010	100.798	19.403	70.781	0.529
648.500	396.652	80.003	20.009	100.799	19.415	69.539	0.528
649.000	396.836	80.002	20.011	100.796	19.424	68.583	0.516
649.500	397.090	80.001	20.009	100.782	19.435	67.496	0.467
650.000	397.329	80.003	20.010	100.766	19.444	66.507	0.466
650.500	397.575	80.002	20.010	100.751	19.450	65.966	0.490
651.000	397.827	80.002	20.009	100.747	19.460	64.874	0.492
651.500	398.092	80.002	20.009	100.746	19.470	63.879	0.507
652.000	398.390	80.001	20.010	100.754	19.483	62.509	0.539
652.500	398.594	80.002	20.009	100.766	19.490	61.794	0.533
653.001	398.778	80.003	20.009	100.774	19.497	60.999	0.445
653.500	399.061	80.002	20.010	100.772	19.508	59.913	0.427
654.000	399.303	80.002	20.010	100.763	19.520	58.686	0.496
654.500	399.564	80.002	20.010	100.759	19.526	58.088	0.515
655.000	399.815	80.003	20.010	100.754	19.535	57.157	0.508
655.500	400.097	80.002	20.009	100.754	19.542	56.348	0.522
656.000	400.376	80.002	20.010	100.758	19.555	55.021	0.547
656.500	400.621	80.002	20.009	100.766	19.558	54.723	0.543
657.000	400.895	80.003	20.010	100.761	19.569	53.582	0.522
657.500	401.128	80.000	20.009	100.753	19.576	52.835	0.513
658.001	401.392	80.004	20.010	100.743	19.587	51.750	0.502
658.501	401.612	80.002	20.009	100.738	19.597	50.721	0.490
659.000	401.869	80.002	20.009	100.740	19.606	49.753	0.481
659.500	402.116	80.002	20.010	100.754	19.612	49.177	0.491
660.000	402.361	80.003	20.009	100.764	19.621	48.262	0.498
660.500	402.582	80.002	20.010	100.771	19.630	47.275	0.479
661.000	402.890	80.002	20.009	100.768	19.641	46.200	0.498
661.500	403.082	80.002	20.009	100.757	19.646	45.602	0.515
662.000	403.327	80.002	20.009	100.746	19.654	44.783	0.468
662.500	403.563	80.001	20.010	100.744	19.661	44.065	0.459
663.000	403.808	80.003	20.009	100.749	19.670	43.183	0.481
663.500	404.108	80.002	20.009	100.757	19.682	41.865	0.513
664.000	404.311	80.001	20.009	100.764	19.689	41.175	0.524
664.500	404.534	80.003	20.010	100.764	19.697	40.315	0.465
665.000	404.812	80.003	20.010	100.756	19.704	39.625	0.463
665.501	405.004	80.002	20.010	100.746	19.711	38.886	0.485
666.000	405.263	80.001	20.009	100.738	19.717	38.299	0.460
666.500	405.465	80.003	20.010	100.738	19.724	37.605	0.456
667.001	405.675	80.002	20.009	100.744	19.732	36.792	0.437
667.500	405.969	80.003	20.008	100.752	19.737	36.232	0.458
668.000	406.267	80.002	20.010	100.752	19.744	35.456	0.548
668.500	406.458	80.002	20.010	100.744	19.751	34.794	0.541
669.000	406.684	80.004	20.011	100.730	19.759	33.915	0.453
669.500	406.990	80.003	20.012	100.720	19.765	33.304	0.474
670.000	407.215	80.002	20.010	100.715	19.775	32.319	0.531
670.500	407.447	80.003	20.011	100.723	19.778	31.978	0.494
671.001	407.714	80.002	20.010	100.733	19.788	30.945	0.478
671.500	407.960	80.003	20.009	100.741	19.796	30.153	0.506
672.000	408.263	80.002	20.010	100.742	19.800	29.660	0.531
672.500	408.401	80.004	20.010	100.734	19.806	29.057	0.495
673.003	408.684	80.003	20.011	100.722	19.813	28.373	0.431
673.507	408.891	80.004	20.011	100.717	19.820	27.614	0.455
674.008	409.171	80.003	20.010	100.716	19.824	27.224	0.488
674.509	409.437	80.004	20.011	100.718	19.832	26.378	0.517
675.008	409.666	80.002	20.010	100.722	19.837	25.932	0.521
675.508	409.918	80.003	20.010	100.728	19.842	25.320	0.488
676.009	410.135	80.002	20.010	100.725	19.846	24.994	0.475
676.506	410.388	80.003	20.010	100.717	19.855	24.064	0.470
677.002	410.582	80.003	20.010	100.704	19.857	23.772	0.458
677.504	410.897	80.002	20.010	100.693	19.862	23.253	0.478
678.004	411.122	80.000	20.010	100.687	19.869	22.584	0.525
678.504	411.398	80.003	20.008	100.691	19.870	22.470	0.521
679.008	411.578	80.001	20.009	100.699	19.877	21.778	0.478
679.506	411.919	80.002	20.009	100.712	19.882	21.188	0.488
680.001	412.153	80.001	20.009	100.715	19.887	20.724	0.548
680.507	412.384	80.003	20.010	100.708	19.892	20.243	0.520
681.008	412.572	80.003	20.011	100.694	19.897	19.680	0.442
681.500	412.795	80.002	20.009	100.687	19.900	19.390	0.415
682.003	413.120	80.002	20.009	100.683	19.904	18.938	0.480
682.505	413.338	80.002	20.009	100.689	19.910	18.337	0.545
683.005	413.510	80.003	20.008	100.702	19.912	18.135	0.466
683.503	413.804	80.004	20.009	100.709	19.915	17.786	0.428
684.001	414.037	80.003	20.009	100.703	19.918	17.460	0.496
684.506	414.293	80.004	20.010	100.692	19.921	17.183	0.508
685.008	414.566	80.005	20.010	100.678	19.926	16.698	0.510
685.506	414.769	80.003	20.009	100.662	19.928	16.511	0.502
686.004	415.028	80.002	20.009	100.660	19.932	16.013	0.468
686.504	415.231	80.004	20.008	100.668	19.937	15.551	0.462
687.006	415.529	80.003	20.009	100.681	19.941	15.123	0.482
687.505	415.759	80.004	20.009	100.693	19.945	14.692	0.515
688.008	415.989	80.002	20.010	100.700	19.946	14.564	0.494
688.506	416.291	80.002	20.009	100.696	19.952	14.025	0.496
689.003	416.549	80.003	20.009	100.685	19.955	13.654	0.546
689.504	416.752	80.004	20.009	100.670	19.958	13.379	0.510
690.000	416.954	80.002	20.009	100.663	19.961	13.033	0.433
690.505	417.277	80.002	20.008	100.663	19.964	12.770	0.465
691.005	417.508	80.002	20.008	100.670	19.967	12.481	0.539
691.501	417.726	80.003	20.009	100.678	19.970	12.088	0.502
692.005	418.003	80.001	20.009	100.679	19.974	11.745	0.472
692.507	418.258	80.003	20.009	100.675	19.975	11.575	0.514
693.007	418.498	80.002	20.009	100.662	19.976	11.546	0.513
693.507	418.685	80.003	20.009	100.655	19.981	11.046	0.461
694.004	418.952	80.002	20.009	100.648	19.982	10.845	0.441
694.502	419.175	80.003	20.009	100.650	19.985	10.585	0.472
695.001	419.423	80.001	20.009	100.650	19.986	10.463	0.480
695.505	419.701	80.002	20.008	100.654	19.991	10.006	0.498
696.008	419.909	80.002	20.008	100.648	19.991	9.953	0.506
696.506	420.190	80.003	20.009	100.640	19.991	9.908	0.488
697.006	420.439	80.003	20.009	100.631	19.991	9.968	0.510
697.504	420.645	80.002	20.009	100.623	19.996	9.487	0.493
698.004	420.917	80.003	20.009	100.618	19.998	9.273	0.467
698.505	421.157	80.002	20.009	100.624	19.999	9.150	0.495
699.005	421.353	80.002	20.009	100.632	20.002	8.844	0.474
699.505	421.602	80.002	20.008	100.639	20.000	9.040	0.441
700.007	421.824	80.003	20.009	100.639	20.004	8.636	0.458
700.504	422.094	80.002	20.010	100.631	20.005	8.495	0.481
701.005	422.341	80.002	20.009	100.622	20.007	8.323	0.505
701.511	422.571	80.002	20.009	100.618	20.011	7.889	0.497
702.007	422.798	80.000	20.009	100.619	20.009	8.096	0.467
702.508	423.119	80.002	20.008	100.622	20.014	7.560	0.503
703.008	423.308	80.001	20.009	100.627	20.015	7.470	0.529
703.508	423.588	80.002	20.009	100.620	20.017	7.302	0.489
704.009	423.832	80.001	20.009	100.607	20.015	7.477	0.497
704.505	424.113	80.003	20.009	100.592	20.021	6.889	0.525
705.005	424.306	80.003	20.009	100.587	20.020	6.940	0.499
705.507	424.589	80.002	20.009	100.590	20.020	6.997	0.475
706.004	424.807	80.003	20.008	100.605	20.019	7.048	0.489
706.503	425.046	80.000	20.008	100.616	20.024	6.598	0.479
707.004	425.293	80.004	20.009	100.619	20.024	6.508	0.472
707.505	425.544	80.002	20.009	100.612	20.026	6.296	0.492
708.004	425.755	80.002	20.009	100.595	20.027	6.266	0.480
708.503	426.043	80.003	20.010	100.581	20.030	5.950	0.480
709.010	426.251	80.002	20.009	100.578	20.026	6.388	0.497
709.511	426.513	80.002	20.010	100.583	20.031	5.873	0.483
710.008	426.793	80.003	20.009	100.591	20.032	5.716	0.506
710.503	427.036	80.001	20.009	100.605	20.031	5.792	0.533
711.003	427.238	80.004	20.009	100.604	20.030	5.914	0.484
711.505	427.507	80.001	20.010	100.597	20.031	5.871	0.458
712.005	427.725	80.002	20.010	100.588	20.035	5.391	0.479
712.505	427.972	80.003	20.010	100.581	20.035	5.392	0.476
713.002	428.228	80.004	20.010	100.580	20.037	5.243	0.484
713.504	428.437	80.001	20.009	100.587	20.037	5.260	0.484
714.007	428.703	80.001	20.010	100.592	20.038	5.133	0.470
714.503	428.945	80.003	20.009	100.593	20.041	4.797	0.491
715.003	429.250	80.002	20.010	100.587	20.039	4.965	0.527
715.503	429.407	80.002	20.009	100.576	20.041	4.787	0.505
716.000	429.656	80.003	20.009	100.567	20.041	4.844	0.434
716.500	429.932	80.002	20.009	100.566	20.043	4.604	0.465
717.000	430.240	80.003	20.010	100.573	20.044	4.527	0.554
717.500	430.470	80.002	20.009	100.586	20.044	4.435	0.561
718.000	430.690	80.002	20.009	100.596	20.048	4.053	0.494
718.500	430.921	80.002	20.009	100.596	20.044	4.437	0.450
719.000	431.228	80.003	20.010	100.583	20.047	4.226	0.494
719.500	431.433	80.002	20.009	100.568	20.048	4.047	0.525
720.000	431.680	80.002	20.009	100.558	20.047	4.187	0.482
720.504	431.921	80.001	20.009	100.555	20.047	4.195	0.470
721.008	432.205	80.002	20.009	100.557	20.047	4.138	0.507
721.504	432.414	80.002	20.008	100.565	20.051	3.776	0.510
722.001	432.620	80.004	20.010	100.565	20.052	3.676	0.454
722.501	432.958	80.002	20.010	100.559	20.051	3.748	0.479
723.004	433.156	80.002	20.009	100.549	20.054	3.450	0.540
723.506	433.441	80.001	20.009	100.547	20.052	3.633	0.509
724.003	433.734	80.002	20.009	100.547	20.052	3.611	0.530
724.501	433.951	80.003	20.009	100.555	20.054	3.410	0.544
725.002	434.192	80.003	20.009	100.563	20.055	3.301	0.484
725.501	434.447	80.002	20.010	100.570	20.058	3.043	0.477
726.000	434.660	80.002	20.009	100.565	20.058	3.013	0.482
726.500	434.934	80.002	20.008	100.558	20.057	3.173	0.478
727.000	435.112	80.002	20.009	100.551	20.056	3.219	0.469
727.500	435.462	80.003	20.008	100.550	20.059	2.990	0.490
728.000	435.697	80.002	20.009	100.551	20.056	3.275	0.556
728.500	435.935	80.001	20.008	100.558	20.059	2.913	0.529
729.000	436.140	80.003	20.009	100.564	20.059	2.967	0.458
729.500	436.428	80.003	20.009	100.563	20.061	2.747	0.468
730.000	436.668	80.003	20.009	100.555	20.061	2.690	0.510
730.500	436.897	80.003	20.008	100.546	20.062	2.588	0.498
731.000	437.182	80.002	20.009	100.538	20.061	2.756	0.492
731.500	437.373	80.003	20.009	100.536	20.062	2.678	0.495
732.000	437.647	80.001	20.008	100.543	20.064	2.422	0.471
732.500	437.882	80.003	20.008	100.547	20.061	2.695	0.487
733.000	438.104	80.002	20.009	100.548	20.063	2.555	0.483
733.500	438.397	80.002	20.009	100.543	20.062	2.618	0.486
734.000	438.637	80.003	20.009	100.530	20.062	2.647	0.524
734.500	438.886	80.002	20.009	100.522	20.065	2.368	0.511
735.000	439.132	80.002	20.009	100.525	20.061	2.743	0.492
735.500	439.406	80.002	20.008	100.533	20.060	2.791	0.507
736.000	439.648	80.003	20.009	100.543	20.061	2.693	0.518
736.500	439.889	80.002	20.009	100.551	20.063	2.529	0.500
737.000	440.180	80.002	20.009	100.549	20.062	2.629	0.507
737.500	440.406	80.004	20.009	100.536	20.061	2.699	0.524
738.000	440.642	80.004	20.009	100.527	20.061	2.737	0.489
738.500	440.952	80.001	20.009	100.524	20.061	2.748	0.504
739.000	441.163	80.001	20.008	100.532	20.061	2.750	0.534
739.501	441.409	80.003	20.010	100.539	20.057	3.162	0.489
740.000	441.655	80.002	20.010	100.549	20.063	2.506	0.474
740.500	441.915	80.003	20.010	100.550	20.064	2.457	0.499
741.001	442.135	80.001	20.010	100.543	20.061	2.723	0.493
741.500	442.427	80.003	20.009	100.526	20.062	2.654	0.496
742.000	442.643	80.002	20.009	100.520	20.059	2.951	0.511
742.500	442.861	80.003	20.010	100.517	20.064	2.373	0.471
743.000	443.155	80.002	20.009	100.522	20.063	2.519	0.472
743.500	443.413	80.002	20.008	100.534	20.065	2.329	0.532
744.000	443.638	80.002	20.009	100.543	20.064	2.420	0.518
744.500	443.887	80.002	20.009	100.536	20.063	2.505	0.479
745.000	444.119	80.003	20.009	100.528	20.064	2.435	0.478
745.500	444.443	80.002	20.010	100.522	20.061	2.723	0.519
746.000	444.697	80.003	20.009	100.519	20.065	2.329	0.567
746.500	444.964	80.003	20.009	100.526	20.062	2.605	0.549
747.000	445.163	80.003	20.008	100.542	20.063	2.488	0.494
747.500	445.445	80.001	20.010	100.553	20.063	2.516	0.473
748.000	445.686	80.001	20.009	100.555	20.062	2.640	0.502
748.500	445.918	80.004	20.010	100.551	20.062	2.634	0.498
749.000	446.153	80.002	20.009	100.543	20.063	2.568	0.470
749.500	446.429	80.003	20.009	100.535	20.065	2.364	0.489
750.000	446.663	80.002	20.009	100.532	20.063	2.477	0.510
750.500	446.860	80.003	20.009	100.540	20.066	2.231	0.470
751.000	447.115	80.001	20.009	100.548	20.066	2.250	0.442
751.500	447.364	80.002	20.009	100.558	20.063	2.501	0.478
752.000	447.650	80.003	20.009	100.562	20.063	2.520	0.519
752.500	447.880	80.002	20.010	100.560	20.064	2.418	0.525
753.000	448.113	80.002	20.010	100.551	20.063	2.479	0.490
753.500	448.371	80.002	20.009	100.544	20.066	2.239	0.477
754.000	448.609	80.002	20.010	100.543	20.067	2.156	0.493
754.500	448.897	80.003	20.010	100.548	20.064	2.411	0.511
755.000	449.111	80.002	20.009	100.554	20.063	2.568	0.514
755.500	449.377	80.002	20.010	100.555	20.065	2.363	0.491
756.000	449.608	80.003	20.010	100.552	20.067	2.062	0.488
756.500	449.844	80.003	20.009	100.542	20.064	2.448	0.482
757.000	450.077	80.002	20.010	100.534	20.064	2.461	0.468
757.500	450.332	80.002	20.010	100.528	20.065	2.313	0.479
758.000	450.569	80.002	20.009	100.528	20.066	2.189	0.490
758.500	450.865	80.002	20.010	100.531	20.065	2.343	0.512
759.000	451.152	80.003	20.009	100.534	20.067	2.108	0.557
759.500	451.384	80.002	20.009	100.532	20.066	2.189	0.551
760.000	451.647	80.003	20.010	100.525	20.065	2.306	0.507
760.500	451.878	80.004	20.009	100.519	20.064	2.440	0.495
761.000	452.152	80.003	20.009	100.519	20.067	2.088	0.500
761.500	452.378	80.003	20.009	100.524	20.064	2.437	0.503
762.000	452.625	80.002	20.010	100.535	20.062	2.598	0.486
762.501	452.850	80.003	20.009	100.547	20.066	2.260	0.472
763.000	453.113	80.002	20.010	100.553	20.064	2.437	0.480
763.500	453.377	80.001	20.010	100.547	20.067	2.139	0.507
764.000	453.591	80.002	20.010	100.538	20.063	2.512	0.502
764.500	453.874	80.002	20.010	100.530	20.062	2.597	0.487
765.000	454.114	80.002	20.010	100.525	20.061	2.730	0.510
765.500	454.344	80.002	20.009	100.529	20.065	2.339	0.497
766.000	454.530	80.002	20.010	100.537	20.063	2.474	0.443
766.500	454.871	80.003	20.010	100.537	20.062	2.672	0.472
767.000	455.081	80.002	20.010	100.528	20.062	2.668	0.540
767.501	455.337	80.003	20.010	100.521	20.063	2.566	0.508
768.000	455.587	80.001	20.010	100.510	20.063	2.557	0.485
768.500	455.807	80.002	20.010	100.508	20.061	2.690	0.488
769.000	456.036	80.003	20.010	100.511	20.061	2.699	0.460
769.500	456.343	80.002	20.010	100.520	20.060	2.849	0.493
770.000	456.598	80.003	20.010	100.525	20.062	2.664	0.549
770.500	456.884	80.003	20.010	100.526	20.065	2.343	0.552
771.000	457.065	80.002	20.010	100.517	20.063	2.516	0.504
771.500	457.337	80.003	20.010	100.514	20.065	2.331	0.460
772.000	457.614	80.003	20.009	100.512	20.061	2.717	0.501
772.500	457.817	80.002	20.010	100.513	20.062	2.664	0.514
773.000	458.053	80.002	20.008	100.518	20.062	2.610	0.459
773.500	458.363	80.003	20.009	100.522	20.063	2.522	0.492
774.000	458.611	80.001	20.009	100.517	20.062	2.668	0.553
774.500	458.813	80.002	20.008	100.510	20.062	2.603	0.504
775.000	459.081	80.002	20.010	100.503	20.063	2.555	0.460
775.500	459.332	80.003	20.008	100.502	20.060	2.861	0.495
776.000	459.611	80.002	20.009	100.506	20.061	2.708	0.525
776.500	459.839	80.003	20.009	100.518	20.062	2.586	0.518
777.000	460.082	80.002	20.009	100.527	20.063	2.557	0.489
777.500	460.322	80.002	20.010	100.532	20.062	2.609	0.476
778.000	460.523	80.002	20.008	100.528	20.065	2.365	0.462
778.500	460.771	80.003	20.009	100.522	20.064	2.413	0.445
779.000	461.066	80.002	20.009	100.511	20.065	2.315	0.496
779.501	461.330	80.004	20.009	100.506	20.065	2.294	0.551
780.000	461.523	80.003	20.009	100.509	20.062	2.632	0.508
780.500	461.794	80.002	20.009	100.515	20.066	2.198	0.460
781.000	462.016	80.002	20.008	100.522	20.064	2.389	0.478
781.500	462.306	80.002	20.009	100.525	20.065	2.350	0.503
782.000	462.536	80.002	20.009	100.520	20.067	2.156	0.516
782.501	462.705	80.002	20.009	100.512	20.067	2.095	0.460
783.000	462.966	80.001	20.009	100.509	20.069	1.881	0.415
783.500	463.182	80.001	20.009	100.510	20.069	1.936	0.453
784.000	463.429	80.002	20.008	100.520	20.069	1.925	0.470
784.500	463.674	80.002	20.009	100.530	20.068	2.036	0.478
785.000	463.876	80.001	20.009	100.538	20.070	1.779	0.469
785.500	464.132	80.002	20.009	100.536	20.070	1.753	0.452
786.000	464.363	80.001	20.009	100.531	20.068	2.043	0.473
786.500	464.593	80.003	20.009	100.521	20.068	1.999	0.474
787.000	464.869	80.001	20.010	100.519	20.068	2.028	0.483
787.500	465.091	80.001	20.008	100.521	20.071	1.749	0.502
788.000	465.343	80.003	20.009	100.532	20.069	1.932	0.486
788.501	465.525	80.001	20.009	100.538	20.068	1.962	0.454
789.001	465.782	80.002	20.009	100.540	20.069	1.892	0.436
789.501	465.999	80.001	20.009	100.532	20.067	2.066	0.456
790.001	466.263	80.002	20.010	100.522	20.066	2.254	0.478
790.501	466.500	80.003	20.010	100.507	20.064	2.374	0.492
791.001	466.714	80.002	20.009	100.506	20.062	2.636	0.476
791.501	466.944	80.002	20.009	100.514	20.067	2.161	0.447
792.001	467.168	80.001	20.008	100.528	20.064	2.437	0.449
792.500	467.435	80.003	20.009	100.539	20.062	2.600	0.473
793.000	467.635	80.002	20.009	100.545	20.065	2.354	0.479
793.500	467.927	80.003	20.009	100.538	20.065	2.284	0.479
794.000	468.184	80.002	20.009	100.524	20.066	2.238	0.521
794.500	468.459	80.002	20.009	100.511	20.067	2.132	0.540
795.000	468.688	80.003	20.009	100.508	20.064	2.424	0.517
795.500	468.921	80.000	20.008	100.511	20.063	2.505	0.483
796.000	469.120	80.002	20.009	100.518	20.067	2.084	0.448
796.500	469.415	80.002	20.009	100.526	20.065	2.308	0.463
797.000	469.612	80.003	20.010	100.525	20.067	2.149	0.493
797.500	469.861	80.002	20.009	100.517	20.065	2.367	0.470
798.000	470.088	80.001	20.009	100.511	20.064	2.387	0.461
798.500	470.314	80.003	20.010	100.512	20.063	2.513	0.464
799.000	470.599	80.002	20.009	100.513	20.065	2.363	0.482
799.500	470.864	80.002	20.009	100.526	20.064	2.446	0.531
800.000	471.039	80.002	20.009	100.534	20.064	2.431	0.495
800.500	471.290	80.003	20.009	100.534	20.063	2.524	0.433
801.000	471.504	80.003	20.010	100.526	20.064	2.441	0.445
801.500	471.827	80.003	20.008	100.520	20.064	2.435	0.501
802.000	472.048	80.001	20.009	100.510	20.062	2.637	0.541
802.500	472.281	80.003	20.009	100.508	20.064	2.452	0.499
803.000	472.489	80.002	20.009	100.514	20.063	2.564	0.447
803.500	472.781	80.002	20.010	100.522	20.065	2.359	0.470
804.000	472.989	80.002	20.009	100.527	20.061	2.757	0.500
804.500	473.192	80.002	20.009	100.529	20.064	2.470	0.455
805.000	473.469	80.003	20.009	100.522	20.063	2.518	0.445
805.500	473.672	80.003	20.009	100.507	20.063	2.494	0.480
806.000	473.938	80.001	20.010	100.496	20.062	2.668	0.474
806.500	474.189	80.002	20.010	100.490	20.064	2.438	0.493
807.000	474.375	80.003	20.009	100.493	20.063	2.527	0.477
807.500	474.689	80.002	20.009	100.504	20.063	2.481	0.469
808.000	474.919	80.002	20.009	100.519	20.064	2.441	0.522
808.500	475.135	80.002	20.010	100.523	20.067	2.136	0.495
809.000	475.390	80.003	20.010	100.518	20.065	2.350	0.459
809.500	475.666	80.002	20.009	100.506	20.066	2.211	0.501
810.000	475.922	80.002	20.009	100.495	20.067	2.123	0.532
810.500	476.172	80.003	20.009	100.495	20.064	2.440	0.519
811.000	476.418	80.002	20.010	100.502	20.066	2.213	0.501
811.500	476.652	80.002	20.009	100.513	20.065	2.359	0.488
812.000	476.906	80.002	20.009	100.526	20.065	2.337	0.484
812.500	477.173	80.003	20.009	100.527	20.068	2.001	0.505
813.000	477.484	80.002	20.010	100.516	20.067	2.121	0.549
813.500	477.627	80.002	20.009	100.507	20.068	2.039	0.516
814.000	477.890	80.003	20.010	100.500	20.069	1.869	0.430
814.500	478.113	80.002	20.009	100.499	20.068	2.052	0.446
815.000	478.385	80.002	20.010	100.505	20.067	2.117	0.490
815.500	478.634	80.003	20.010	100.512	20.066	2.259	0.508
816.000	478.871	80.002	20.010	100.513	20.068	1.986	0.504
816.500	479.098	80.002	20.009	100.513	20.066	2.243	0.475
817.000	479.340	80.002	20.010	100.507	20.068	2.058	0.466
817.500	479.591	80.002	20.009	100.502	20.066	2.191	0.481
818.000	479.911	80.002	20.009	100.506	20.069	1.947	0.532
818.500	480.111	80.002	20.009	100.517	20.065	2.320	0.546
819.000	480.384	80.003	20.009	100.524	20.065	2.355	0.497
819.500	480.600	80.003	20.009	100.532	20.064	2.391	0.481
820.001	480.842	80.002	20.009	100.532	20.065	2.267	0.473
820.500	481.116	80.002	20.009	100.524	20.065	2.354	0.487
821.000	481.348	80.002	20.010	100.513	20.064	2.431	0.511
821.500	481.595	80.002	20.010	100.511	20.065	2.280	0.492
822.000	481.863	80.002	20.009	100.513	20.067	2.160	0.497
822.500	482.101	80.003	20.009	100.518	20.064	2.472	0.511
823.000	482.330	80.002	20.009	100.525	20.066	2.212	0.487
823.500	482.588	80.002	20.009	100.527	20.066	2.199	0.477
824.000	482.856	80.003	20.009	100.522	20.066	2.230	0.507
824.500	483.135	80.003	20.009	100.511	20.066	2.215	0.536
825.000	483.349	80.003	20.009	100.506	20.066	2.198	0.519
825.500	483.624	80.002	20.010	100.507	20.067	2.139	0.491
826.000	483.907	80.002	20.010	100.519	20.066	2.213	0.524
826.500	484.113	80.003	20.009	100.529	20.067	2.150	0.524
827.000	484.400	80.002	20.009	100.539	20.064	2.389	0.491
827.501	484.648	80.002	20.010	100.538	20.066	2.180	0.513
828.000	484.882	80.003	20.010	100.534	20.066	2.174	0.508
828.500	485.176	80.002	20.010	100.528	20.065	2.346	0.505
829.000	485.366	80.003	20.010	100.525	20.066	2.209	0.506
829.500	485.655	80.002	20.010	100.528	20.066	2.220	0.482
830.000	485.924	80.002	20.009	100.540	20.067	2.139	0.519
830.500	486.139	80.002	20.009	100.545	20.067	2.084	0.521
831.000	486.354	80.002	20.010	100.543	20.067	2.090	0.457
831.500	486.621	80.001	20.010	100.534	20.067	2.077	0.456
832.000	486.859	80.002	20.009	100.524	20.068	2.056	0.493
832.500	487.125	80.002	20.009	100.509	20.067	2.139	0.505
833.000	487.321	80.002	20.009	100.507	20.065	2.357	0.483
833.501	487.620	80.003	20.009	100.509	20.062	2.614	0.478
834.001	487.865	80.002	20.010	100.517	20.065	2.278	0.519
834.500	488.082	80.002	20.010	100.522	20.064	2.407	0.503
835.000	488.337	80.002	20.009	100.522	20.064	2.380	0.468
835.500	488.565	80.001	20.009	100.513	20.066	2.230	0.478
836.000	488.819	80.002	20.009	100.503	20.066	2.228	0.482
836.500	489.047	80.002	20.010	100.498	20.065	2.272	0.482
837.000	489.275	80.003	20.009	100.501	20.065	2.320	0.469
837.500	489.560	80.002	20.008	100.512	20.067	2.145	0.484
838.000	489.798	80.002	20.008	100.521	20.065	2.322	0.518
838.500	490.064	80.003	20.009	100.530	20.067	2.154	0.514
839.000	490.261	80.002	20.009	100.529	20.066	2.263	0.484
839.500	490.521	80.002	20.009	100.522	20.066	2.245	0.460
840.000	490.760	80.004	20.009	100.517	20.066	2.189	0.478
840.500	491.034	80.003	20.010	100.517	20.065	2.300	0.506
841.000	491.260	80.002	20.009	100.522	20.064	2.424	0.506
841.500	491.511	80.003	20.009	100.536	20.066	2.193	0.488
842.000	491.788	80.002	20.009	100.543	20.065	2.293	0.503
842.500	491.996	80.002	20.009	100.537	20.066	2.249	0.507
843.000	492.246	80.002	20.009	100.530	20.067	2.073	0.471
843.500	492.524	80.005	20.009	100.518	20.067	2.119	0.492
844.000	492.727	80.002	20.009	100.505	20.067	2.158	0.504
844.501	492.996	80.002	20.009	100.503	20.067	2.112	0.477
845.000	493.214	80.002	20.009	100.512	20.066	2.175	0.480
845.500	493.483	80.002	20.009	100.527	20.066	2.175	0.486
846.000	493.718	80.002	20.009	100.535	20.066	2.223	0.495
846.500	494.007	80.002	20.009	100.535	20.066	2.223	0.514
847.000	494.227	80.003	20.009	100.528	20.064	2.400	0.516
847.500	494.512	80.001	20.010	100.522	20.068	1.979	0.507
848.000	494.738	80.003	20.009	100.514	20.066	2.245	0.508
848.500	494.978	80.002	20.009	100.519	20.063	2.501	0.489
849.000	495.211	80.002	20.009	100.526	20.065	2.280	0.469
849.500	495.468	80.003	20.009	100.534	20.067	2.130	0.481
850.000	495.730	80.003	20.009	100.536	20.064	2.420	0.504
850.500	495.989	80.002	20.009	100.529	20.063	2.552	0.520
851.000	496.202	80.001	20.009	100.516	20.064	2.437	0.497
851.500	496.488	80.002	20.009	100.510	20.062	2.618	0.486
852.001	496.738	80.003	20.009	100.509	20.063	2.487	0.518
852.501	497.029	80.002	20.009	100.511	20.063	2.474	0.538
853.000	497.200	80.004	20.008	100.517	20.062	2.598	0.502
853.500	497.477	80.003	20.008	100.521	20.065	2.361	0.456
854.000	497.743	80.005	20.009	100.519	20.063	2.561	0.496
854.500	498.001	80.001	20.009	100.510	20.064	2.408	0.533
855.000	498.251	80.003	20.009	100.502	20.065	2.295	0.516
855.500	498.467	80.003	20.010	100.494	20.064	2.433	0.487
856.000	498.733	80.003	20.009	100.492	20.064	2.413	0.474
856.500	499.000	80.002	20.009	100.499	20.065	2.363	0.507
857.000	499.255	80.003	20.009	100.507	20.065	2.369	0.527
857.500	499.507	80.002	20.009	100.512	20.064	2.446	0.515
858.000	499.768	80.003	20.009	100.512	20.062	2.651	0.511
858.500	500.006	80.002	20.010	100.507	20.060	2.836	0.506
859.000	500.348	80.002	20.009	100.500	20.060	2.838	0.540
859.500	500.566	80.003	20.010	100.494	20.061	2.723	0.570
860.000	500.808	80.003	20.010	100.496	20.060	2.864	0.510
860.500	501.045	80.002	20.009	100.509	20.061	2.699	0.469
861.000	501.312	80.003	20.009	100.522	20.063	2.518	0.491
861.500	501.553	80.003	20.010	100.526	20.062	2.611	0.506
862.000	501.753	80.002	20.010	100.524	20.062	2.599	0.475
862.500	502.041	80.003	20.009	100.518	20.061	2.773	0.464
863.000	502.261	80.002	20.010	100.507	20.062	2.664	0.497
863.500	502.552	80.002	20.009	100.500	20.062	2.610	0.509
864.000	502.808	80.002	20.009	100.504	20.061	2.696	0.529
864.500	503.001	80.002	20.010	100.512	20.060	2.816	0.498
865.000	503.292	80.002	20.009	100.514	20.062	2.631	0.467
865.500	503.473	80.001	20.009	100.514	20.063	2.493	0.478
866.000	503.755	80.002	20.009	100.510	20.061	2.681	0.467
866.500	503.961	80.002	20.008	100.503	20.060	2.830	0.475
867.000	504.229	80.002	20.009	100.498	20.062	2.586	0.481
867.500	504.463	80.001	20.010	100.501	20.064	2.450	0.488
868.000	504.717	80.002	20.009	100.508	20.066	2.217	0.495
868.500	504.974	80.003	20.010	100.512	20.068	2.018	0.500
869.000	505.233	80.002	20.010	100.512	20.067	2.123	0.514
869.500	505.465	80.002	20.010	100.510	20.066	2.186	0.503
870.000	505.728	80.002	20.009	100.505	20.067	2.080	0.493
870.500	505.966	80.001	20.009	100.500	20.067	2.147	0.498
871.000	506.221	80.001	20.009	100.505	20.066	2.193	0.497
871.500	506.479	80.003	20.009	100.512	20.067	2.125	0.503
872.000	506.729	80.002	20.010	100.519	20.065	2.304	0.510
872.500	506.931	80.001	20.009	100.519	20.066	2.191	0.481
873.000	507.153	80.002	20.010	100.516	20.065	2.293	0.438
873.500	507.471	80.003	20.010	100.509	20.066	2.171	0.482
874.000	507.660	80.002	20.009	100.503	20.068	2.016	0.523
874.500	507.903	80.002	20.010	100.506	20.066	2.237	0.469
875.000	508.171	80.002	20.009	100.516	20.066	2.224	0.471
875.500	508.431	80.002	20.009	100.525	20.065	2.287	0.520
876.000	508.639	80.002	20.008	100.529	20.066	2.180	0.498
876.500	508.907	80.003	20.009	100.523	20.072	1.630	0.472
877.000	509.210	80.002	20.009	100.507	20.068	2.036	0.524
877.500	509.463	80.002	20.009	100.496	20.066	2.213	0.563
878.000	509.646	80.002	20.009	100.496	20.066	2.193	0.496
878.500	509.897	80.003	20.009	100.500	20.067	2.104	0.435
879.000	510.130	80.000	20.008	100.511	20.066	2.204	0.459
879.500	510.379	80.002	20.009	100.528	20.066	2.212	0.483
880.000	510.606	80.002	20.008	100.529	20.067	2.112	0.480
880.501	510.852	80.002	20.008	100.517	20.067	2.086	0.474
881.000	511.138	80.002	20.009	100.505	20.068	1.999	0.502
881.500	511.413	80.001	20.009	100.497	20.067	2.160	0.547
882.000	511.585	80.003	20.009	100.492	20.069	1.938	0.504
882.500	511.824	80.002	20.009	100.498	20.068	2.049	0.429
883.000	512.126	80.001	20.009	100.512	20.066	2.188	0.476
883.500	512.370	80.003	20.009	100.520	20.067	2.151	0.543
884.001	512.648	80.002	20.009	100.521	20.066	2.231	0.534
884.501	512.897	80.003	20.009	100.517	20.066	2.203	0.525
885.000	513.132	80.002	20.009	100.509	20.067	2.147	0.506
885.500	513.344	80.003	20.009	100.502	20.066	2.239	0.466
886.000	513.601	80.002	20.008	100.505	20.066	2.265	0.458
886.500	513.881	80.002	20.009	100.511	20.065	2.291	0.502
887.000	514.062	80.001	20.009	100.518	20.067	2.160	0.499
887.500	514.311	80.002	20.008	100.522	20.066	2.217	0.446
888.001	514.587	80.001	20.009	100.521	20.065	2.362	0.478
888.501	514.798	80.003	20.009	100.515	20.066	2.190	0.506
889.001	515.046	80.002	20.009	100.508	20.064	2.419	0.473
889.500	515.298	80.002	20.009	100.508	20.066	2.258	0.479
890.000	515.514	80.002	20.009	100.512	20.068	1.984	0.484
890.500	515.798	80.002	20.008	100.519	20.066	2.263	0.484
891.000	516.054	80.002	20.008	100.524	20.066	2.221	0.520
891.501	516.280	80.001	20.009	100.525	20.064	2.382	0.511
892.000	516.594	80.001	20.009	100.518	20.064	2.426	0.511
892.500	516.839	80.003	20.009	100.509	20.067	2.161	0.549
893.000	517.015	80.003	20.009	100.501	20.068	2.043	0.490
893.500	517.301	80.002	20.009	100.502	20.064	2.386	0.442
894.000	517.553	80.002	20.008	100.508	20.067	2.089	0.500
894.500	517.787	80.002	20.009	100.511	20.064	2.455	0.512
895.000	518.041	80.002	20.009	100.510	20.067	2.110	0.487
895.500	518.259	80.001	20.009	100.504	20.065	2.339	0.480
896.000	518.520	80.003	20.009	100.488	20.065	2.269	0.475
896.500	518.765	80.002	20.009	100.476	20.064	2.453	0.492
897.000	519.052	80.004	20.009	100.474	20.067	2.145	0.519
897.500	519.243	80.002	20.009	100.484	20.068	2.052	0.505
898.000	519.526	80.001	20.009	100.500	20.067	2.102	0.476
898.500	519.777	80.003	20.008	100.516	20.066	2.248	0.504
899.000	519.990	80.001	20.009	100.525	20.064	2.385	0.499
899.500	520.210	80.003	20.008	100.520	20.063	2.487	0.449
900.000	520.472	80.001	20.009	100.505	20.064	2.382	0.457
900.500	520.702	80.003	20.009	100.493	20.063	2.527	0.487
901.000	520.931	80.002	20.008	100.486	20.067	2.091	0.476
901.500	521.209	80.001	20.008	100.491	20.064	2.459	0.483
902.000	521.447	80.002	20.008	100.499	20.067	2.143	0.512
902.500	521.663	80.001	20.008	100.510	20.063	2.546	0.485
903.000	521.908	80.004	20.008	100.513	20.066	2.184	0.457
903.500	522.159	80.001	20.009	100.510	20.064	2.437	0.478
904.000	522.403	80.002	20.009	100.502	20.063	2.539	0.495
904.500	522.646	80.000	20.009	100.503	20.067	2.089	0.491
905.000	522.858	80.003	20.008	100.512	20.066	2.198	0.472
905.500	523.154	80.001	20.008	100.528	20.061	2.712	0.482
906.000	523.392	80.001	20.008	100.541	20.063	2.533	0.521
906.500	523.644	80.002	20.008	100.548	20.066	2.239	0.512
907.000	523.896	80.002	20.008	100.544	20.066	2.260	0.497
907.500	524.117	80.001	20.009	100.531	20.064	2.404	0.489
908.000	524.351	80.002	20.009	100.517	20.062	2.596	0.464
908.500	524.593	80.002	20.009	100.513	20.062	2.596	0.465
909.000	524.919	80.002	20.008	100.516	20.065	2.344	0.522
909.500	525.077	80.000	20.009	100.527	20.064	2.472	0.527
910.000	525.363	80.002	20.008	100.535	20.066	2.265	0.464
910.500	525.569	80.002	20.008	100.538	20.066	2.204	0.468
911.000	525.860	80.002	20.009	100.530	20.064	2.444	0.495
911.500	526.069	80.002	20.009	100.518	20.064	2.424	0.498
912.000	526.311	80.002	20.009	100.504	20.062	2.603	0.475
912.500	526.539	80.002	20.009	100.502	20.064	2.472	0.461
913.000	526.826	80.001	20.009	100.506	20.066	2.265	0.493
913.500	527.082	80.001	20.008	100.514	20.067	2.160	0.529
914.000	527.338	80.003	20.008	100.519	20.066	2.217	0.528
914.500	527.499	80.001	20.009	100.520	20.065	2.280	0.465
915.000	527.783	80.002	20.009	100.513	20.067	2.153	0.431
915.500	528.007	80.003	20.009	100.505	20.064	2.439	0.477
916.000	528.262	80.001	20.009	100.498	20.064	2.459	0.493
916.500	528.497	80.003	20.009	100.501	20.063	2.538	0.484
917.000	528.799	80.001	20.008	100.510	20.065	2.346	0.513
917.500	529.014	80.001	20.009	100.523	20.064	2.439	0.527
918.000	529.315	80.001	20.008	100.532	20.064	2.463	0.517
918.500	529.459	80.003	20.009	100.532	20.061	2.733	0.481
919.001	529.774	80.001	20.009	100.524	20.062	2.670	0.452
919.501	529.971	80.001	20.009	100.516	20.063	2.548	0.486
920.000	530.254	80.003	20.009	100.505	20.061	2.754	0.496
920.500	530.489	80.001	20.009	100.505	20.063	2.494	0.498
921.000	530.751	80.001	20.009	100.513	20.064	2.418	0.507
921.500	530.958	80.001	20.008	100.521	20.064	2.468	0.484
922.000	531.229	80.003	20.008	100.530	20.061	2.707	0.474
922.500	531.491	80.002	20.009	100.530	20.062	2.640	0.505
923.000	531.719	80.002	20.009	100.521	20.060	2.825	0.511
923.500	531.990	80.001	20.009	100.511	20.063	2.533	0.495
924.000	532.191	80.002	20.008	100.507	20.063	2.514	0.486
924.500	532.491	80.002	20.009	100.507	20.062	2.666	0.487
925.000	532.691	80.002	20.009	100.513	20.063	2.553	0.501
925.500	532.963	80.002	20.008	100.519	20.064	2.400	0.486
926.000	533.276	80.002	20.009	100.519	20.064	2.472	0.528
926.500	533.461	80.003	20.009	100.511	20.063	2.533	0.541
927.000	533.756	80.002	20.009	100.502	20.065	2.326	0.489
927.501	533.976	80.001	20.009	100.495	20.062	2.614	0.498
928.000	534.249	80.002	20.009	100.497	20.064	2.379	0.504
928.500	534.539	80.002	20.008	100.505	20.066	2.193	0.528
929.000	534.760	80.002	20.009	100.517	20.067	2.071	0.537
929.500	535.027	80.002	20.009	100.527	20.067	2.080	0.500
930.000	535.286	80.001	20.009	100.528	20.068	2.008	0.507
930.500	535.543	80.001	20.009	100.519	20.067	2.067	0.520
931.000	535.818	80.003	20.009	100.510	20.069	1.890	0.524
931.500	536.043	80.001	20.009	100.508	20.068	2.028	0.516
932.000	536.266	80.002	20.008	100.510	20.067	2.080	0.474
932.500	536.488	80.002	20.008	100.517	20.069	1.855	0.446
933.000	536.776	80.000	20.009	100.526	20.068	2.001	0.477
933.500	537.027	80.002	20.009	100.531	20.073	1.528	0.525
934.000	537.203	80.002	20.009	100.524	20.067	2.066	0.483
934.500	537.455	80.002	20.009	100.516	20.067	2.097	0.427
935.000	537.739	80.003	20.009	100.509	20.069	1.921	0.482
935.500	537.998	80.001	20.009	100.510	20.068	2.004	0.539
936.000	538.229	80.002	20.008	100.514	20.070	1.816	0.517
936.500	538.519	80.003	20.009	100.522	20.067	2.143	0.506
937.000	538.734	80.000	20.009	100.526	20.067	2.140	0.513
937.500	538.972	80.001	20.009	100.530	20.066	2.249	0.479
938.000	539.214	80.003	20.009	100.529	20.067	2.149	0.467
938.500	539.468	80.003	20.009	100.528	20.070	1.801	0.488
939.000	539.715	80.002	20.009	100.528	20.066	2.219	0.498
939.500	539.965	80.001	20.009	100.530	20.069	1.942	0.499
940.000	540.235	80.001	20.008	100.531	20.068	2.014	0.509
940.500	540.505	80.001	20.009	100.528	20.068	2.005	0.530
941.000	540.738	80.001	20.009	100.525	20.067	2.068	0.521
941.500	541.036	80.002	20.009	100.521	20.066	2.260	0.516
942.000	541.240	80.003	20.009	100.521	20.066	2.261	0.516
942.500	541.513	80.001	20.009	100.523	20.068	2.043	0.490
943.000	541.767	80.002	20.009	100.529	20.066	2.208	0.502
943.500	542.032	80.002	20.010	100.534	20.063	2.498	0.523
944.000	542.255	80.002	20.009	100.537	20.063	2.502	0.504
944.501	542.551	80.001	20.009	100.530	20.065	2.299	0.504
945.000	542.778	80.002	20.009	100.515	20.062	2.576	0.521
945.500	543.017	80.001	20.009	100.501	20.064	2.465	0.494
946.000	543.307	80.002	20.009	100.492	20.064	2.461	0.497
946.500	543.561	80.002	20.009	100.488	20.062	2.673	0.536
947.000	543.835	80.002	20.009	100.496	20.063	2.568	0.536
947.500	544.048	80.003	20.009	100.509	20.064	2.463	0.508
948.000	544.302	80.001	20.009	100.521	20.064	2.424	0.477
948.500	544.527	80.002	20.008	100.522	20.062	2.602	0.473
949.000	544.861	80.002	20.009	100.518	20.063	2.507	0.519
949.500	545.145	80.001	20.009	100.510	20.063	2.559	0.589
950.000	545.328	80.001	20.009	100.505	20.060	2.821	0.543
950.500	545.576	80.002	20.009	100.503	20.063	2.546	0.449
951.001	545.816	80.002	20.009	100.511	20.063	2.548	0.459
951.501	546.029	80.002	20.009	100.515	20.063	2.509	0.470
952.000	546.319	80.002	20.009	100.515	20.063	2.524	0.478
952.500	546.540	80.002	20.009	100.510	20.061	2.696	0.508
953.000	546.822	80.002	20.009	100.504	20.060	2.842	0.507
953.500	547.050	80.002	20.009	100.498	20.061	2.690	0.506
954.000	547.285	80.001	20.009	100.501	20.060	2.858	0.486
954.500	547.511	80.002	20.009	100.508	20.059	2.915	0.462
955.000	547.819	80.002	20.008	100.516	20.061	2.712	0.497
955.500	548.034	80.002	20.009	100.518	20.062	2.607	0.528
956.000	548.319	80.002	20.009	100.515	20.062	2.624	0.512
956.500	548.539	80.003	20.009	100.505	20.064	2.446	0.503
957.000	548.804	80.003	20.009	100.496	20.063	2.570	0.496
957.500	549.075	80.001	20.009	100.495	20.063	2.485	0.510
958.000	549.285	80.001	20.008	100.500	20.061	2.740	0.508
958.500	549.535	80.003	20.008	100.508	20.061	2.729	0.471
959.000	549.759	80.002	20.008	100.516	20.062	2.620	0.467
959.500	550.010	80.002	20.009	100.518	20.060	2.872	0.474
960.000	550.241	80.003	20.009	100.512	20.062	2.583	0.479
960.500	550.531	80.002	20.009	100.504	20.062	2.627	0.502
961.000	550.753	80.001	20.009	100.496	20.059	2.910	0.516
961.500	551.012	80.002	20.008	100.495	20.061	2.729	0.496
962.000	551.273	80.002	20.008	100.504	20.061	2.736	0.500
962.500	551.469	80.001	20.008	100.511	20.060	2.873	0.488
963.000	551.743	80.002	20.008	100.519	20.060	2.879	0.463
963.500	552.006	80.003	20.009	100.520	20.060	2.800	0.504
964.000	552.269	80.002	20.009	100.511	20.064	2.469	0.532
964.500	552.472	80.001	20.009	100.503	20.061	2.692	0.496
965.000	552.728	80.003	20.009	100.500	20.061	2.749	0.462
965.500	552.977	80.002	20.008	100.501	20.061	2.749	0.482
966.000	553.201	80.002	20.008	100.508	20.059	2.926	0.489
966.500	553.453	80.002	20.008	100.520	20.062	2.577	0.475
967.000	553.703	80.002	20.009	100.527	20.061	2.716	0.489
967.500	553.947	80.003	20.008	100.523	20.062	2.653	0.498
968.000	554.228	80.003	20.009	100.515	20.062	2.594	0.509
968.500	554.465	80.002	20.008	100.507	20.063	2.516	0.522
969.000	554.727	80.001	20.009	100.507	20.064	2.433	0.509
969.500	554.926	80.002	20.008	100.511	20.060	2.869	0.480
970.000	555.196	80.002	20.009	100.520	20.062	2.638	0.465
970.500	555.440	80.002	20.008	100.522	20.064	2.417	0.492
971.000	555.700	80.002	20.009	100.522	20.063	2.571	0.509
971.500	555.945	80.003	20.009	100.511	20.065	2.347	0.504
972.000	556.225	80.003	20.008	100.500	20.064	2.402	0.515
972.500	556.488	80.001	20.009	100.490	20.064	2.402	0.534
973.000	556.726	80.002	20.009	100.495	20.064	2.407	0.522
973.500	556.960	80.002	20.009	100.504	20.063	2.522	0.486
974.000	557.214	80.002	20.008	100.515	20.062	2.576	0.480
974.500	557.460	80.002	20.009	100.522	20.065	2.284	0.494
975.000	557.707	80.003	20.009	100.519	20.065	2.284	0.497
975.500	557.926	80.002	20.010	100.505	20.065	2.299	0.479
976.000	558.120	80.001	20.009	100.489	20.064	2.441	0.439
976.500	558.396	80.002	20.009	100.482	20.065	2.274	0.441
977.001	558.638	80.000	20.008	100.481	20.066	2.206	0.494
977.500	558.896	80.003	20.008	100.491	20.067	2.073	0.509
978.000	559.157	80.001	20.008	100.506	20.065	2.368	0.510
978.500	559.344	80.001	20.009	100.518	20.065	2.348	0.484
979.000	559.571	80.002	20.008	100.518	20.063	2.483	0.431
979.500	559.835	80.002	20.009	100.512	20.065	2.363	0.453
980.000	560.105	80.002	20.009	100.505	20.067	2.163	0.513
980.500	560.355	80.003	20.008	100.504	20.065	2.272	0.527
981.000	560.560	80.002	20.009	100.509	20.064	2.392	0.487
981.500	560.799	80.002	20.009	100.517	20.064	2.466	0.449
982.000	561.059	80.002	20.009	100.522	20.061	2.699	0.471
982.500	561.317	80.001	20.009	100.521	20.065	2.354	0.509
983.000	561.525	80.001	20.009	100.508	20.064	2.413	0.492
983.500	561.848	80.002	20.009	100.490	20.065	2.354	0.498
984.000	562.037	80.001	20.009	100.479	20.065	2.344	0.522
984.500	562.279	80.001	20.009	100.479	20.063	2.544	0.472
985.000	562.526	80.003	20.009	100.487	20.064	2.425	0.460
985.500	562.766	80.001	20.008	100.501	20.065	2.296	0.488
986.000	563.003	80.001	20.009	100.509	20.066	2.250	0.482
986.500	563.264	80.002	20.009	100.511	20.065	2.352	0.487
987.000	563.547	80.002	20.009	100.500	20.065	2.328	0.520
987.500	563.744	80.002	20.008	100.490	20.063	2.507	0.512
988.000	563.950	80.002	20.009	100.483	20.065	2.363	0.442
988.500	564.182	80.001	20.008	100.489	20.066	2.176	0.421
989.000	564.464	80.001	20.009	100.502	20.064	2.379	0.476
989.500	564.662	80.002	20.009	100.516	20.065	2.313	0.497
990.000	564.913	80.002	20.009	100.527	20.064	2.391	0.464
990.500	565.167	80.002	20.009	100.528	20.069	1.955	0.477
991.000	565.393	80.002	20.009	100.523	20.067	2.149	0.492
991.500	565.663	80.002	20.009	100.521	20.067	2.075	0.488
992.000	565.903	80.001	20.008	100.521	20.067	2.066	0.503
992.500	566.097	80.002	20.009	100.522	20.067	2.154	0.472
993.001	566.401	80.003	20.008	100.535	20.067	2.080	0.466
993.501	566.605	80.000	20.009	100.548	20.066	2.208	0.503
994.001	566.853	80.002	20.009	100.549	20.067	2.149	0.480
994.500	567.074	80.003	20.009	100.542	20.066	2.208	0.461
995.000	567.363	80.002	20.008	100.533	20.071	1.722	0.489
995.500	567.578	80.001	20.009	100.519	20.069	1.936	0.507
996.000	567.845	80.002	20.009	100.512	20.068	2.045	0.493
996.500	568.090	80.001	20.009	100.511	20.069	1.914	0.497
997.000	568.344	80.002	20.009	100.521	20.069	1.941	0.505
997.500	568.539	80.002	20.009	100.530	20.068	1.973	0.474
998.000	568.746	80.001	20.009	100.536	20.069	1.903	0.426
998.500	569.049	80.001	20.008	100.529	20.070	1.814	0.456
999.000	569.281	80.002	20.009	100.520	20.069	1.861	0.522
999.500	569.527	80.002	20.009	100.508	20.067	2.127	0.506
1000.000	569.774	80.001	20.009	100.503	20.068	2.016	0.485
1000.500	570.032	80.001	20.008	100.504	20.068	2.056	0.499
1001.001	570.235	80.002	20.008	100.514	20.068	2.023	0.483
1001.501	570.526	80.001	20.008	100.523	20.067	2.160	0.478
1002.001	570.790	80.001	20.009	100.530	20.070	1.766	0.524
1002.500	571.001	80.003	20.009	100.527	20.071	1.741	0.515
1003.000	571.275	80.002	20.008	100.517	20.069	1.951	0.480
1003.500	571.486	80.002	20.009	100.504	20.069	1.916	0.485
1004.000	571.759	80.001	20.009	100.497	20.068	1.990	0.485
1004.500	571.998	80.000	20.008	100.494	20.065	2.319	0.498
1005.000	572.229	80.002	20.008	100.501	20.066	2.199	0.491
1005.500	572.495	80.001	20.008	100.511	20.066	2.240	0.483
1006.000	572.766	80.002	20.008	100.514	20.066	2.212	0.517
1006.500	573.022	80.001	20.009	100.512	20.066	2.210	0.532
1007.000	573.203	80.002	20.009	100.507	20.064	2.419	0.483
1007.500	573.502	80.002	20.009	100.500	20.064	2.428	0.459
1008.000	573.737	80.002	20.008	100.500	20.065	2.273	0.507
1008.500	573.988	80.001	20.009	100.509	20.064	2.405	0.510
1009.000	574.242	80.001	20.008	100.523	20.064	2.435	0.495
1009.500	574.449	80.002	20.009	100.533	20.064	2.385	0.483
1010.000	574.690	80.001	20.009	100.537	20.066	2.217	0.455
1010.500	574.955	80.003	20.009	100.532	20.066	2.256	0.477
1011.000	575.206	80.003	20.009	100.520	20.067	2.138	0.511
1011.500	575.494	80.002	20.009	100.506	20.065	2.317	0.528
1012.000	575.699	80.001	20.009	100.504	20.065	2.348	0.516
1012.500	576.000	80.001	20.008	100.509	20.065	2.293	0.500
1013.000	576.251	80.002	20.009	100.516	20.064	2.402	0.529
1013.500	576.456	80.002	20.009	100.525	20.067	2.117	0.504
1014.000	576.721	80.002	20.009	100.529	20.065	2.369	0.463
1014.500	576.981	80.001	20.009	100.521	20.068	2.051	0.498
1015.000	577.208	80.002	20.009	100.508	20.070	1.848	0.506
1015.500	577.447	80.002	20.010	100.499	20.067	2.069	0.477
1016.000	577.738	80.001	20.008	100.491	20.068	2.001	0.498
1016.500	577.942	80.001	20.009	100.490	20.068	2.060	0.512
1017.001	578.231	80.002	20.008	100.496	20.067	2.085	0.494
1017.500	578.418	80.002	20.008	100.501	20.067	2.126	0.485
1018.000	578.693	80.001	20.008	100.501	20.066	2.195	0.469
1018.500	578.969	80.002	20.008	100.493	20.066	2.217	0.506
1019.000	579.189	80.002	20.009	100.482	20.066	2.258	0.524
1019.500	579.427	80.003	20.008	100.473	20.067	2.162	0.478
1020.000	579.682	80.003	20.008	100.475	20.066	2.235	0.475
1020.500	579.891	80.002	20.008	100.484	20.066	2.213	0.478
1021.000	580.150	80.001	20.008	100.504	20.068	1.978	0.466
1021.500	580.347	80.002	20.008	100.520	20.066	2.169	0.462
1022.000	580.609	80.002	20.009	100.524	20.066	2.189	0.458
1022.500	580.849	80.001	20.008	100.520	20.066	2.210	0.480
1023.000	581.090	80.002	20.009	100.512	20.066	2.249	0.491
1023.500	581.325	80.001	20.009	100.501	20.066	2.199	0.478
1024.000	581.536	80.001	20.008	100.498	20.069	1.951	0.461
1024.500	581.781	80.002	20.008	100.504	20.067	2.158	0.451
1025.000	582.055	80.002	20.008	100.513	20.068	1.990	0.488
1025.500	582.315	80.002	20.008	100.521	20.068	2.019	0.526
1026.000	582.532	80.001	20.008	100.520	20.068	2.047	0.506
1026.500	582.772	80.002	20.008	100.515	20.068	2.060	0.467
1027.000	583.002	80.002	20.009	100.505	20.068	1.994	0.463
1027.500	583.253	80.002	20.009	100.494	20.065	2.319	0.475
1028.000	583.496	80.001	20.009	100.495	20.066	2.175	0.488
1028.500	583.771	80.001	20.008	100.510	20.067	2.064	0.506
1029.001	583.970	80.002	20.008	100.521	20.069	1.879	0.496
1029.500	584.252	80.002	20.008	100.532	20.066	2.189	0.478
1030.000	584.492	80.002	20.008	100.541	20.069	1.870	0.502
1030.500	584.773	80.003	20.008	100.533	20.066	2.173	0.522
1031.000	585.003	80.002	20.009	100.519	20.065	2.330	0.516
1031.501	585.255	80.002	20.008	100.510	20.066	2.201	0.496
1032.000	585.507	80.002	20.008	100.510	20.064	2.391	0.493
1032.500	585.742	80.002	20.009	100.511	20.065	2.286	0.495
1033.000	585.996	80.003	20.009	100.522	20.064	2.395	0.488
1033.500	586.208	80.002	20.009	100.531	20.064	2.376	0.478
1034.000	586.486	80.002	20.009	100.536	20.065	2.335	0.478
1034.500	586.770	80.002	20.009	100.531	20.065	2.361	0.525
1035.000	586.951	80.002	20.009	100.522	20.065	2.324	0.513
1035.500	587.230	80.002	20.010	100.508	20.065	2.310	0.462
1036.001	587.524	80.002	20.009	100.497	20.067	2.088	0.517
1036.500	587.725	80.002	20.009	100.489	20.066	2.195	0.534
1037.000	588.004	80.001	20.009	100.495	20.063	2.478	0.488
1037.500	588.273	80.002	20.009	100.505	20.066	2.199	0.514
1038.000	588.514	80.003	20.009	100.516	20.068	2.008	0.529
1038.500	588.734	80.001	20.009	100.520	20.066	2.193	0.485
1039.001	589.000	80.002	20.009	100.518	20.065	2.315	0.473
1039.500	589.279	80.002	20.009	100.507	20.066	2.197	0.515
1040.000	589.567	80.003	20.009	100.495	20.067	2.066	0.556
1040.500	589.780	80.001	20.009	100.483	20.066	2.206	0.534
1041.000	590.065	80.002	20.009	100.479	20.066	2.164	0.500
1041.500	590.310	80.002	20.009	100.488	20.063	2.552	0.514
1042.000	590.578	80.001	20.009	100.500	20.063	2.518	0.521
1042.500	590.807	80.001	20.009	100.511	20.065	2.282	0.505
1043.000	591.086	80.002	20.009	100.519	20.066	2.245	0.503
1043.500	591.304	80.002	20.009	100.519	20.067	2.145	0.503
1044.000	591.567	80.002	20.009	100.510	20.067	2.153	0.489
1044.500	591.829	80.001	20.009	100.496	20.065	2.269	0.503
1045.000	592.071	80.002	20.009	100.484	20.067	2.162	0.515
1045.500	592.364	80.002	20.009	100.482	20.065	2.365	0.519
1046.000	592.596	80.001	20.009	100.488	20.066	2.228	0.530
1046.500	592.868	80.002	20.008	100.497	20.064	2.400	0.515
1047.000	593.092	80.001	20.009	100.510	20.066	2.215	0.500
1047.500	593.302	80.002	20.009	100.514	20.067	2.083	0.465
1048.000	593.600	80.001	20.009	100.508	20.067	2.082	0.471
1048.500	593.817	80.001	20.010	100.498	20.067	2.117	0.512
1049.000	594.125	80.003	20.008	100.491	20.068	2.034	0.520
1049.500	594.330	80.001	20.009	100.492	20.067	2.103	0.519
1050.000	594.627	80.002	20.009	100.500	20.067	2.103	0.507
1050.501	594.898	80.002	20.009	100.512	20.066	2.262	0.535
1051.000	595.115	80.001	20.009	100.523	20.065	2.306	0.528
1051.500	595.418	80.002	20.008	100.529	20.066	2.173	0.504
1052.000	595.666	80.003	20.009	100.523	20.067	2.099	0.535
1052.500	595.939	80.001	20.008	100.516	20.065	2.287	0.536
1053.000	596.211	80.003	20.009	100.507	20.067	2.119	0.533
1053.500	596.468	80.002	20.008	100.500	20.066	2.227	0.537
1054.000	596.708	80.002	20.009	100.494	20.066	2.255	0.513
1054.500	596.999	80.002	20.008	100.497	20.066	2.234	0.514
1055.000	597.263	80.002	20.008	100.503	20.066	2.192	0.543
1055.500	597.505	80.002	20.009	100.509	20.067	2.160	0.531
1056.000	597.748	80.001	20.009	100.511	20.067	2.125	0.496
1056.500	598.014	80.002	20.009	100.509	20.068	2.042	0.497
1057.000	598.252	80.002	20.009	100.499	20.066	2.197	0.506
1057.500	598.544	80.003	20.009	100.487	20.066	2.199	0.517
1058.000	598.786	80.001	20.009	100.484	20.065	2.297	0.532
1058.500	599.041	80.002	20.009	100.491	20.068	1.983	0.516
1059.000	599.344	80.002	20.009	100.506	20.069	1.918	0.527
1059.500	599.567	80.001	20.009	100.529	20.065	2.289	0.542
1060.000	599.803	80.002	20.008	100.544	20.067	2.112	0.492
1060.500	600.099	80.002	20.010	100.549	20.068	1.991	0.495
1061.000	600.349	80.002	20.009	100.541	20.067	2.069	0.539
1061.500	600.611	80.002	20.009	100.528	20.065	2.320	0.529
1062.000	600.831	80.001	20.009	100.506	20.064	2.381	0.497
1062.500	601.081	80.002	20.009	100.489	20.065	2.363	0.476
1063.000	601.326	80.001	20.009	100.482	20.069	1.905	0.482
1063.500	601.640	80.002	20.010	100.482	20.066	2.260	0.527
1064.000	601.855	80.002	20.009	100.489	20.066	2.254	0.544
1064.500	602.121	80.002	20.009	100.502	20.064	2.393	0.505
1065.001	602.319	80.001	20.008	100.511	20.065	2.361	0.473
1065.500	602.607	80.002	20.009	100.512	20.065	2.350	0.475
1066.000	602.826	80.002	20.010	100.504	20.065	2.337	0.496
1066.500	603.132	80.002	20.010	100.490	20.067	2.097	0.516
1067.000	603.328	80.000	20.009	100.481	20.067	2.160	0.513
1067.500	603.620	80.002	20.009	100.478	20.066	2.256	0.495
1068.000	603.823	80.002	20.009	100.484	20.065	2.319	0.491
1068.500	604.094	80.002	20.009	100.494	20.064	2.413	0.484
1069.000	604.362	80.003	20.009	100.502	20.064	2.450	0.507
1069.500	604.599	80.001	20.009	100.504	20.064	2.372	0.522
1070.000	604.862	80.002	20.009	100.504	20.062	2.596	0.502
1070.500	605.122	80.001	20.008	100.497	20.062	2.674	0.512
1071.000	605.367	80.002	20.009	100.492	20.063	2.504	0.515
1071.500	605.634	80.003	20.009	100.487	20.062	2.576	0.509
1072.000	605.860	80.001	20.009	100.492	20.064	2.393	0.502
1072.500	606.135	80.001	20.008	100.507	20.066	2.254	0.497
1073.000	606.362	80.002	20.009	100.520	20.065	2.285	0.502
1073.500	606.647	80.002	20.009	100.529	20.066	2.215	0.507
1074.000	606.876	80.002	20.010	100.536	20.063	2.494	0.513
1074.501	607.157	80.003	20.009	100.535	20.066	2.169	0.512
1075.000	607.404	80.002	20.009	100.520	20.066	2.213	0.519
1075.500	607.614	80.003	20.009	100.507	20.063	2.485	0.492
1076.000	607.898	80.002	20.009	100.498	20.065	2.293	0.475
1076.500	608.128	80.002	20.009	100.500	20.065	2.365	0.504
1077.000	608.385	80.003	20.009	100.503	20.067	2.097	0.501
1077.500	608.638	80.001	20.009	100.512	20.065	2.333	0.499
1078.000	608.866	80.003	20.009	100.515	20.064	2.392	0.495
1078.500	609.082	80.002	20.009	100.514	20.066	2.239	0.462
1079.000	609.387	80.002	20.009	100.502	20.066	2.254	0.483
1079.500	609.591	80.002	20.009	100.493	20.064	2.424	0.515
1080.000	609.832	80.002	20.009	100.489	20.063	2.504	0.477
1080.500	610.081	80.002	20.009	100.493	20.064	2.456	0.467
1081.000	610.341	80.001	20.009	100.502	20.064	2.434	0.500
1081.500	610.616	80.001	20.009	100.517	20.062	2.609	0.522
1082.000	610.796	80.002	20.009	100.525	20.063	2.544	0.495
1082.500	611.041	80.002	20.010	100.519	20.063	2.500	0.440
1083.000	611.294	80.002	20.010	100.508	20.063	2.552	0.462
1083.500	611.543	80.002	20.009	100.500	20.063	2.544	0.500
1084.000	611.809	80.001	20.010	100.493	20.062	2.665	0.508
1084.500	612.060	80.002	20.009	100.488	20.062	2.674	0.516
1085.000	612.292	80.003	20.009	100.495	20.063	2.532	0.500
1085.500	612.526	80.002	20.009	100.507	20.063	2.477	0.475
1086.000	612.757	80.002	20.009	100.514	20.062	2.622	0.465
1086.500	613.001	80.003	20.009	100.522	20.066	2.260	0.470
1087.000	613.237	80.003	20.009	100.528	20.064	2.455	0.477
1087.500	613.462	80.002	20.009	100.529	20.065	2.359	0.471
1088.000	613.725	80.003	20.009	100.525	20.067	2.145	0.475
1088.500	614.042	80.003	20.009	100.519	20.064	2.385	0.534
1089.000	614.276	80.002	20.010	100.514	20.064	2.383	0.565
1089.500	614.563	80.004	20.009	100.515	20.063	2.515	0.535
1090.000	614.735	80.003	20.009	100.516	20.064	2.428	0.489
1090.500	615.022	80.001	20.010	100.520	20.061	2.764	0.459
1091.000	615.276	80.003	20.009	100.526	20.063	2.565	0.500
1091.500	615.556	80.003	20.009	100.531	20.063	2.505	0.538
1092.000	615.820	80.002	20.010	100.523	20.065	2.359	0.539
1092.500	616.050	80.002	20.010	100.513	20.062	2.678	0.519
1093.000	616.276	80.001	20.010	100.498	20.063	2.560	0.475
1093.500	616.579	80.003	20.009	100.487	20.063	2.483	0.492
1094.000	616.894	80.003	20.009	100.482	20.064	2.420	0.574
1094.500	617.115	80.002	20.009	100.489	20.064	2.469	0.577
1095.000	617.358	80.002	20.009	100.497	20.062	2.624	0.500
1095.500	617.567	80.002	20.009	100.505	20.061	2.742	0.458
1096.000	617.826	80.004	20.009	100.507	20.062	2.675	0.460
1096.500	618.075	80.002	20.009	100.500	20.061	2.703	0.488
1097.000	618.341	80.004	20.009	100.485	20.063	2.555	0.511
1097.500	618.565	80.001	20.009	100.470	20.064	2.442	0.502
1098.000	618.851	80.003	20.009	100.466	20.063	2.555	0.500
1098.500	619.021	80.001	20.009	100.471	20.060	2.814	0.484
1099.000	619.326	80.002	20.009	100.484	20.059	2.903	0.466
1099.500	619.551	80.002	20.009	100.500	20.062	2.596	0.502
1100.000	619.826	80.003	20.009	100.517	20.062	2.585	0.515
1100.500	620.058	80.002	20.009	100.528	20.061	2.764	0.503
1101.000	620.401	80.002	20.010	100.527	20.062	2.590	0.541
1101.500	620.597	80.003	20.010	100.518	20.063	2.512	0.557
1102.000	620.846	80.002	20.009	100.511	20.063	2.488	0.492
1102.500	621.125	80.002	20.009	100.503	20.062	2.656	0.486
1103.001	621.407	80.003	20.010	100.495	20.065	2.315	0.545
1103.500	621.616	80.003	20.010	100.494	20.061	2.707	0.526
1104.000	621.908	80.001	20.009	100.503	20.063	2.550	0.496
1104.500	622.164	80.004	20.009	100.519	20.063	2.572	0.524
1105.000	622.413	80.002	20.009	100.534	20.064	2.371	0.527
1105.500	622.610	80.003	20.009	100.544	20.065	2.286	0.476
1106.000	622.880	80.003	20.009	100.544	20.063	2.557	0.457
1106.500	623.105	80.003	20.010	100.528	20.065	2.285	0.481
1107.000	623.374	80.003	20.009	100.506	20.063	2.548	0.494
1107.501	623.642	80.002	20.010	100.489	20.063	2.496	0.515
1108.000	623.892	80.002	20.010	100.484	20.065	2.278	0.527
1108.500	624.120	80.003	20.009	100.491	20.066	2.210	0.498
1109.000	624.385	80.002	20.009	100.508	20.064	2.410	0.486
1109.500	624.628	80.004	20.010	100.523	20.065	2.338	0.501
1110.000	624.912	80.001	20.010	100.530	20.064	2.389	0.517
1110.500	625.122	80.003	20.010	100.527	20.064	2.372	0.511
1111.000	625.356	80.002	20.010	100.517	20.065	2.317	0.469
1111.500	625.606	80.003	20.010	100.505	20.066	2.235	0.464
1112.000	625.881	80.003	20.009	100.494	20.064	2.424	0.505
1112.500	626.151	80.002	20.010	100.488	20.064	2.396	0.535
1113.000	626.395	80.002	20.010	100.495	20.063	2.502	0.529
1113.500	626.659	80.003	20.010	100.506	20.063	2.504	0.510
1114.000	626.904	80.002	20.010	100.520	20.063	2.554	0.509
1114.500	627.135	80.002	20.009	100.532	20.064	2.382	0.493
1115.000	627.407	80.002	20.009	100.536	20.064	2.422	0.489
1115.500	627.669	80.003	20.010	100.529	20.064	2.394	0.518
1116.000	627.887	80.002	20.010	100.517	20.066	2.217	0.507
1116.500	628.189	80.003	20.010	100.501	20.066	2.244	0.500
1117.001	628.418	80.003	20.010	100.492	20.065	2.335	0.525
1117.500	628.649	80.002	20.010	100.487	20.064	2.431	0.496
1118.000	628.923	80.003	20.010	100.493	20.066	2.164	0.483
1118.500	629.180	80.002	20.009	100.503	20.065	2.347	0.518
1119.000	629.420	80.002	20.009	100.515	20.064	2.445	0.514
1119.500	629.629	80.001	20.009	100.516	20.066	2.171	0.473
1120.000	629.938	80.002	20.009	100.516	20.063	2.474	0.484
1120.500	630.155	80.003	20.009	100.509	20.066	2.245	0.522
1121.000	630.412	80.002	20.009	100.499	20.064	2.402	0.500
1121.500	630.683	80.003	20.009	100.486	20.067	2.112	0.501
1122.000	630.892	80.003	20.009	100.484	20.063	2.520	0.504
1122.500	631.130	80.002	20.009	100.486	20.066	2.203	0.464
1123.000	631.400	80.002	20.009	100.493	20.064	2.425	0.478
1123.500	631.655	80.002	20.009	100.504	20.062	2.648	0.516
1124.000	632.025	80.003	20.008	100.517	20.062	2.620	0.575
1124.500	632.188	80.003	20.009	100.524	20.062	2.655	0.579
1125.000	632.435	80.002	20.009	100.522	20.063	2.538	0.471
1125.500	632.670	80.002	20.009	100.516	20.063	2.485	0.446
1126.000	632.950	80.002	20.008	100.507	20.062	2.623	0.499
1126.500	633.164	80.003	20.009	100.500	20.060	2.801	0.504
1127.000	633.449	80.002	20.009	100.495	20.062	2.635	0.497
1127.500	633.661	80.001	20.009	100.502	20.062	2.583	0.499
1128.001	633.889	80.003	20.008	100.510	20.065	2.337	0.468
1128.501	634.131	80.002	20.009	100.519	20.063	2.476	0.455
1129.000	634.417	80.002	20.009	100.526	20.064	2.444	0.499
1129.500	634.617	80.003	20.009	100.532	20.062	2.584	0.507
1130.000	634.855	80.000	20.009	100.526	20.065	2.337	0.461
1130.500	635.177	80.003	20.009	100.516	20.065	2.355	0.499
1131.001	635.404	80.002	20.009	100.506	20.063	2.548	0.555
1131.501	635.633	80.002	20.009	100.497	20.063	2.550	0.502
1132.000	635.894	80.002	20.009	100.491	20.062	2.581	0.473
1132.500	636.169	80.001	20.009	100.496	20.063	2.559	0.513
1133.000	636.380	80.003	20.009	100.506	20.062	2.638	0.511
1133.500	636.612	80.001	20.010	100.516	20.063	2.564	0.465
1134.000	636.906	80.003	20.009	100.520	20.062	2.586	0.485
1134.501	637.151	80.001	20.011	100.517	20.062	2.599	0.533
1135.000	637.369	80.003	20.009	100.503	20.063	2.508	0.501
1135.500	637.676	80.002	20.009	100.489	20.063	2.551	0.494
1136.000	637.867	80.002	20.009	100.480	20.063	2.561	0.512
1136.500	638.135	80.002	20.008	100.479	20.063	2.559	0.479
1137.000	638.416	80.002	20.009	100.490	20.063	2.498	0.504
1137.500	638.689	80.001	20.009	100.505	20.064	2.450	0.551
1138.000	638.949	80.002	20.009	100.518	20.064	2.435	0.543
1138.500	639.195	80.002	20.010	100.526	20.063	2.485	0.520
1139.000	639.384	80.002	20.009	100.523	20.062	2.664	0.471
1139.500	639.665	80.003	20.009	100.516	20.061	2.692	0.453
1140.000	639.915	80.001	20.009	100.508	20.064	2.446	0.500
1140.500	640.117	80.001	20.009	100.502	20.062	2.670	0.491
1141.000	640.395	80.003	20.009	100.502	20.063	2.504	0.466
1141.500	640.651	80.003	20.009	100.511	20.063	2.559	0.507
1142.000	640.915	80.001	20.008	100.520	20.062	2.664	0.528
1142.500	641.128	80.002	20.009	100.528	20.062	2.657	0.499
1143.000	641.421	80.001	20.008	100.533	20.062	2.649	0.491
1143.500	641.690	80.002	20.010	100.529	20.059	2.989	0.534
1144.000	641.943	80.001	20.009	100.519	20.061	2.719	0.542
1144.500	642.180	80.003	20.009	100.508	20.062	2.634	0.506
1145.000	642.424	80.002	20.010	100.500	20.061	2.734	0.486
1145.500	642.668	80.001	20.009	100.500	20.063	2.555	0.484
1146.000	642.912	80.002	20.009	100.509	20.063	2.568	0.488
1146.500	643.154	80.003	20.009	100.524	20.060	2.853	0.487
1147.000	643.414	80.000	20.010	100.536	20.060	2.845	0.494
1147.500	643.653	80.002	20.010	100.543	20.060	2.788	0.500
1148.000	643.925	80.002	20.009	100.539	20.062	2.653	0.505
1148.501	644.151	80.003	20.009	100.528	20.061	2.716	0.505
1149.000	644.425	80.001	20.009	100.506	20.061	2.746	0.499
1149.500	644.685	80.002	20.010	100.495	20.059	2.937	0.517
1150.000	644.890	80.002	20.009	100.492	20.059	2.942	0.499
1150.500	645.173	80.003	20.009	100.496	20.060	2.848	0.477
1151.000	645.395	80.003	20.009	100.506	20.060	2.792	0.496
1151.500	645.654	80.001	20.009	100.522	20.061	2.714	0.493
1152.000	645.918	80.002	20.009	100.531	20.061	2.767	0.502
1152.500	646.169	80.003	20.009	100.525	20.062	2.669	0.519
1153.000	646.453	80.000	20.009	100.515	20.060	2.823	0.525
1153.500	646.678	80.002	20.009	100.505	20.061	2.782	0.522
1154.000	646.927	80.002	20.010	100.495	20.059	2.945	0.492
1154.500	647.193	80.002	20.009	100.491	20.059	2.931	0.494
1155.000	647.394	80.001	20.009	100.501	20.060	2.855	0.491
1155.500	647.700	80.003	20.010	100.515	20.062	2.630	0.487
1156.000	647.954	80.002	20.009	100.526	20.063	2.487	0.533
1156.500	648.133	80.001	20.010	100.534	20.063	2.555	0.497
1157.000	648.399	80.003	20.010	100.539	20.063	2.483	0.439
1157.500	648.654	80.001	20.009	100.532	20.063	2.524	0.483
1158.000	648.935	80.003	20.010	100.520	20.062	2.620	0.529
1158.500	649.116	80.001	20.009	100.509	20.062	2.613	0.499
1159.000	649.409	80.001	20.010	100.502	20.063	2.534	0.468
1159.500	649.641	80.002	20.009	100.502	20.062	2.587	0.500
1160.000	649.921	80.002	20.009	100.508	20.064	2.469	0.518
1160.500	650.131	80.002	20.009	100.513	20.062	2.588	0.500
1161.000	650.439	80.002	20.010	100.513	20.060	2.793	0.504
1161.500	650.644	80.002	20.009	100.508	20.063	2.546	0.516
1162.000	650.849	80.003	20.009	100.493	20.063	2.522	0.462
1162.500	651.111	80.002	20.009	100.479	20.063	2.550	0.439
1163.000	651.366	80.002	20.009	100.474	20.065	2.352	0.492
1163.500	651.602	80.001	20.010	100.479	20.063	2.552	0.504
1164.001	651.861	80.002	20.009	100.491	20.063	2.546	0.493
1164.500	652.135	80.002	20.009	100.507	20.060	2.843	0.514
1165.000	652.346	80.002	20.010	100.522	20.063	2.514	0.509
1165.500	652.576	80.001	20.009	100.531	20.064	2.457	0.463
1166.001	652.806	80.002	20.009	100.527	20.064	2.372	0.450
1166.501	653.053	80.003	20.009	100.517	20.063	2.494	0.469
1167.000	653.344	80.002	20.009	100.504	20.063	2.557	0.507
1167.500	653.565	80.003	20.009	100.491	20.063	2.571	0.524
1168.000	653.825	80.002	20.009	100.482	20.061	2.685	0.497
1168.500	654.073	80.003	20.008	100.484	20.064	2.410	0.495
1169.000	654.317	80.002	20.010	100.492	20.062	2.596	0.500
1169.500	654.543	80.002	20.008	100.501	20.060	2.838	0.481
1170.000	654.781	80.002	20.008	100.508	20.062	2.673	0.467
1170.500	655.031	80.003	20.009	100.502	20.063	2.551	0.476
1171.000	655.286	80.003	20.009	100.491	20.066	2.217	0.497
1171.500	655.549	80.003	20.009	100.478	20.063	2.504	0.512
1172.000	655.832	80.002	20.008	100.476	20.064	2.441	0.532
1172.500	656.039	80.002	20.008	100.483	20.065	2.275	0.518
1173.000	656.263	80.002	20.008	100.497	20.062	2.618	0.461
1173.500	656.552	80.003	20.009	100.513	20.065	2.357	0.472
1174.000	656.788	80.002	20.009	100.525	20.061	2.723	0.519
1174.500	657.067	80.002	20.009	100.523	20.064	2.439	0.520
1175.001	657.186	80.003	20.009	100.515	20.064	2.393	0.457
1175.500	657.512	80.001	20.009	100.507	20.064	2.417	0.422
1176.000	657.751	80.004	20.009	100.499	20.062	2.628	0.505
1176.500	657.990	80.001	20.009	100.497	20.063	2.560	0.521
1177.000	658.242	80.002	20.008	100.504	20.062	2.663	0.484
1177.500	658.509	80.001	20.009	100.512	20.060	2.790	0.505
1178.000	658.745	80.001	20.009	100.521	20.060	2.825	0.511
1178.500	658.960	80.002	20.009	100.527	20.057	3.187	0.477
1179.000	659.208	80.002	20.009	100.524	20.058	3.026	0.457
1179.500	659.449	80.002	20.009	100.509	20.057	3.119	0.476
1180.000	659.730	80.003	20.009	100.493	20.058	3.034	0.505
1180.500	659.961	80.002	20.009	100.479	20.061	2.781	0.518
1181.000	660.204	80.002	20.008	100.475	20.061	2.779	0.493
1181.500	660.463	80.002	20.008	100.486	20.057	3.184	0.488
1182.000	660.714	80.002	20.009	100.502	20.058	3.080	0.506
1182.500	660.952	80.002	20.009	100.517	20.058	2.993	0.499
1183.000	661.188	80.002	20.009	100.527	20.059	2.890	0.481
1183.500	661.410	80.002	20.009	100.521	20.058	3.075	0.466
1184.000	661.670	80.002	20.009	100.504	20.060	2.829	0.470
1184.500	661.919	80.003	20.009	100.490	20.059	2.909	0.495
1185.000	662.165	80.002	20.009	100.484	20.056	3.254	0.502
1185.500	662.407	80.002	20.009	100.488	20.056	3.241	0.491
1186.000	662.643	80.002	20.009	100.499	20.054	3.403	0.483
1186.500	662.913	80.002	20.008	100.515	20.058	2.998	0.492
1187.000	663.222	80.002	20.008	100.523	20.057	3.122	0.543
1187.500	663.422	80.003	20.009	100.519	20.060	2.853	0.544
1188.000	663.650	80.003	20.009	100.503	20.061	2.779	0.469
1188.500	663.928	80.002	20.009	100.486	20.057	3.094	0.467
1189.000	664.155	80.002	20.009	100.476	20.063	2.567	0.505
1189.500	664.391	80.001	20.009	100.477	20.061	2.755	0.484
1190.000	664.663	80.002	20.009	100.488	20.063	2.572	0.486
1190.500	664.904	80.003	20.008	100.503	20.061	2.749	0.510
1191.000	665.172	80.002	20.008	100.513	20.062	2.583	0.511
1191.500	665.412	80.001	20.009	100.515	20.065	2.335	0.509
1192.000	665.633	80.002	20.009	100.510	20.062	2.651	0.485
1192.500	665.858	80.002	20.009	100.496	20.063	2.574	0.453
1193.000	666.099	80.003	20.009	100.489	20.064	2.389	0.456
1193.500	666.327	80.002	20.009	100.485	20.064	2.373	0.468
1194.000	666.610	80.002	20.008	100.492	20.062	2.633	0.490
1194.500	666.858	80.002	20.008	100.500	20.062	2.607	0.521
1195.000	667.137	80.001	20.008	100.512	20.062	2.605	0.529
1195.501	667.356	80.002	20.009	100.510	20.062	2.607	0.512
1196.000	667.631	80.001	20.009	100.506	20.064	2.461	0.496
1196.500	667.879	80.002	20.008	100.494	20.063	2.542	0.509
1197.000	668.144	80.002	20.009	100.481	20.061	2.711	0.518
1197.500	668.377	80.002	20.009	100.478	20.061	2.681	0.505
1198.000	668.662	80.002	20.009	100.487	20.060	2.868	0.508
1198.500	668.872	80.002	20.008	100.504	20.060	2.831	0.507
1199.000	669.121	80.002	20.009	100.517	20.063	2.539	0.477
1199.500	669.391	80.002	20.008	100.525	20.060	2.827	0.489
1200.000	669.690	80.002	20.009	100.520	20.060	2.823	0.544
1200.500	669.915	80.002	20.009	100.507	20.062	2.601	0.547
1201.000	670.151	80.002	20.009	100.491	20.063	2.535	0.492
1201.500	670.398	80.002	20.009	100.482	20.061	2.749	0.471
1202.000	670.650	80.001	20.009	100.482	20.060	2.879	0.491
1202.500	670.944	80.002	20.009	100.490	20.060	2.881	0.523
1203.000	671.180	80.002	20.008	100.501	20.062	2.672	0.539
1203.500	671.449	80.001	20.008	100.513	20.061	2.712	0.517
1204.000	671.687	80.002	20.009	100.517	20.059	2.912	0.505
1204.500	671.963	80.001	20.009	100.515	20.061	2.688	0.510
1205.000	672.214	80.003	20.009	100.509	20.061	2.773	0.521
1205.500	672.446	80.002	20.009	100.503	20.061	2.769	0.505
1206.000	672.723	80.002	20.009	100.490	20.059	2.980	0.496
1206.500	672.964	80.002	20.009	100.487	20.059	2.909	0.513
1207.000	673.242	80.003	20.009	100.486	20.060	2.813	0.519
1207.500	673.484	80.002	20.009	100.494	20.058	3.009	0.520
1208.000	673.713	80.003	20.009	100.502	20.058	3.040	0.496
1208.500	673.976	80.001	20.008	100.507	20.058	3.054	0.481
1209.000	674.236	80.003	20.008	100.507	20.058	3.067	0.507
1209.500	674.491	80.002	20.009	100.507	20.060	2.783	0.519
1210.000	674.702	80.003	20.009	100.498	20.062	2.655	0.490
1210.500	674.999	80.003	20.009	100.485	20.061	2.711	0.487
1211.000	675.262	80.002	20.009	100.487	20.060	2.822	0.535
1211.500	675.523	80.002	20.009	100.495	20.060	2.879	0.542
1212.000	675.738	80.003	20.009	100.510	20.060	2.844	0.500
1212.500	676.000	80.002	20.009	100.519	20.061	2.748	0.476
1213.000	676.279	80.001	20.009	100.532	20.059	2.980	0.509
1213.501	676.477	80.003	20.009	100.531	20.060	2.806	0.509
1214.001	676.774	80.001	20.009	100.523	20.056	3.229	0.486
1214.500	677.006	80.002	20.009	100.509	20.058	3.011	0.512
1215.000	677.257	80.003	20.009	100.500	20.057	3.117	0.506
1215.500	677.528	80.001	20.009	100.491	20.058	3.027	0.503
1216.000	677.792	80.001	20.008	100.497	20.060	2.855	0.528
1216.501	678.051	80.003	20.009	100.505	20.058	3.011	0.529
1217.000	678.294	80.002	20.009	100.513	20.060	2.833	0.513
1217.500	678.530	80.002	20.009	100.521	20.060	2.794	0.490
1218.000	678.808	80.003	20.009	100.527	20.063	2.506	0.497
1218.500	679.070	80.001	20.008	100.520	20.059	2.903	0.527
1219.000	679.368	80.003	20.009	100.504	20.062	2.637	0.550
1219.500	679.549	80.002	20.009	100.489	20.059	2.903	0.519
1220.000	679.865	80.003	20.009	100.482	20.058	2.994	0.488
1220.500	680.094	80.003	20.009	100.477	20.059	2.959	0.521
1221.001	680.336	80.002	20.008	100.484	20.059	2.905	0.509
1221.500	680.553	80.002	20.009	100.497	20.060	2.785	0.465
1222.000	680.851	80.001	20.009	100.505	20.061	2.746	0.487
1222.500	681.109	80.003	20.009	100.505	20.061	2.770	0.535
1223.000	681.351	80.002	20.008	100.505	20.063	2.570	0.528
1223.500	681.627	80.002	20.008	100.499	20.060	2.856	0.509
1224.000	681.845	80.003	20.008	100.493	20.061	2.760	0.506
1224.500	682.094	80.002	20.009	100.492	20.062	2.629	0.480
1225.000	682.330	80.002	20.009	100.493	20.061	2.773	0.476
1225.500	682.644	80.002	20.009	100.500	20.060	2.836	0.517
1226.000	682.870	80.002	20.008	100.508	20.059	2.916	0.545
1226.500	683.135	80.003	20.008	100.517	20.061	2.681	0.516
1227.000	683.411	80.001	20.008	100.523	20.060	2.870	0.516
1227.500	683.665	80.002	20.009	100.521	20.059	2.888	0.535
1228.000	683.943	80.002	20.008	100.511	20.061	2.729	0.531
1228.500	684.190	80.002	20.009	100.495	20.060	2.794	0.529
1229.000	684.413	80.001	20.009	100.482	20.060	2.868	0.497
1229.500	684.664	80.002	20.008	100.472	20.059	2.914	0.472
1230.000	684.872	80.003	20.009	100.472	20.058	3.005	0.467
1230.500	685.147	80.002	20.008	100.475	20.057	3.114	0.472
1231.000	685.392	80.002	20.008	100.483	20.059	2.900	0.502
1231.500	685.650	80.001	20.008	100.489	20.061	2.776	0.511
1232.001	685.906	80.001	20.008	100.494	20.059	2.905	0.508
1232.500	686.196	80.002	20.009	100.489	20.062	2.672	0.530
1233.000	686.424	80.002	20.009	100.484	20.062	2.618	0.532
1233.500	686.717	80.002	20.008	100.485	20.060	2.812	0.519
1234.000	686.957	80.003	20.009	100.484	20.059	2.896	0.527
1234.500	687.177	80.002	20.009	100.484	20.058	3.068	0.497
1235.000	687.434	80.002	20.008	100.490	20.059	2.909	0.468
1235.500	687.686	80.002	20.009	100.497	20.061	2.778	0.492
1236.000	687.919	80.002	20.008	100.504	20.060	2.829	0.497
1236.500	688.164	80.002	20.008	100.511	20.058	3.034	0.482
1237.000	688.445	80.002	20.009	100.516	20.059	2.886	0.502
1237.500	688.714	80.002	20.008	100.517	20.062	2.631	0.538
1238.000	688.970	80.001	20.008	100.515	20.061	2.716	0.538
1238.500	689.213	80.002	20.008	100.507	20.060	2.831	0.512
1239.000	689.486	80.002	20.008	100.499	20.059	2.888	0.507
1239.500	689.709	80.002	20.009	100.494	20.061	2.755	0.505
1240.001	690.000	80.002	20.008	100.496	20.061	2.735	0.505
1240.500	690.244	80.002	20.009	100.498	20.060	2.853	0.525
1241.000	690.487	80.001	20.008	100.498	20.058	3.062	0.511
1241.500	690.725	80.001	20.008	100.499	20.058	3.002	0.484
1242.001	690.976	80.002	20.009	100.493	20.059	2.899	0.485
1242.500	691.225	80.002	20.009	100.483	20.059	2.949	0.494
1243.000	691.420	80.002	20.009	100.472	20.061	2.720	0.472
1243.500	691.697	80.002	20.008	100.465	20.060	2.799	0.458
1244.000	691.966	80.002	20.009	100.464	20.060	2.875	0.510
1244.500	692.208	80.002	20.008	100.475	20.061	2.700	0.529
1245.000	692.419	80.001	20.008	100.490	20.061	2.742	0.482
1245.500	692.626	80.002	20.008	100.504	20.058	3.045	0.435
1246.000	692.936	80.002	20.008	100.512	20.059	2.960	0.467
1246.500	693.164	80.002	20.008	100.507	20.061	2.712	0.527
1247.000	693.444	80.003	20.009	100.492	20.059	2.895	0.523
1247.500	693.682	80.003	20.009	100.476	20.060	2.834	0.514
1248.000	693.968	80.003	20.010	100.463	20.061	2.770	0.521
1248.501	694.185	80.003	20.008	100.470	20.057	3.116	0.514
1249.000	694.469	80.001	20.008	100.484	20.060	2.852	0.502
1249.500	694.709	80.002	20.009	100.500	20.060	2.831	0.512
1250.000	694.917	80.001	20.008	100.515	20.059	2.907	0.486
1250.500	695.179	80.001	20.008	100.521	20.057	3.121	0.459
1251.000	695.448	80.002	20.008	100.514	20.058	3.047	0.500
1251.500	695.650	80.001	20.009	100.503	20.060	2.816	0.501
1252.001	695.886	80.002	20.009	100.494	20.058	2.995	0.455
1252.500	696.192	80.003	20.009	100.488	20.060	2.870	0.490
1253.000	696.436	80.002	20.008	100.489	20.059	2.907	0.546
1253.500	696.710	80.003	20.008	100.495	20.057	3.120	0.534
1254.000	696.974	80.002	20.008	100.505	20.059	2.950	0.528
1254.500	697.215	80.002	20.009	100.512	20.060	2.867	0.522
1255.000	697.437	80.001	20.009	100.512	20.060	2.881	0.484
1255.500	697.686	80.002	20.008	100.514	20.059	2.938	0.466
1256.001	697.931	80.002	20.009	100.508	20.062	2.657	0.482
1256.500	698.189	80.001	20.008	100.500	20.060	2.884	0.499
1257.000	698.441	80.003	20.009	100.495	20.059	2.892	0.507
1257.500	698.658	80.002	20.009	100.496	20.058	3.053	0.490
1258.000	698.934	80.002	20.008	100.501	20.060	2.794	0.481
1258.500	699.158	80.002	20.008	100.509	20.060	2.826	0.496
1259.000	699.475	80.001	20.008	100.516	20.060	2.787	0.520
1259.500	699.683	80.002	20.008	100.523	20.060	2.809	0.533
1260.000	700.001	80.002	20.008	100.527	20.061	2.689	0.525
1260.500	700.183	80.002	20.009	100.519	20.058	3.054	0.513
1261.000	700.474	80.003	20.008	100.503	20.058	2.993	0.487
1261.500	700.683	80.002	20.009	100.488	20.060	2.836	0.487
1262.000	700.966	80.003	20.009	100.476	20.060	2.883	0.496
1262.500	701.186	80.001	20.008	100.472	20.062	2.650	0.498
1263.000	701.463	80.002	20.008	100.472	20.059	2.900	0.500
1263.500	701.732	80.003	20.008	100.484	20.061	2.682	0.521
1264.000	701.956	80.002	20.008	100.493	20.061	2.765	0.519
1264.500	702.186	80.002	20.008	100.497	20.060	2.814	0.474
1265.000	702.426	80.002	20.008	100.497	20.062	2.624	0.462
1265.500	702.684	80.002	20.008	100.488	20.062	2.603	0.484
1266.000	702.974	80.002	20.008	100.475	20.062	2.583	0.523
1266.500	703.214	80.003	20.009	100.463	20.062	2.586	0.539
1267.000	703.479	80.002	20.009	100.455	20.060	2.819	0.517
1267.500	703.741	80.003	20.008	100.456	20.057	3.161	0.516
1268.000	703.991	80.001	20.009	100.470	20.058	2.990	0.520
1268.500	704.263	80.002	20.008	100.487	20.058	3.049	0.517
1269.000	704.495	80.004	20.009	100.503	20.061	2.714	0.513
1269.500	704.715	80.001	20.008	100.510	20.061	2.769	0.477
1270.001	704.963	80.003	20.009	100.503	20.059	2.952	0.460
1270.500	705.271	80.001	20.008	100.489	20.060	2.852	0.512
1271.000	705.555	80.002	20.009	100.474	20.059	2.913	0.574
1271.500	705.818	80.001	20.008	100.467	20.059	2.987	0.570
1272.000	706.061	80.002	20.008	100.470	20.059	2.973	0.527
1272.500	706.347	80.002	20.009	100.484	20.060	2.790	0.518
1273.000	706.564	80.002	20.008	100.495	20.059	2.979	0.516
1273.500	706.824	80.003	20.008	100.502	20.060	2.881	0.490
1274.000	707.042	80.003	20.008	100.503	20.057	3.182	0.477
1274.500	707.386	80.001	20.008	100.498	20.060	2.838	0.520
1275.000	707.636	80.002	20.008	100.489	20.060	2.852	0.578
1275.500	707.863	80.001	20.008	100.481	20.061	2.782	0.536
1276.000	708.122	80.003	20.009	100.474	20.062	2.654	0.481
1276.500	708.469	80.002	20.008	100.473	20.057	3.120	0.546
1277.000	708.657	80.002	20.008	100.478	20.059	2.978	0.570
1277.500	708.884	80.003	20.008	100.487	20.059	2.988	0.475
1278.000	709.134	80.001	20.008	100.501	20.058	3.067	0.446
1278.500	709.425	80.002	20.008	100.515	20.061	2.764	0.509
1279.000	709.692	80.002	20.008	100.525	20.060	2.814	0.549
1279.500	709.987	80.002	20.009	100.524	20.060	2.830	0.560
1280.000	710.245	80.003	20.008	100.517	20.058	3.024	0.558
1280.500	710.505	80.003	20.008	100.509	20.059	2.952	0.535
1281.000	710.748	80.002	20.009	100.502	20.058	3.069	0.510
1281.500	711.007	80.001	20.009	100.498	20.059	2.888	0.503
1282.001	711.243	80.002	20.009	100.505	20.060	2.831	0.499
1282.500	711.541	80.002	20.008	100.515	20.059	2.886	0.514
1283.000	711.761	80.002	20.008	100.530	20.059	2.984	0.526
1283.500	711.990	80.002	20.009	100.537	20.061	2.736	0.484
1284.000	712.235	80.002	20.008	100.533	20.060	2.799	0.461
1284.500	712.527	80.003	20.008	100.525	20.059	2.897	0.505
1285.000	712.756	80.002	20.008	100.507	20.059	2.949	0.529
1285.500	713.054	80.002	20.009	100.490	20.060	2.812	0.525
1286.001	713.289	80.003	20.009	100.485	20.059	2.977	0.530
1286.500	713.567	80.001	20.008	100.493	20.059	2.972	0.522
1287.000	713.853	80.002	20.009	100.501	20.059	2.972	0.538
1287.500	714.073	80.002	20.008	100.517	20.059	2.940	0.535
1288.000	714.351	80.002	20.008	100.530	20.058	3.077	0.502
1288.500	714.647	80.001	20.008	100.538	20.062	2.657	0.536
1289.000	714.860	80.002	20.008	100.535	20.059	2.934	0.542
1289.500	715.147	80.001	20.009	100.527	20.059	2.941	0.504
1290.000	715.394	80.002	20.008	100.518	20.061	2.766	0.517
1290.500	715.635	80.001	20.009	100.507	20.060	2.879	0.511
1291.000	715.888	80.002	20.009	100.500	20.061	2.708	0.491
1291.500	716.195	80.002	20.008	100.502	20.059	2.924	0.527
1292.000	716.454	80.002	20.009	100.510	20.060	2.835	0.563
1292.500	716.679	80.002	20.008	100.519	20.060	2.870	0.525
1293.000	716.925	80.002	20.008	100.528	20.059	2.923	0.478
1293.500	717.156	80.001	20.009	100.528	20.058	2.995	0.474
1294.001	717.448	80.003	20.008	100.520	20.058	3.015	0.500
1294.500	717.712	80.002	20.008	100.511	20.060	2.840	0.540
1295.000	717.998	80.002	20.009	100.501	20.058	3.010	0.554
1295.500	718.190	80.002	20.009	100.493	20.060	2.791	0.514
1296.000	718.464	80.002	20.008	100.497	20.058	3.022	0.472
1296.500	718.673	80.002	20.009	100.505	20.060	2.869	0.474
1297.000	718.982	80.001	20.008	100.514	20.059	2.935	0.500
1297.500	719.219	80.002	20.008	100.517	20.057	3.121	0.532
1298.000	719.478	80.002	20.009	100.514	20.056	3.230	0.521
1298.500	719.722	80.002	20.009	100.502	20.058	3.049	0.499
1299.000	719.976	80.003	20.009	100.487	20.056	3.250	0.501
1299.500	720.254	80.003	20.009	100.474	20.054	3.483	0.515
1300.000	720.527	80.002	20.009	100.472	20.055	3.398	0.541
1300.500	720.751	80.002	20.009	100.477	20.057	3.162	0.524
1301.000	720.970	80.001	20.009	100.489	20.057	3.114	0.470
1301.500	721.243	80.001	20.008	100.504	20.057	3.139	0.468
1302.000	721.455	80.002	20.008	100.512	20.057	3.131	0.489
1302.500	721.719	80.003	20.008	100.509	20.060	2.793	0.481
1303.000	721.967	80.001	20.009	100.500	20.058	3.092	0.494
1303.500	722.233	80.002	20.009	100.485	20.059	2.930	0.513
1304.000	722.466	80.002	20.009	100.470	20.058	3.074	0.506
1304.500	722.724	80.002	20.009	100.460	20.057	3.161	0.495
1305.000	722.979	80.001	20.009	100.466	20.058	2.999	0.502
1305.500	723.245	80.001	20.008	100.479	20.057	3.175	0.517
1306.000	723.494	80.002	20.008	100.492	20.060	2.877	0.518
1306.500	723.748	80.001	20.009	100.501	20.059	2.941	0.509
1307.000	724.020	80.001	20.008	100.506	20.059	2.915	0.515
1307.500	724.231	80.003	20.009	100.497	20.059	2.904	0.505
1308.000	724.485	80.002	20.009	100.483	20.059	2.989	0.474
1308.500	724.746	80.003	20.008	100.469	20.059	2.926	0.489
1309.000	724.999	80.003	20.009	100.460	20.058	3.065	0.514
1309.500	725.266	80.002	20.009	100.461	20.060	2.844	0.517
1310.000	725.539	80.001	20.009	100.469	20.059	2.960	0.530
1310.500	725.771	80.001	20.008	100.483	20.058	3.058	0.523
1311.000	726.002	80.003	20.008	100.495	20.058	2.995	0.484
1311.500	726.300	80.001	20.008	100.501	20.058	3.041	0.496
1312.000	726.528	80.002	20.008	100.501	20.058	3.011	0.527
1312.500	726.799	80.003	20.009	100.492	20.057	3.100	0.512
1313.001	727.078	80.003	20.008	100.486	20.060	2.882	0.524
1313.500	727.304	80.002	20.009	100.484	20.057	3.108	0.528
1314.000	727.515	80.001	20.008	100.493	20.058	3.021	0.472
1314.500	727.796	80.001	20.008	100.510	20.058	3.045	0.465
1315.000	728.037	80.003	20.008	100.532	20.054	3.466	0.507
1315.500	728.288	80.002	20.008	100.545	20.056	3.207	0.507
1316.000	728.552	80.001	20.008	100.547	20.059	2.950	0.503
1316.500	728.856	80.002	20.009	100.536	20.059	2.898	0.541
1317.000	729.110	80.001	20.009	100.519	20.062	2.629	0.563
1317.500	729.330	80.004	20.009	100.503	20.060	2.871	0.516
1318.000	729.585	80.002	20.009	100.491	20.058	3.004	0.474
1318.500	729.902	80.002	20.008	100.493	20.057	3.108	0.523
1319.000	730.134	79.999	20.009	100.503	20.060	2.838	0.561
1319.500	730.408	80.002	20.008	100.514	20.059	2.901	0.528
1320.000	730.632	80.002	20.008	100.523	20.057	3.112	0.502
1320.500	730.908	80.002	20.009	100.531	20.060	2.842	0.499
1321.000	731.184	80.002	20.009	100.526	20.058	2.993	0.526
1321.500	731.443	80.002	20.008	100.519	20.060	2.788	0.544
1322.000	731.681	80.002	20.009	100.509	20.059	2.958	0.516
1322.500	731.932	80.001	20.009	100.500	20.059	2.988	0.492
1323.000	732.212	80.003	20.009	100.492	20.056	3.276	0.510
1323.500	732.467	80.001	20.009	100.494	20.057	3.182	0.533
1324.000	732.700	80.003	20.008	100.502	20.056	3.234	0.512
1324.500	732.976	80.002	20.008	100.510	20.057	3.140	0.499
1325.000	733.240	80.002	20.009	100.518	20.058	3.033	0.525
1325.500	733.467	80.000	20.009	100.522	20.061	2.683	0.516
1326.001	733.738	80.002	20.009	100.517	20.058	3.010	0.494
1326.500	733.969	80.002	20.008	100.509	20.059	2.943	0.499
1327.000	734.243	80.001	20.009	100.502	20.059	2.989	0.503
1327.500	734.544	80.002	20.009	100.496	20.059	2.958	0.540
1328.000	734.790	80.001	20.009	100.501	20.061	2.779	0.561
1328.500	735.029	80.002	20.009	100.510	20.061	2.770	0.516
1329.000	735.255	80.002	20.009	100.520	20.059	2.929	0.475
1329.500	735.563	80.002	20.008	100.528	20.059	2.961	0.499
1330.000	735.783	80.001	20.008	100.534	20.061	2.702	0.531
1330.500	736.050	80.001	20.008	100.531	20.062	2.668	0.508
1331.000	736.317	80.002	20.008	100.521	20.063	2.540	0.510
1331.500	736.538	80.002	20.009	100.510	20.063	2.477	0.511
1332.000	736.837	80.002	20.009	100.502	20.062	2.649	0.504
1332.500	737.152	80.001	20.009	100.496	20.063	2.542	0.567
1333.000	737.396	80.003	20.009	100.497	20.062	2.668	0.587
1333.500	737.650	80.002	20.009	100.506	20.059	2.886	0.528
1334.000	737.890	80.001	20.009	100.511	20.061	2.713	0.496
1334.500	738.151	80.002	20.009	100.512	20.059	2.907	0.497
1335.000	738.409	80.002	20.009	100.511	20.060	2.798	0.510
1335.500	738.658	80.001	20.009	100.500	20.060	2.858	0.513
1336.000	738.916	80.001	20.009	100.487	20.061	2.714	0.507
1336.500	739.160	80.001	20.009	100.478	20.061	2.762	0.505
1337.000	739.407	80.003	20.009	100.469	20.060	2.804	0.496
1337.500	739.641	80.002	20.008	100.467	20.060	2.817	0.486
1338.000	739.912	80.002	20.009	100.472	20.061	2.683	0.493
1338.500	740.073	80.002	20.008	100.481	20.062	2.644	0.469
1339.000	740.353	80.001	20.009	100.492	20.059	2.951	0.436
1339.500	740.581	80.002	20.009	100.508	20.061	2.722	0.474
1340.000	740.850	80.002	20.008	100.513	20.061	2.693	0.503
1340.500	741.095	80.002	20.008	100.512	20.061	2.776	0.505
1341.000	741.338	80.002	20.009	100.500	20.063	2.526	0.501
1341.500	741.642	80.002	20.009	100.487	20.064	2.430	0.517
1342.000	741.850	80.002	20.009	100.473	20.062	2.637	0.529
1342.500	742.105	80.002	20.009	100.470	20.061	2.754	0.487
1343.000	742.387	80.002	20.008	100.479	20.063	2.494	0.500
1343.500	742.604	80.002	20.009	100.495	20.061	2.738	0.518
