Sample Weight (mg):	1.99
Heating Rate (C/s):	0.5
Combustor Temp (C):	900
N2 Flow Rate (cc/min):	80
O2 Flow Rate (cc/min):	20
Time (s)	Temperature (C)	N2 flow rate (cc/min)	O2 flow rate (cc/min)	Flow Rate (cc/min)	Oxygen (%)	HRR (W/g)	Heating rate (C/s)
0.000	90.066	80.001	20.008	99.898	20.069	1.133	-0.157
0.500	90.038	80.001	20.008	99.896	20.065	1.767	-0.134
1.000	89.964	80.007	20.021	99.886	20.061	2.427	-0.108
1.500	89.855	80.005	20.014	99.883	20.059	2.750	-0.142
2.000	89.803	80.003	20.008	99.882	20.057	3.170	-0.172
2.500	89.767	80.004	20.008	99.892	20.050	4.267	-0.124
3.000	89.645	80.005	20.009	99.918	20.046	4.847	-0.123
3.500	89.605	80.004	20.009	99.954	20.043	5.273	-0.160
4.000	89.532	80.005	20.009	99.993	20.036	6.364	-0.138
4.500	89.463	80.004	20.009	100.039	20.035	6.498	-0.128
5.000	89.441	80.005	20.008	100.089	20.031	7.158	-0.116
5.500	89.337	80.005	20.009	100.141	20.027	7.754	-0.108
6.000	89.234	80.004	20.009	100.192	20.026	8.031	-0.166
6.500	89.187	80.004	20.009	100.241	20.024	8.320	-0.179
7.000	89.105	80.005	20.009	100.283	20.019	9.067	-0.140
7.500	89.048	80.005	20.009	100.309	20.017	9.341	-0.134
8.000	89.006	80.005	20.009	100.324	20.017	9.406	-0.119
8.500	88.956	80.005	20.009	100.334	20.012	10.247	-0.096
9.000	88.867	80.004	20.009	100.343	20.015	9.668	-0.115
9.500	88.796	80.004	20.009	100.356	20.012	10.171	-0.149
10.001	88.750	80.006	20.008	100.371	20.011	10.410	-0.138
10.501	88.693	80.004	20.009	100.381	20.007	10.919	-0.110
11.000	88.643	80.004	20.009	100.386	20.009	10.723	-0.106
11.500	88.579	80.004	20.009	100.379	20.007	10.907	-0.111
12.000	88.554	80.003	20.008	100.371	20.006	11.077	-0.101
12.500	88.518	80.005	20.009	100.364	20.003	11.575	-0.075
13.001	88.492	80.005	20.009	100.364	20.005	11.308	-0.062
13.501	88.463	80.004	20.009	100.366	20.005	11.231	-0.059
14.000	88.419	80.003	20.009	100.373	20.004	11.437	-0.064
14.500	88.386	80.005	20.009	100.370	20.001	11.844	-0.075
15.000	88.336	80.004	20.009	100.364	20.002	11.702	-0.080
15.500	88.265	80.005	20.009	100.357	20.001	11.863	-0.102
16.000	88.246	80.005	20.009	100.352	20.003	11.557	-0.105
16.500	88.208	80.003	20.009	100.351	20.003	11.614	-0.073
17.000	88.121	80.005	20.009	100.358	20.002	11.693	-0.091
17.500	88.061	80.006	20.009	100.367	20.000	12.012	-0.136
18.000	88.046	80.004	20.009	100.370	19.999	12.268	-0.112
18.500	87.972	80.005	20.009	100.367	19.999	12.217	-0.082
19.000	87.926	80.005	20.009	100.359	19.998	12.427	-0.104
19.500	87.899	80.005	20.009	100.351	20.000	12.143	-0.096
20.000	87.860	80.003	20.009	100.351	19.996	12.643	-0.069
20.500	87.819	80.005	20.009	100.361	19.996	12.748	-0.073
21.000	87.781	80.004	20.009	100.376	19.997	12.523	-0.079
21.500	87.756	80.005	20.009	100.391	19.998	12.425	-0.071
22.000	87.760	80.004	20.009	100.399	19.998	12.342	-0.042
22.500	87.765	80.005	20.009	100.396	19.996	12.766	-0.006
23.000	87.742	80.005	20.009	100.387	19.995	12.788	-0.005
23.500	87.641	80.004	20.009	100.378	19.998	12.403	-0.072
24.000	87.647	80.005	20.009	100.377	19.996	12.720	-0.109
24.500	87.608	80.003	20.009	100.384	19.997	12.544	-0.063
25.000	87.646	80.005	20.009	100.389	19.997	12.609	-0.017
25.500	87.558	80.005	20.010	100.394	19.997	12.537	-0.026
26.000	87.551	80.004	20.009	100.395	19.997	12.545	-0.072
26.500	87.540	80.005	20.009	100.390	19.997	12.497	-0.056
27.000	87.506	80.004	20.009	100.383	19.997	12.555	-0.032
27.500	87.540	80.005	20.009	100.388	19.995	12.909	-0.022
28.000	87.520	80.005	20.009	100.396	19.999	12.238	0.007
28.500	87.499	80.005	20.009	100.403	19.999	12.277	-0.014
29.000	87.500	80.004	20.009	100.411	20.001	11.960	-0.031
29.500	87.455	80.004	20.009	100.413	19.996	12.694	-0.032
30.000	87.439	80.005	20.010	100.407	19.996	12.752	-0.052
30.500	87.431	80.004	20.009	100.398	19.997	12.566	-0.043
31.000	87.416	80.003	20.009	100.390	19.994	12.969	-0.024
31.500	87.384	80.004	20.012	100.385	19.996	12.755	-0.035
32.001	87.393	80.005	20.010	100.384	19.999	12.174	-0.035
32.500	87.404	80.004	20.009	100.380	19.996	12.771	-0.001
33.001	87.380	80.005	20.009	100.373	19.995	12.815	0.004
33.501	87.413	80.004	20.009	100.361	19.994	13.086	-0.002
34.001	87.408	80.004	20.009	100.350	19.994	12.989	0.018
34.500	87.404	80.006	20.009	100.340	19.992	13.309	0.009
35.000	87.353	80.005	20.009	100.341	19.989	13.758	-0.032
35.500	87.396	80.005	20.009	100.349	19.991	13.430	-0.032
36.000	87.378	80.004	20.009	100.363	19.994	12.983	0.008
36.500	87.394	80.005	20.009	100.374	19.991	13.543	0.011
37.000	87.402	80.005	20.009	100.382	19.990	13.582	0.012
37.500	87.377	80.005	20.009	100.387	19.989	13.804	0.004
38.000	87.390	80.005	20.009	100.395	19.990	13.695	-0.015
38.500	87.426	80.004	20.009	100.408	19.989	13.847	0.018
39.000	87.406	80.004	20.009	100.423	19.989	13.871	0.033
39.501	87.387	80.005	20.009	100.437	19.987	14.132	-0.012
40.001	87.393	80.004	20.009	100.449	19.990	13.651	-0.026
40.500	87.444	80.005	20.009	100.449	19.988	13.985	0.022
41.000	87.501	80.004	20.009	100.442	19.990	13.726	0.082
41.500	87.411	80.003	20.009	100.434	19.988	13.904	0.037
42.000	87.485	80.005	20.009	100.435	19.987	14.201	-0.024
42.500	87.473	80.004	20.009	100.437	19.983	14.831	0.024
43.001	87.494	80.006	20.009	100.446	19.986	14.284	0.036
43.501	87.492	80.005	20.009	100.450	19.989	13.770	0.014
44.000	87.576	80.005	20.009	100.450	19.983	14.733	0.050
44.500	87.578	80.005	20.010	100.445	19.984	14.554	0.084
45.000	87.640	80.004	20.009	100.441	19.982	14.981	0.075
45.500	87.628	80.004	20.009	100.439	19.983	14.718	0.057
46.000	87.652	80.005	20.009	100.444	19.983	14.801	0.031
46.500	87.668	80.004	20.009	100.449	19.984	14.623	0.027
47.000	87.693	80.006	20.009	100.448	19.984	14.666	0.041
47.500	87.734	80.004	20.010	100.443	19.982	14.877	0.053
48.000	87.793	80.004	20.009	100.436	19.981	15.041	0.083
48.500	87.865	80.005	20.009	100.427	19.977	15.632	0.115
49.000	87.863	80.004	20.009	100.431	19.982	14.970	0.101
49.500	87.864	80.004	20.009	100.448	19.980	15.158	0.034
50.000	87.957	80.004	20.009	100.468	19.977	15.649	0.046
50.500	87.926	80.005	20.009	100.482	19.979	15.395	0.078
51.000	87.949	80.004	20.009	100.487	19.982	14.938	0.027
51.500	88.008	80.004	20.009	100.476	19.978	15.526	0.037
52.000	88.123	80.004	20.009	100.457	19.980	15.203	0.128
52.500	88.108	80.005	20.010	100.441	19.978	15.576	0.137
53.000	88.189	80.003	20.009	100.434	19.978	15.575	0.083
53.500	88.223	80.003	20.009	100.438	19.978	15.504	0.090
54.000	88.263	80.005	20.009	100.448	19.978	15.613	0.095
54.500	88.282	80.003	20.009	100.454	19.974	16.182	0.067
55.000	88.396	80.006	20.009	100.452	19.973	16.271	0.096
55.500	88.456	80.005	20.012	100.452	19.974	16.217	0.153
56.000	88.441	80.004	20.010	100.449	19.974	16.119	0.109
56.500	88.478	80.005	20.009	100.452	19.976	15.916	0.033
57.000	88.583	80.004	20.009	100.461	19.977	15.736	0.082
57.500	88.602	80.005	20.009	100.473	19.978	15.608	0.133
58.000	88.670	80.004	20.009	100.474	19.976	15.816	0.106
58.500	88.729	80.004	20.010	100.474	19.978	15.506	0.108
59.000	88.814	80.003	20.009	100.469	19.977	15.727	0.135
59.500	88.907	80.006	20.009	100.464	19.978	15.528	0.160
60.000	88.968	80.003	20.009	100.462	19.979	15.465	0.166
60.501	88.995	80.004	20.009	100.469	19.979	15.412	0.121
61.001	89.063	80.005	20.009	100.474	19.978	15.613	0.091
61.501	89.135	80.004	20.009	100.473	19.978	15.518	0.117
62.001	89.233	80.004	20.009	100.465	19.979	15.442	0.155
62.501	89.328	80.006	20.009	100.450	19.978	15.599	0.181
63.000	89.393	80.005	20.009	100.434	19.978	15.588	0.176
63.500	89.477	80.004	20.009	100.427	19.976	15.836	0.155
64.000	89.536	80.004	20.009	100.429	19.978	15.548	0.146
64.501	89.615	80.006	20.009	100.435	19.978	15.524	0.140
65.001	89.711	80.004	20.009	100.439	19.978	15.589	0.157
65.500	89.709	80.004	20.009	100.437	19.977	15.658	0.135
66.000	89.813	80.005	20.010	100.427	19.978	15.479	0.098
66.500	89.901	80.005	20.009	100.419	19.976	15.823	0.147
67.000	89.971	80.004	20.009	100.416	19.974	16.166	0.175
67.500	90.075	80.004	20.010	100.424	19.975	16.066	0.166
68.000	90.144	80.004	20.009	100.442	19.973	16.353	0.173
68.500	90.271	80.004	20.009	100.460	19.972	16.501	0.184
69.000	90.294	80.004	20.009	100.472	19.973	16.285	0.173
69.500	90.403	80.006	20.010	100.475	19.971	16.654	0.141
70.001	90.471	80.004	20.009	100.473	19.971	16.704	0.154
70.501	90.541	80.005	20.009	100.471	19.969	16.968	0.158
71.000	90.637	80.002	20.008	100.473	19.968	17.061	0.152
71.500	90.743	80.004	20.009	100.477	19.966	17.446	0.184
72.000	90.840	80.005	20.009	100.485	19.965	17.558	0.202
72.500	90.950	80.005	20.009	100.492	19.968	17.089	0.205
73.000	91.088	80.005	20.009	100.495	19.968	17.117	0.227
73.501	91.167	80.004	20.009	100.497	19.967	17.278	0.233
74.001	91.258	80.005	20.009	100.502	19.968	17.185	0.194
74.500	91.360	80.005	20.009	100.511	19.967	17.278	0.181
75.000	91.448	80.004	20.009	100.517	19.968	17.064	0.191
75.500	91.570	80.003	20.008	100.516	19.964	17.846	0.200
76.000	91.716	80.006	20.009	100.511	19.965	17.621	0.239
76.500	91.791	80.004	20.009	100.498	19.964	17.787	0.244
77.000	91.906	80.004	20.009	100.490	19.964	17.759	0.205
77.500	92.004	80.004	20.009	100.490	19.963	17.862	0.202
78.000	92.135	80.004	20.009	100.497	19.964	17.739	0.221
78.500	92.263	80.004	20.009	100.508	19.965	17.573	0.244
79.000	92.376	80.005	20.009	100.520	19.964	17.731	0.250
79.500	92.479	80.005	20.009	100.521	19.963	17.919	0.228
80.001	92.614	80.003	20.010	100.516	19.961	18.190	0.227
80.501	92.768	80.006	20.009	100.516	19.962	18.048	0.264
81.000	92.826	80.003	20.008	100.516	19.959	18.503	0.251
81.500	92.967	80.005	20.009	100.521	19.958	18.753	0.205
82.000	93.161	80.005	20.009	100.530	19.962	18.142	0.267
82.500	93.267	80.005	20.009	100.537	19.961	18.300	0.318
83.000	93.329	80.005	20.009	100.537	19.960	18.351	0.234
83.500	93.469	80.004	20.009	100.537	19.959	18.491	0.185
84.000	93.667	80.004	20.009	100.538	19.962	18.073	0.269
84.500	93.775	80.005	20.009	100.543	19.960	18.408	0.322
85.000	93.919	80.002	20.009	100.552	19.959	18.490	0.279
85.501	94.094	80.005	20.009	100.560	19.961	18.174	0.286
86.001	94.193	80.005	20.009	100.569	19.959	18.483	0.297
86.500	94.316	80.004	20.009	100.574	19.959	18.526	0.248
87.000	94.486	80.005	20.009	100.575	19.957	18.860	0.257
87.500	94.609	80.004	20.009	100.574	19.960	18.414	0.293
88.000	94.713	80.004	20.009	100.574	19.957	18.837	0.260
88.500	94.935	80.005	20.009	100.575	19.957	18.897	0.276
89.000	95.063	80.005	20.009	100.570	19.959	18.541	0.338
89.500	95.246	80.006	20.009	100.563	19.956	18.987	0.331
90.000	95.356	80.005	20.009	100.555	19.956	18.961	0.302
90.500	95.509	80.004	20.009	100.553	19.955	19.124	0.278
91.000	95.641	80.004	20.009	100.552	19.954	19.407	0.274
91.500	95.826	80.006	20.009	100.558	19.953	19.482	0.301
92.000	95.993	80.004	20.009	100.565	19.953	19.525	0.335
92.500	96.083	80.005	20.009	100.574	19.952	19.599	0.304
93.000	96.317	80.003	20.009	100.571	19.953	19.508	0.290
93.500	96.433	80.005	20.009	100.566	19.951	19.746	0.337
94.000	96.603	80.005	20.009	100.566	19.951	19.852	0.318
94.500	96.765	80.004	20.009	100.566	19.952	19.712	0.309
95.001	96.932	80.005	20.009	100.566	19.951	19.895	0.331
95.501	97.075	80.004	20.009	100.571	19.950	20.012	0.319
96.000	97.264	80.004	20.009	100.576	19.949	20.114	0.321
96.500	97.362	80.003	20.009	100.576	19.948	20.283	0.309
97.000	97.567	80.005	20.009	100.576	19.949	20.209	0.295
97.500	97.699	80.005	20.009	100.580	19.950	20.054	0.320
98.000	97.921	80.005	20.009	100.588	19.948	20.316	0.346
98.500	98.085	80.004	20.009	100.596	19.949	20.177	0.370
99.000	98.281	80.004	20.009	100.602	19.950	19.926	0.373
99.500	98.488	80.004	20.009	100.604	19.947	20.412	0.381
100.000	98.689	80.005	20.009	100.600	19.950	20.054	0.405
100.500	98.839	80.003	20.009	100.592	19.949	20.065	0.379
101.001	98.999	80.005	20.010	100.585	19.952	19.721	0.331
101.501	99.252	80.004	20.009	100.586	19.948	20.359	0.361
102.000	99.431	80.006	20.009	100.593	19.948	20.284	0.423
102.500	99.604	80.004	20.009	100.600	19.949	20.094	0.392
103.000	99.826	80.005	20.009	100.604	19.950	19.995	0.373
103.501	100.019	80.004	20.010	100.604	19.950	20.016	0.405
104.001	100.164	80.005	20.009	100.597	19.948	20.318	0.377
104.500	100.412	80.006	20.009	100.589	19.948	20.227	0.366
105.000	100.610	80.004	20.009	100.585	19.949	20.208	0.419
105.500	100.780	80.005	20.008	100.585	19.948	20.247	0.407
106.001	100.952	80.005	20.009	100.585	19.946	20.533	0.355
106.501	101.152	80.003	20.009	100.585	19.946	20.630	0.357
107.001	101.337	80.006	20.009	100.584	19.946	20.555	0.379
107.501	101.564	80.004	20.009	100.582	19.946	20.607	0.399
108.001	101.759	80.004	20.009	100.578	19.946	20.647	0.417
108.500	101.972	80.005	20.009	100.582	19.944	20.935	0.415
109.000	102.191	80.006	20.009	100.589	19.945	20.743	0.420
109.500	102.410	80.004	20.009	100.597	19.946	20.682	0.435
110.000	102.605	80.005	20.009	100.596	19.948	20.251	0.426
110.500	102.813	80.005	20.009	100.590	19.949	20.086	0.408
111.000	103.018	80.005	20.009	100.581	19.951	19.800	0.408
111.500	103.218	80.005	20.009	100.573	19.950	20.044	0.409
112.000	103.413	80.003	20.009	100.569	19.949	20.110	0.400
112.500	103.656	80.004	20.009	100.578	19.947	20.409	0.417
113.000	103.873	80.006	20.008	100.591	19.947	20.507	0.449
113.500	104.154	80.005	20.009	100.597	19.946	20.577	0.479
114.000	104.359	80.005	20.009	100.597	19.946	20.635	0.492
114.500	104.544	80.005	20.009	100.594	19.947	20.419	0.439
115.000	104.818	80.005	20.009	100.588	19.947	20.506	0.424
115.500	104.986	80.004	20.009	100.587	19.946	20.643	0.450
116.000	105.276	80.005	20.009	100.593	19.947	20.468	0.450
116.500	105.492	80.005	20.008	100.601	19.944	20.895	0.483
117.001	105.708	80.004	20.009	100.605	19.944	20.907	0.469
117.501	105.945	80.006	20.009	100.601	19.946	20.607	0.442
118.000	106.128	80.004	20.009	100.593	19.944	20.906	0.437
118.500	106.373	80.005	20.009	100.584	19.944	20.901	0.425
119.000	106.600	80.004	20.009	100.578	19.946	20.603	0.450
119.500	106.865	80.005	20.009	100.582	19.946	20.639	0.481
120.000	107.015	80.005	20.009	100.591	19.943	21.063	0.453
120.500	107.291	80.005	20.009	100.599	19.944	20.866	0.421
121.001	107.507	80.004	20.009	100.600	19.944	21.000	0.459
121.501	107.728	80.004	20.009	100.600	19.947	20.530	0.464
122.001	107.972	80.006	20.009	100.592	19.945	20.771	0.451
122.500	108.217	80.005	20.010	100.588	19.945	20.807	0.477
123.000	108.466	80.006	20.009	100.589	19.944	20.861	0.491
123.501	108.678	80.005	20.009	100.598	19.946	20.648	0.477
124.001	108.965	80.007	20.009	100.604	19.945	20.767	0.481
124.501	109.177	80.005	20.010	100.606	19.946	20.633	0.499
125.001	109.445	80.005	20.009	100.602	19.943	21.021	0.489
125.500	109.667	80.004	20.010	100.593	19.943	21.039	0.485
126.000	109.926	80.005	20.009	100.584	19.943	21.139	0.485
126.500	110.285	80.004	20.009	100.582	19.942	21.171	0.549
127.000	110.472	80.005	20.009	100.586	19.946	20.629	0.582
127.500	110.755	80.005	20.009	100.592	19.946	20.666	0.508
128.000	110.944	80.005	20.009	100.597	19.949	20.058	0.471
128.500	111.209	80.003	20.009	100.596	19.948	20.267	0.463
129.000	111.477	80.005	20.009	100.590	19.948	20.305	0.493
129.500	111.661	80.005	20.009	100.584	19.947	20.441	0.493
130.000	111.961	80.006	20.009	100.579	19.949	20.206	0.468
130.500	112.210	80.004	20.009	100.583	19.946	20.586	0.516
131.000	112.535	80.006	20.009	100.591	19.945	20.726	0.561
131.500	112.766	80.005	20.009	100.596	19.944	20.917	0.565
132.000	113.026	80.005	20.009	100.596	19.947	20.381	0.524
132.500	113.276	80.006	20.009	100.593	19.944	20.861	0.501
133.000	113.547	80.005	20.009	100.589	19.945	20.737	0.515
133.500	113.765	80.006	20.009	100.589	19.947	20.379	0.505
134.000	114.014	80.004	20.009	100.591	19.945	20.749	0.478
134.500	114.302	80.004	20.009	100.599	19.945	20.685	0.501
135.000	114.592	80.006	20.009	100.601	19.945	20.770	0.558
135.500	114.870	80.004	20.009	100.598	19.944	20.912	0.574
136.000	115.106	80.005	20.009	100.582	19.945	20.743	0.541
136.500	115.370	80.005	20.009	100.569	19.944	20.913	0.507
137.000	115.671	80.006	20.009	100.562	19.942	21.174	0.532
137.500	115.947	80.004	20.009	100.561	19.943	21.023	0.571
138.000	116.182	80.004	20.009	100.562	19.945	20.815	0.544
138.500	116.478	80.005	20.009	100.570	19.947	20.419	0.521
139.000	116.734	80.004	20.009	100.570	19.944	20.978	0.542
139.500	117.025	80.003	20.009	100.562	19.944	20.919	0.549
140.000	117.289	80.005	20.009	100.559	19.942	21.226	0.551
140.500	117.545	80.005	20.009	100.560	19.945	20.716	0.538
141.000	117.797	80.005	20.009	100.561	19.946	20.640	0.514
141.500	118.103	80.005	20.009	100.568	19.945	20.832	0.532
142.000	118.374	80.005	20.009	100.575	19.947	20.433	0.567
142.500	118.608	80.005	20.009	100.570	19.945	20.797	0.541
143.000	118.962	80.005	20.009	100.563	19.945	20.828	0.546
143.500	119.202	80.004	20.009	100.560	19.946	20.542	0.591
144.000	119.525	80.007	20.009	100.560	19.946	20.661	0.578
144.500	119.784	80.004	20.009	100.563	19.942	21.233	0.572
145.000	120.097	80.006	20.009	100.573	19.944	20.837	0.577
145.500	120.348	80.004	20.009	100.581	19.945	20.750	0.568
146.000	120.623	80.004	20.009	100.580	19.947	20.493	0.545
146.500	120.881	80.005	20.009	100.576	19.944	20.866	0.529
147.000	121.095	80.003	20.009	100.575	19.947	20.413	0.503
147.500	121.399	80.005	20.009	100.572	19.949	20.122	0.495
148.000	121.676	80.004	20.009	100.576	19.945	20.755	0.549
148.500	121.976	80.004	20.009	100.586	19.946	20.609	0.579
149.000	122.285	80.005	20.009	100.593	19.948	20.350	0.593
149.500	122.564	80.005	20.009	100.593	19.948	20.236	0.598
150.000	122.811	80.005	20.009	100.592	19.949	20.096	0.557
150.500	123.069	80.004	20.010	100.589	19.949	20.167	0.515
151.000	123.437	80.005	20.009	100.587	19.951	19.736	0.565
151.500	123.684	80.005	20.010	100.592	19.950	20.004	0.621
152.000	123.967	80.005	20.009	100.599	19.954	19.311	0.573
152.500	124.276	80.004	20.009	100.603	19.952	19.630	0.561
153.000	124.525	80.005	20.009	100.602	19.951	19.880	0.575
153.500	124.808	80.004	20.009	100.594	19.951	19.808	0.545
154.000	125.055	80.005	20.010	100.578	19.951	19.850	0.531
154.500	125.394	80.004	20.009	100.569	19.949	20.169	0.558
155.000	125.653	80.004	20.009	100.565	19.952	19.685	0.592
155.500	125.899	80.004	20.009	100.566	19.952	19.696	0.551
156.000	126.209	80.004	20.009	100.569	19.952	19.608	0.530
156.500	126.504	80.004	20.009	100.573	19.950	19.965	0.581
157.000	126.805	80.005	20.009	100.566	19.951	19.875	0.601
157.500	127.109	80.004	20.009	100.558	19.951	19.739	0.601
158.000	127.402	80.004	20.010	100.550	19.948	20.285	0.601
158.500	127.610	80.003	20.009	100.546	19.950	19.891	0.549
159.000	127.944	80.005	20.009	100.548	19.948	20.220	0.522
159.500	128.233	80.004	20.009	100.556	19.949	20.059	0.583
160.000	128.496	80.004	20.009	100.562	19.950	19.918	0.587
160.500	128.784	80.004	20.009	100.562	19.950	19.982	0.552
161.000	129.096	80.005	20.009	100.556	19.949	20.050	0.576
161.500	129.428	80.004	20.010	100.544	19.948	20.321	0.622
162.000	129.669	80.004	20.009	100.536	19.949	20.167	0.608
162.500	129.951	80.003	20.009	100.533	19.947	20.501	0.548
163.000	130.246	80.005	20.009	100.533	19.947	20.471	0.550
163.500	130.540	80.004	20.009	100.536	19.947	20.436	0.583
164.000	130.824	80.005	20.009	100.535	19.945	20.806	0.583
164.500	131.081	80.004	20.009	100.525	19.946	20.591	0.560
165.000	131.377	80.004	20.010	100.514	19.946	20.585	0.547
165.500	131.680	80.005	20.009	100.506	19.946	20.596	0.576
166.000	132.015	80.004	20.009	100.505	19.948	20.198	0.618
166.500	132.284	80.005	20.009	100.510	19.948	20.249	0.621
167.000	132.635	80.004	20.009	100.520	19.949	20.182	0.612
167.500	132.888	80.005	20.009	100.528	19.948	20.202	0.613
168.000	133.206	80.005	20.009	100.530	19.948	20.334	0.588
168.500	133.499	80.005	20.010	100.521	19.948	20.199	0.591
169.000	133.766	80.005	20.009	100.514	19.947	20.406	0.585
169.500	134.060	80.006	20.009	100.511	19.948	20.234	0.560
170.000	134.383	80.003	20.009	100.512	19.946	20.565	0.589
170.500	134.669	80.005	20.009	100.518	19.945	20.675	0.613
171.000	134.940	80.005	20.009	100.526	19.947	20.448	0.583
171.500	135.244	80.005	20.009	100.525	19.947	20.480	0.566
172.000	135.520	80.004	20.009	100.519	19.946	20.569	0.578
172.500	135.829	80.006	20.009	100.512	19.946	20.573	0.582
173.000	136.138	80.004	20.009	100.512	19.947	20.401	0.601
173.500	136.422	80.005	20.009	100.513	19.948	20.263	0.606
174.000	136.688	80.004	20.009	100.520	19.947	20.365	0.572
174.500	136.991	80.005	20.009	100.522	19.947	20.372	0.560
175.000	137.314	80.005	20.010	100.520	19.949	20.116	0.597
175.500	137.547	80.005	20.010	100.505	19.944	20.845	0.590
176.000	137.874	80.005	20.009	100.490	19.946	20.618	0.558
176.500	138.142	80.006	20.009	100.482	19.942	21.168	0.578
177.000	138.426	80.005	20.009	100.481	19.944	20.852	0.574
177.500	138.719	80.004	20.009	100.486	19.942	21.225	0.565
178.000	139.006	80.005	20.009	100.493	19.945	20.768	0.578
178.500	139.294	80.005	20.009	100.496	19.946	20.630	0.577
179.000	139.533	80.004	20.009	100.489	19.947	20.358	0.551
179.500	139.846	80.005	20.009	100.482	19.946	20.536	0.539
180.000	140.155	80.004	20.009	100.478	19.948	20.352	0.587
180.500	140.411	80.005	20.009	100.481	19.945	20.772	0.594
181.000	140.738	80.004	20.009	100.486	19.945	20.690	0.574
181.500	141.073	80.005	20.009	100.495	19.947	20.363	0.622
182.000	141.320	80.005	20.009	100.496	19.947	20.503	0.622
182.500	141.593	80.004	20.009	100.488	19.947	20.485	0.551
183.000	141.915	80.005	20.009	100.476	19.947	20.365	0.557
183.500	142.170	80.005	20.009	100.474	19.947	20.423	0.586
184.000	142.495	80.005	20.009	100.475	19.947	20.471	0.578
184.500	142.742	80.004	20.009	100.484	19.952	19.682	0.576
185.000	143.042	80.005	20.009	100.492	19.950	19.969	0.560
185.500	143.286	80.005	20.009	100.497	19.950	19.936	0.545
186.000	143.591	80.005	20.009	100.489	19.949	20.083	0.546
186.500	143.904	80.004	20.010	100.482	19.951	19.843	0.584
187.000	144.174	80.005	20.009	100.478	19.951	19.735	0.600
187.500	144.505	80.004	20.009	100.477	19.952	19.707	0.591
188.000	144.751	80.005	20.009	100.481	19.951	19.843	0.589
188.500	145.052	80.006	20.009	100.488	19.950	19.944	0.562
189.000	145.331	80.005	20.009	100.490	19.949	20.095	0.564
189.500	145.638	80.005	20.009	100.483	19.948	20.276	0.583
190.000	145.914	80.005	20.010	100.476	19.948	20.211	0.584
190.500	146.239	80.005	20.009	100.470	19.946	20.544	0.592
191.001	146.512	80.004	20.009	100.471	19.949	20.161	0.599
191.500	146.754	80.005	20.009	100.482	19.947	20.351	0.557
192.000	147.026	80.004	20.009	100.491	19.945	20.802	0.515
192.500	147.281	80.005	20.009	100.497	19.943	21.100	0.521
193.000	147.606	80.005	20.009	100.496	19.944	20.949	0.553
193.500	147.900	80.005	20.010	100.489	19.942	21.174	0.599
194.000	148.171	80.005	20.009	100.482	19.943	21.036	0.592
194.500	148.418	80.005	20.009	100.481	19.944	20.880	0.541
195.000	148.738	80.004	20.009	100.483	19.939	21.665	0.542
195.500	149.048	80.004	20.008	100.490	19.939	21.736	0.598
196.000	149.304	80.004	20.009	100.490	19.942	21.266	0.598
196.500	149.570	80.006	20.010	100.483	19.938	21.845	0.544
197.000	149.881	80.003	20.009	100.474	19.938	21.793	0.550
197.500	150.134	80.005	20.009	100.467	19.940	21.556	0.570
198.000	150.438	80.004	20.009	100.465	19.941	21.412	0.560
198.500	150.770	80.004	20.009	100.467	19.939	21.726	0.596
199.000	151.025	80.004	20.009	100.468	19.941	21.424	0.611
199.500	151.298	80.005	20.009	100.468	19.938	21.886	0.558
200.000	151.611	80.003	20.009	100.464	19.939	21.643	0.557
200.500	151.823	80.005	20.009	100.457	19.935	22.236	0.556
201.000	152.248	80.004	20.009	100.454	19.934	22.428	0.581
201.500	152.443	80.005	20.009	100.458	19.931	22.852	0.628
202.000	152.811	80.005	20.009	100.460	19.930	23.086	0.591
202.500	153.085	80.005	20.009	100.463	19.931	22.954	0.602
203.000	153.361	80.005	20.009	100.459	19.933	22.645	0.596
203.500	153.582	80.005	20.010	100.452	19.931	22.928	0.523
204.000	153.975	80.005	20.009	100.442	19.932	22.805	0.555
204.500	154.178	80.005	20.009	100.439	19.928	23.345	0.605
205.000	154.436	80.005	20.013	100.442	19.930	23.143	0.528
205.500	154.704	80.004	20.011	100.450	19.931	22.999	0.494
206.000	155.021	80.006	20.009	100.459	19.928	23.356	0.556
206.500	155.239	80.005	20.009	100.465	19.928	23.484	0.560
207.000	155.573	80.006	20.009	100.459	19.927	23.622	0.543
207.500	155.859	80.004	20.009	100.447	19.927	23.564	0.586
208.000	156.085	80.005	20.009	100.436	19.924	23.972	0.566
208.500	156.321	80.005	20.009	100.428	19.924	24.009	0.487
209.000	156.648	80.004	20.009	100.429	19.922	24.286	0.513
209.500	156.921	80.005	20.009	100.435	19.922	24.303	0.582
210.000	157.189	80.005	20.009	100.443	19.920	24.710	0.570
210.500	157.466	80.004	20.009	100.445	19.922	24.311	0.543
211.000	157.732	80.005	20.010	100.438	19.919	24.828	0.544
211.500	157.973	80.004	20.009	100.427	19.922	24.277	0.525
212.000	158.235	80.004	20.009	100.419	19.922	24.356	0.505
212.501	158.564	80.004	20.009	100.412	19.921	24.490	0.547
213.000	158.847	80.006	20.009	100.412	19.920	24.672	0.601
213.500	159.117	80.004	20.008	100.411	19.916	25.288	0.582
214.000	159.409	80.005	20.009	100.404	19.915	25.490	0.557
214.500	159.651	80.005	20.009	100.389	19.913	25.803	0.548
215.000	159.932	80.005	20.009	100.378	19.912	25.871	0.529
215.500	160.221	80.005	20.009	100.370	19.911	26.145	0.546
216.000	160.423	80.005	20.009	100.376	19.910	26.306	0.530
216.500	160.716	80.005	20.009	100.388	19.911	26.072	0.493
217.000	160.975	80.004	20.009	100.403	19.910	26.194	0.524
217.500	161.167	80.005	20.009	100.416	19.909	26.441	0.502
218.001	161.487	80.005	20.009	100.423	19.913	25.788	0.482
218.500	161.749	80.004	20.009	100.423	19.912	25.999	0.547
219.000	162.067	80.006	20.010	100.421	19.908	26.520	0.581
219.500	162.286	80.004	20.009	100.426	19.908	26.632	0.558
220.000	162.570	80.006	20.009	100.432	19.906	26.845	0.520
220.500	162.830	80.005	20.009	100.441	19.906	26.802	0.524
221.000	163.117	80.006	20.008	100.447	19.905	27.027	0.545
221.500	163.395	80.006	20.009	100.446	19.908	26.559	0.555
222.000	163.643	80.004	20.009	100.434	19.905	27.061	0.546
222.500	163.872	80.005	20.009	100.419	19.901	27.684	0.502
223.000	164.133	80.005	20.009	100.406	19.901	27.674	0.484
223.501	164.467	80.006	20.009	100.398	19.900	27.833	0.542
224.001	164.692	80.005	20.009	100.399	19.899	27.920	0.577
224.500	164.960	80.005	20.009	100.410	19.901	27.666	0.526
225.000	165.189	80.005	20.009	100.420	19.898	28.125	0.495
225.500	165.471	80.005	20.009	100.423	19.898	28.198	0.503
226.000	165.750	80.006	20.009	100.416	19.896	28.485	0.536
226.500	165.992	80.006	20.009	100.411	19.898	28.098	0.542
227.000	166.244	80.005	20.009	100.404	19.895	28.587	0.508
227.500	166.539	80.005	20.009	100.401	19.896	28.405	0.520
228.000	166.833	80.005	20.010	100.407	19.897	28.311	0.568
228.500	167.086	80.007	20.009	100.422	19.895	28.622	0.568
229.000	167.323	80.005	20.009	100.426	19.896	28.493	0.518
229.500	167.559	80.006	20.009	100.425	19.897	28.279	0.482
230.000	167.758	80.005	20.009	100.419	19.893	28.876	0.454
230.501	168.026	80.004	20.009	100.408	19.896	28.463	0.451
231.000	168.351	80.006	20.009	100.398	19.894	28.762	0.530
231.500	168.549	80.006	20.009	100.399	19.894	28.788	0.558
232.000	168.859	80.005	20.009	100.402	19.893	28.955	0.515
232.500	169.105	80.005	20.009	100.410	19.895	28.601	0.532
233.000	169.374	80.004	20.009	100.420	19.893	28.871	0.536
233.500	169.586	80.004	20.009	100.421	19.891	29.191	0.498
234.000	169.908	80.005	20.009	100.415	19.894	28.801	0.508
234.500	170.195	80.006	20.010	100.411	19.895	28.678	0.572
235.000	170.451	80.005	20.009	100.405	19.892	29.005	0.576
235.500	170.712	80.005	20.009	100.403	19.893	28.950	0.530
236.000	170.943	80.005	20.009	100.403	19.894	28.756	0.505
236.500	171.212	80.006	20.009	100.411	19.892	29.008	0.497
237.000	171.456	80.005	20.009	100.413	19.894	28.741	0.506
237.500	171.758	80.005	20.009	100.411	19.895	28.615	0.529
238.000	172.019	80.006	20.009	100.406	19.896	28.496	0.554
238.500	172.231	80.005	20.009	100.405	19.894	28.768	0.518
239.000	172.461	80.005	20.009	100.404	19.895	28.545	0.458
239.500	172.762	80.005	20.010	100.405	19.898	28.061	0.487
240.000	173.090	80.004	20.009	100.412	19.895	28.539	0.580
240.500	173.304	80.006	20.009	100.416	19.896	28.489	0.585
241.000	173.568	80.005	20.009	100.414	19.894	28.701	0.510
241.500	173.799	80.006	20.009	100.406	19.896	28.397	0.486
242.000	174.074	80.004	20.010	100.398	19.897	28.279	0.501
242.500	174.358	80.004	20.009	100.395	19.898	28.153	0.533
243.000	174.581	80.006	20.009	100.396	19.901	27.654	0.533
243.500	174.829	80.004	20.009	100.399	19.902	27.565	0.489
244.000	175.107	80.006	20.009	100.406	19.901	27.579	0.498
244.500	175.356	80.005	20.009	100.414	19.904	27.221	0.526
245.000	175.659	80.006	20.009	100.416	19.907	26.698	0.540
245.500	175.885	80.005	20.009	100.415	19.907	26.677	0.540
246.000	176.138	80.005	20.009	100.415	19.905	27.075	0.504
246.500	176.395	80.003	20.009	100.414	19.905	26.954	0.495
247.000	176.680	80.006	20.009	100.415	19.906	26.929	0.527
247.500	176.915	80.004	20.009	100.415	19.904	27.244	0.531
248.000	177.202	80.007	20.009	100.416	19.905	26.978	0.521
248.500	177.440	80.005	20.009	100.412	19.907	26.787	0.524
249.000	177.701	80.006	20.009	100.407	19.908	26.590	0.512
249.500	177.958	80.005	20.010	100.402	19.909	26.414	0.509
250.000	178.192	80.006	20.009	100.402	19.912	26.004	0.504
250.500	178.491	80.004	20.010	100.405	19.909	26.446	0.512
251.000	178.713	80.006	20.009	100.410	19.910	26.270	0.527
251.500	178.969	80.005	20.009	100.414	19.912	25.972	0.500
252.001	179.227	80.004	20.009	100.417	19.914	25.689	0.496
252.500	179.464	80.005	20.009	100.415	19.912	25.871	0.504
253.000	179.763	80.004	20.009	100.409	19.913	25.740	0.515
253.500	180.004	80.005	20.009	100.408	19.914	25.648	0.538
254.000	180.327	80.005	20.009	100.415	19.914	25.694	0.552
254.500	180.525	80.004	20.009	100.425	19.919	24.869	0.543
255.000	180.773	80.005	20.009	100.433	19.916	25.310	0.484
255.500	181.053	80.005	20.009	100.435	19.918	25.053	0.487
256.000	181.273	80.005	20.009	100.428	19.920	24.683	0.514
256.500	181.541	80.006	20.010	100.418	19.920	24.750	0.494
257.000	181.779	80.005	20.009	100.411	19.919	24.763	0.497
257.500	182.002	80.004	20.009	100.406	19.920	24.599	0.483
258.000	182.271	80.005	20.009	100.409	19.922	24.350	0.476
258.500	182.530	80.005	20.009	100.418	19.921	24.561	0.510
259.000	182.847	80.005	20.009	100.421	19.922	24.387	0.552
259.500	183.026	80.004	20.009	100.418	19.925	23.903	0.536
260.000	183.316	80.006	20.009	100.409	19.925	23.808	0.482
260.500	183.563	80.005	20.009	100.405	19.928	23.399	0.503
261.000	183.875	80.004	20.010	100.409	19.925	23.857	0.549
261.500	184.073	80.005	20.010	100.417	19.926	23.795	0.535
262.000	184.351	80.005	20.009	100.429	19.931	22.909	0.493
262.500	184.610	80.005	20.009	100.442	19.932	22.788	0.506
263.000	184.844	80.005	20.009	100.445	19.929	23.220	0.515
263.500	185.093	80.005	20.009	100.438	19.935	22.303	0.488
264.000	185.304	80.005	20.009	100.430	19.933	22.668	0.472
264.500	185.577	80.004	20.009	100.423	19.934	22.497	0.472
265.000	185.863	80.005	20.009	100.426	19.934	22.522	0.521
265.500	186.096	80.004	20.009	100.435	19.937	21.955	0.539
266.000	186.341	80.004	20.009	100.445	19.940	21.463	0.499
266.500	186.615	80.005	20.009	100.451	19.940	21.486	0.499
267.000	186.825	80.005	20.009	100.458	19.941	21.406	0.502
267.500	187.094	80.004	20.010	100.457	19.941	21.343	0.481
268.000	187.361	80.005	20.009	100.457	19.943	21.001	0.507
268.500	187.591	80.005	20.009	100.458	19.944	20.965	0.516
269.000	187.878	80.005	20.009	100.460	19.941	21.388	0.507
269.500	188.140	80.005	20.009	100.461	19.944	20.929	0.533
270.000	188.379	80.003	20.009	100.461	19.944	20.854	0.525
270.500	188.618	80.006	20.009	100.456	19.943	21.076	0.490
271.000	188.840	80.006	20.010	100.448	19.944	20.866	0.470
271.500	189.100	80.005	20.009	100.440	19.944	20.931	0.471
272.000	189.386	80.005	20.010	100.436	19.946	20.527	0.514
272.500	189.641	80.006	20.009	100.437	19.948	20.277	0.544
273.000	189.856	80.004	20.009	100.441	19.950	19.922	0.506
273.500	190.143	80.004	20.009	100.449	19.950	19.991	0.486
274.000	190.356	80.004	20.009	100.451	19.950	20.006	0.501
274.500	190.583	80.006	20.009	100.445	19.950	19.897	0.469
275.000	190.868	80.005	20.009	100.437	19.950	19.901	0.476
275.500	191.132	80.004	20.009	100.430	19.950	19.908	0.531
276.000	191.359	80.005	20.009	100.423	19.949	20.078	0.520
276.500	191.629	80.005	20.009	100.425	19.950	20.006	0.494
277.000	191.882	80.005	20.009	100.433	19.952	19.677	0.510
277.500	192.077	80.005	20.009	100.442	19.952	19.562	0.486
278.000	192.343	80.005	20.009	100.449	19.954	19.387	0.455
278.500	192.616	80.005	20.009	100.450	19.955	19.196	0.500
279.000	192.889	80.006	20.010	100.445	19.956	19.045	0.542
279.500	193.101	80.003	20.010	100.444	19.954	19.363	0.515
280.000	193.347	80.006	20.009	100.445	19.956	19.029	0.471
280.500	193.618	80.004	20.009	100.445	19.956	19.078	0.487
281.000	193.855	80.004	20.009	100.452	19.956	18.987	0.512
281.500	194.117	80.005	20.009	100.458	19.957	18.783	0.504
282.000	194.388	80.004	20.009	100.452	19.959	18.494	0.516
282.500	194.631	80.004	20.009	100.443	19.957	18.768	0.523
283.000	194.836	80.004	20.009	100.435	19.960	18.448	0.481
283.500	195.143	80.004	20.009	100.429	19.960	18.303	0.480
284.000	195.354	80.005	20.009	100.429	19.958	18.651	0.515
284.500	195.612	80.005	20.009	100.436	19.960	18.342	0.493
285.000	195.896	80.006	20.009	100.437	19.958	18.612	0.506
285.500	196.154	80.005	20.010	100.437	19.962	17.995	0.542
286.000	196.391	80.005	20.009	100.432	19.963	17.843	0.518
286.500	196.632	80.004	20.009	100.423	19.962	18.028	0.487
287.000	196.883	80.005	20.009	100.414	19.965	17.581	0.485
287.500	197.104	80.003	20.009	100.420	19.964	17.743	0.482
288.000	197.383	80.004	20.009	100.425	19.964	17.769	0.486
288.500	197.661	80.006	20.009	100.428	19.966	17.445	0.529
289.000	197.961	80.005	20.009	100.424	19.964	17.723	0.568
289.500	198.183	80.005	20.009	100.417	19.966	17.384	0.550
290.000	198.407	80.005	20.009	100.404	19.966	17.372	0.484
290.500	198.714	80.005	20.010	100.398	19.967	17.309	0.488
291.000	198.919	80.004	20.009	100.405	19.966	17.489	0.521
291.500	199.136	80.006	20.009	100.418	19.965	17.642	0.467
292.000	199.382	80.005	20.009	100.432	19.969	17.019	0.443
292.500	199.677	80.005	20.009	100.439	19.970	16.864	0.502
293.000	199.894	80.005	20.009	100.438	19.968	17.109	0.526
293.500	200.189	80.005	20.009	100.431	19.969	16.910	0.512
294.000	200.451	80.005	20.009	100.422	19.970	16.837	0.535
294.500	200.717	80.004	20.009	100.421	19.969	16.925	0.543
295.000	200.917	80.004	20.009	100.427	19.967	17.218	0.497
295.500	201.186	80.004	20.009	100.432	19.966	17.380	0.467
296.000	201.457	80.005	20.009	100.431	19.968	17.092	0.504
296.500	201.678	80.004	20.009	100.424	19.969	16.930	0.516
297.000	201.894	80.006	20.009	100.411	19.970	16.817	0.464
297.500	202.205	80.006	20.009	100.400	19.969	16.954	0.482
298.000	202.473	80.004	20.009	100.397	19.969	16.917	0.553
298.500	202.720	80.005	20.009	100.398	19.968	17.073	0.547
299.000	202.989	80.004	20.009	100.406	19.969	17.008	0.515
299.500	203.209	80.005	20.009	100.414	19.970	16.774	0.502
300.000	203.495	80.006	20.009	100.413	19.969	16.898	0.497
300.500	203.747	80.004	20.009	100.405	19.968	17.084	0.522
301.000	203.997	80.005	20.009	100.402	19.966	17.501	0.520
301.500	204.305	80.004	20.009	100.402	19.967	17.209	0.530
302.000	204.540	80.004	20.009	100.408	19.968	17.114	0.551
302.500	204.760	80.006	20.009	100.414	19.968	17.174	0.499
303.000	205.070	80.004	20.009	100.423	19.969	16.877	0.493
303.500	205.322	80.005	20.009	100.426	19.967	17.261	0.546
304.000	205.538	80.005	20.009	100.425	19.970	16.786	0.515
304.500	205.818	80.005	20.010	100.420	19.970	16.784	0.482
305.000	206.043	80.004	20.009	100.427	19.972	16.430	0.500
305.500	206.324	80.006	20.010	100.434	19.972	16.458	0.505
306.000	206.572	80.005	20.009	100.443	19.971	16.617	0.517
306.500	206.823	80.005	20.009	100.450	19.972	16.517	0.514
307.000	207.070	80.004	20.009	100.451	19.973	16.344	0.499
307.500	207.324	80.005	20.009	100.444	19.973	16.395	0.499
308.000	207.579	80.005	20.009	100.436	19.971	16.633	0.504
308.500	207.835	80.005	20.009	100.428	19.971	16.596	0.510
309.000	208.092	80.005	20.009	100.424	19.972	16.402	0.512
309.500	208.360	80.005	20.009	100.429	19.969	17.027	0.519
310.000	208.624	80.005	20.009	100.434	19.973	16.323	0.528
310.500	208.863	80.005	20.009	100.435	19.972	16.500	0.517
311.000	209.122	80.005	20.009	100.434	19.969	16.877	0.501
311.500	209.341	80.005	20.009	100.429	19.969	16.928	0.488
312.000	209.606	80.004	20.009	100.422	19.972	16.534	0.481
312.500	209.868	80.005	20.009	100.419	19.970	16.867	0.506
313.000	210.162	80.003	20.009	100.418	19.974	16.169	0.541
313.500	210.410	80.005	20.009	100.418	19.971	16.645	0.549
314.000	210.629	80.005	20.009	100.413	19.972	16.532	0.505
314.500	210.868	80.005	20.009	100.406	19.970	16.774	0.463
315.000	211.143	80.006	20.010	100.397	19.971	16.669	0.486
315.500	211.401	80.005	20.009	100.394	19.967	17.237	0.523
316.000	211.653	80.004	20.009	100.394	19.971	16.713	0.521
316.500	211.850	80.005	20.009	100.400	19.972	16.478	0.480
317.000	212.130	80.005	20.009	100.407	19.970	16.756	0.464
317.500	212.395	80.006	20.009	100.414	19.971	16.612	0.511
318.001	212.636	80.004	20.009	100.412	19.971	16.636	0.525
318.500	212.832	80.005	20.009	100.404	19.969	16.955	0.471
319.000	213.163	80.005	20.009	100.397	19.971	16.640	0.482
319.500	213.379	80.004	20.009	100.397	19.971	16.687	0.537
320.000	213.674	80.004	20.009	100.397	19.971	16.603	0.529
320.500	213.923	80.005	20.009	100.404	19.971	16.675	0.528
321.000	214.126	80.005	20.009	100.411	19.970	16.724	0.498
321.500	214.450	80.004	20.009	100.411	19.975	15.957	0.489
322.000	214.692	80.004	20.010	100.403	19.971	16.598	0.546
322.500	214.961	80.005	20.010	100.394	19.970	16.756	0.538
323.000	215.252	80.006	20.009	100.390	19.969	16.946	0.536
323.500	215.487	80.004	20.009	100.390	19.971	16.592	0.543
324.000	215.744	80.004	20.009	100.397	19.970	16.867	0.509
324.500	215.964	80.007	20.009	100.399	19.969	16.906	0.485
325.001	216.234	80.004	20.009	100.399	19.970	16.726	0.483
325.500	216.464	80.005	20.009	100.394	19.970	16.720	0.495
326.000	216.742	80.005	20.009	100.387	19.972	16.441	0.504
326.500	217.021	80.005	20.009	100.381	19.970	16.736	0.533
327.000	217.232	80.004	20.009	100.387	19.969	16.876	0.523
327.500	217.488	80.005	20.009	100.397	19.972	16.448	0.478
328.000	217.759	80.004	20.009	100.408	19.971	16.627	0.497
328.500	218.014	80.006	20.009	100.413	19.974	16.236	0.527
329.000	218.277	80.004	20.009	100.411	19.969	16.950	0.522
329.500	218.525	80.005	20.009	100.399	19.969	16.898	0.514
330.000	218.778	80.005	20.009	100.389	19.972	16.509	0.506
330.500	219.009	80.004	20.009	100.385	19.971	16.602	0.493
331.000	219.258	80.006	20.009	100.391	19.972	16.445	0.482
331.500	219.518	80.004	20.009	100.400	19.973	16.274	0.495
332.000	219.790	80.005	20.009	100.414	19.974	16.239	0.520
332.500	220.058	80.005	20.009	100.417	19.972	16.512	0.536
333.000	220.348	80.005	20.009	100.411	19.971	16.704	0.549
333.500	220.609	80.006	20.009	100.402	19.974	16.228	0.555
334.000	220.785	80.006	20.010	100.397	19.972	16.523	0.495
334.500	221.006	80.004	20.009	100.396	19.973	16.317	0.417
335.000	221.337	80.006	20.009	100.401	19.972	16.444	0.474
335.500	221.589	80.005	20.009	100.407	19.970	16.807	0.568
336.000	221.760	80.005	20.009	100.408	19.977	15.750	0.503
336.500	222.058	80.005	20.009	100.402	19.973	16.258	0.445
337.000	222.300	80.005	20.009	100.394	19.974	16.232	0.505
337.500	222.603	80.004	20.010	100.388	19.974	16.092	0.543
338.000	222.812	80.006	20.009	100.387	19.977	15.693	0.528
338.500	223.051	80.005	20.009	100.392	19.972	16.402	0.480
339.000	223.350	80.006	20.009	100.401	19.974	16.147	0.493
339.500	223.563	80.005	20.009	100.407	19.976	15.908	0.525
340.000	223.801	80.004	20.009	100.407	19.976	15.789	0.482
340.500	224.082	80.004	20.009	100.402	19.976	15.800	0.485
341.000	224.281	80.005	20.010	100.396	19.978	15.551	0.499
341.500	224.508	80.004	20.009	100.388	19.975	15.991	0.453
342.000	224.838	80.006	20.009	100.390	19.978	15.506	0.491
342.500	225.062	80.004	20.009	100.397	19.979	15.411	0.555
343.000	225.361	80.006	20.009	100.405	19.978	15.554	0.538
343.500	225.539	80.006	20.009	100.405	19.978	15.502	0.500
344.000	225.822	80.004	20.009	100.405	19.977	15.735	0.469
344.500	226.100	80.006	20.009	100.396	19.980	15.230	0.511
345.000	226.323	80.005	20.009	100.388	19.979	15.438	0.531
345.500	226.580	80.005	20.009	100.387	19.977	15.692	0.490
346.000	226.806	80.005	20.009	100.394	19.979	15.409	0.481
346.500	227.073	80.005	20.009	100.403	19.982	14.971	0.488
347.000	227.364	80.005	20.009	100.411	19.979	15.421	0.525
347.500	227.629	80.006	20.009	100.418	19.979	15.438	0.557
348.000	227.839	80.004	20.009	100.417	19.980	15.210	0.515
348.500	228.170	80.006	20.010	100.417	19.980	15.156	0.508
349.001	228.369	80.005	20.009	100.417	19.978	15.467	0.536
349.500	228.602	80.005	20.009	100.424	19.982	14.980	0.481
350.000	228.843	80.005	20.008	100.426	19.981	15.046	0.452
350.500	229.099	80.005	20.009	100.426	19.980	15.285	0.486
351.000	229.368	80.005	20.009	100.417	19.983	14.695	0.511
351.500	229.622	80.006	20.009	100.408	19.979	15.342	0.524
352.000	229.897	80.005	20.010	100.394	19.979	15.381	0.526
352.500	230.133	80.004	20.009	100.384	19.978	15.605	0.521
353.000	230.436	80.005	20.009	100.386	19.980	15.146	0.525
353.500	230.626	80.005	20.009	100.394	19.978	15.605	0.516
354.000	230.894	80.005	20.009	100.402	19.982	14.974	0.475
354.500	231.127	80.005	20.010	100.402	19.983	14.792	0.479
355.000	231.342	80.005	20.009	100.394	19.981	15.069	0.475
355.500	231.640	80.006	20.009	100.378	19.983	14.802	0.481
356.000	231.895	80.005	20.010	100.360	19.984	14.537	0.533
356.500	232.164	80.004	20.009	100.345	19.981	14.988	0.538
357.000	232.406	80.007	20.009	100.342	19.983	14.724	0.517
357.500	232.672	80.004	20.009	100.351	19.982	14.847	0.510
358.000	232.884	80.006	20.009	100.359	19.983	14.776	0.494
358.500	233.211	80.005	20.009	100.364	19.982	14.903	0.509
359.000	233.409	80.005	20.009	100.365	19.981	15.123	0.532
359.501	233.658	80.005	20.009	100.361	19.980	15.261	0.486
360.000	233.885	80.005	20.010	100.361	19.981	15.072	0.461
360.500	234.171	80.005	20.009	100.364	19.984	14.554	0.494
361.001	234.430	80.005	20.009	100.378	19.984	14.523	0.529
361.500	234.647	80.005	20.009	100.393	19.983	14.696	0.511
362.000	234.906	80.005	20.009	100.399	19.986	14.268	0.476
362.500	235.159	80.006	20.009	100.399	19.986	14.319	0.494
363.000	235.379	80.004	20.009	100.395	19.986	14.346	0.493
363.500	235.602	80.005	20.009	100.386	19.981	15.027	0.458
364.000	235.825	80.006	20.009	100.383	19.983	14.777	0.444
364.500	236.125	80.005	20.009	100.390	19.981	15.089	0.485
365.000	236.350	80.006	20.009	100.400	19.983	14.804	0.524
365.500	236.634	80.005	20.009	100.409	19.986	14.226	0.517
366.000	236.930	80.006	20.009	100.414	19.985	14.426	0.544
366.500	237.080	80.006	20.009	100.408	19.985	14.444	0.513
367.000	237.402	80.005	20.009	100.401	19.986	14.245	0.459
367.500	237.648	80.005	20.009	100.392	19.986	14.213	0.520
368.000	237.846	80.006	20.009	100.388	19.982	14.896	0.506
368.500	238.157	80.005	20.009	100.390	19.982	14.883	0.477
369.000	238.411	80.005	20.009	100.398	19.985	14.452	0.537
369.500	238.638	80.006	20.009	100.404	19.985	14.425	0.523
370.000	238.921	80.004	20.010	100.403	19.984	14.533	0.495
370.500	239.150	80.006	20.009	100.399	19.985	14.447	0.510
371.000	239.440	80.005	20.009	100.395	19.984	14.525	0.515
371.500	239.667	80.005	20.009	100.394	19.984	14.632	0.518
372.000	239.962	80.005	20.009	100.394	19.983	14.815	0.520
372.500	240.201	80.005	20.009	100.402	19.983	14.733	0.528
373.000	240.380	80.005	20.009	100.407	19.982	14.902	0.476
373.500	240.696	80.005	20.009	100.406	19.981	15.005	0.456
374.000	240.956	80.005	20.009	100.400	19.982	14.879	0.536
374.500	241.168	80.005	20.010	100.393	19.980	15.140	0.524
375.000	241.362	80.005	20.009	100.389	19.981	15.005	0.438
375.500	241.652	80.006	20.009	100.389	19.984	14.571	0.445
376.000	241.975	80.005	20.009	100.396	19.982	14.914	0.549
376.500	242.217	80.005	20.010	100.397	19.982	14.846	0.590
377.000	242.431	80.006	20.010	100.398	19.980	15.226	0.511
377.500	242.720	80.006	20.009	100.392	19.983	14.763	0.479
378.000	243.039	80.005	20.009	100.381	19.984	14.540	0.556
378.500	243.328	80.005	20.009	100.373	19.983	14.761	0.608
379.000	243.528	80.004	20.009	100.373	19.981	14.986	0.548
379.500	243.788	80.006	20.009	100.378	19.983	14.821	0.474
380.000	243.985	80.005	20.009	100.388	19.984	14.513	0.458
380.500	244.221	80.004	20.008	100.394	19.984	14.558	0.445
381.000	244.544	80.005	20.009	100.394	19.980	15.144	0.496
381.500	244.771	80.005	20.009	100.394	19.984	14.636	0.555
382.000	245.089	80.004	20.010	100.388	19.985	14.411	0.547
382.500	245.357	80.005	20.009	100.386	19.983	14.782	0.565
383.000	245.570	80.006	20.009	100.393	19.984	14.664	0.534
383.500	245.851	80.005	20.009	100.401	19.984	14.524	0.488
384.000	246.077	80.006	20.009	100.408	19.982	14.864	0.501
384.500	246.278	80.004	20.009	100.411	19.986	14.271	0.467
385.000	246.586	80.006	20.009	100.406	19.987	14.110	0.468
385.500	246.901	80.005	20.009	100.399	19.984	14.535	0.566
386.000	247.127	80.006	20.009	100.391	19.984	14.512	0.582
386.500	247.355	80.005	20.009	100.387	19.987	14.062	0.498
387.000	247.650	80.007	20.009	100.392	19.984	14.662	0.488
387.500	247.867	80.005	20.009	100.400	19.985	14.491	0.517
388.000	248.133	80.006	20.009	100.406	19.986	14.266	0.497
388.500	248.352	80.004	20.009	100.408	19.986	14.272	0.484
389.000	248.645	80.006	20.009	100.403	19.981	15.105	0.498
389.500	248.806	80.005	20.010	100.396	19.981	15.002	0.482
390.000	249.124	80.004	20.009	100.394	19.983	14.686	0.467
390.500	249.308	80.006	20.009	100.394	19.983	14.759	0.491
391.000	249.619	80.005	20.009	100.399	19.982	14.959	0.498
391.500	249.933	80.005	20.009	100.407	19.981	15.021	0.560
392.000	250.136	80.006	20.009	100.412	19.980	15.145	0.571
392.500	250.371	80.005	20.009	100.408	19.981	15.051	0.478
393.000	250.646	80.005	20.009	100.397	19.983	14.801	0.474
393.500	250.913	80.005	20.010	100.384	19.982	14.956	0.526
394.000	251.188	80.005	20.009	100.377	19.982	14.838	0.542
394.500	251.447	80.005	20.009	100.374	19.984	14.592	0.538
395.000	251.659	80.005	20.009	100.380	19.982	14.871	0.503
395.500	251.915	80.006	20.009	100.391	19.981	15.087	0.470
396.000	252.194	80.003	20.009	100.401	19.984	14.582	0.501
396.500	252.419	80.005	20.009	100.405	19.979	15.322	0.519
397.000	252.645	80.004	20.009	100.404	19.977	15.756	0.477
397.500	252.928	80.007	20.009	100.403	19.980	15.278	0.480
398.000	253.180	80.003	20.009	100.404	19.980	15.163	0.522
398.500	253.413	80.005	20.009	100.408	19.979	15.390	0.510
399.000	253.697	80.005	20.009	100.412	19.981	15.133	0.501
399.500	253.921	80.005	20.009	100.416	19.979	15.431	0.513
400.000	254.200	80.005	20.009	100.410	19.976	15.853	0.506
400.500	254.464	80.004	20.009	100.403	19.978	15.605	0.523
401.000	254.695	80.005	20.009	100.396	19.979	15.325	0.518
401.500	254.955	80.005	20.009	100.388	19.977	15.719	0.493
402.000	255.221	80.004	20.009	100.383	19.974	16.193	0.509
402.500	255.513	80.006	20.009	100.389	19.972	16.429	0.542
403.000	255.714	80.005	20.009	100.394	19.972	16.428	0.525
403.500	255.982	80.005	20.009	100.394	19.975	16.040	0.481
404.000	256.219	80.005	20.009	100.389	19.974	16.176	0.487
404.500	256.470	80.005	20.009	100.381	19.973	16.250	0.497
405.000	256.695	80.005	20.009	100.365	19.973	16.348	0.482
405.500	256.920	80.005	20.009	100.358	19.971	16.686	0.463
406.000	257.198	80.005	20.009	100.361	19.972	16.470	0.476
406.500	257.497	80.004	20.008	100.371	19.974	16.226	0.540
407.000	257.710	80.006	20.009	100.382	19.971	16.585	0.545
407.500	257.966	80.005	20.009	100.389	19.971	16.637	0.490
408.000	258.194	80.005	20.009	100.383	19.971	16.577	0.477
408.500	258.493	80.005	20.009	100.374	19.973	16.301	0.506
409.000	258.713	80.005	20.009	100.367	19.971	16.559	0.523
409.500	258.963	80.005	20.009	100.365	19.972	16.454	0.495
410.000	259.232	80.006	20.009	100.371	19.971	16.638	0.495
410.500	259.475	80.004	20.009	100.385	19.971	16.610	0.515
411.000	259.722	80.004	20.009	100.396	19.969	16.869	0.500
411.500	260.006	80.007	20.009	100.397	19.969	17.011	0.510
412.000	260.272	80.005	20.009	100.392	19.970	16.810	0.541
412.500	260.519	80.005	20.009	100.381	19.970	16.733	0.532
413.000	260.696	80.006	20.009	100.370	19.971	16.641	0.469
413.500	260.991	80.004	20.009	100.363	19.966	17.389	0.448
414.000	261.257	80.005	20.009	100.363	19.970	16.802	0.516
414.500	261.542	80.005	20.009	100.366	19.969	16.999	0.556
415.000	261.772	80.005	20.009	100.370	19.970	16.781	0.533
415.500	262.026	80.005	20.009	100.367	19.967	17.200	0.500
416.000	262.259	80.004	20.009	100.360	19.969	16.963	0.486
416.500	262.489	80.007	20.009	100.353	19.969	16.991	0.475
417.000	262.800	80.005	20.009	100.350	19.966	17.409	0.502
417.500	263.010	80.005	20.009	100.352	19.965	17.540	0.531
418.000	263.228	80.005	20.008	100.361	19.966	17.480	0.475
418.500	263.510	80.005	20.009	100.369	19.963	17.885	0.464
419.000	263.720	80.004	20.009	100.375	19.961	18.130	0.496
419.500	263.989	80.006	20.009	100.370	19.964	17.726	0.486
420.000	264.245	80.005	20.009	100.362	19.963	17.808	0.502
420.500	264.487	80.006	20.009	100.356	19.962	18.005	0.511
421.000	264.733	80.004	20.008	100.356	19.961	18.206	0.493
421.500	264.997	80.005	20.009	100.357	19.964	17.792	0.499
422.001	265.255	80.003	20.009	100.365	19.962	18.082	0.516
422.500	265.496	80.004	20.009	100.374	19.960	18.378	0.510
423.000	265.760	80.005	20.008	100.379	19.961	18.261	0.503
423.500	266.046	80.004	20.009	100.374	19.959	18.566	0.528
424.000	266.296	80.006	20.009	100.366	19.958	18.622	0.543
424.500	266.583	80.004	20.009	100.357	19.959	18.576	0.536
425.000	266.786	80.004	20.009	100.350	19.957	18.805	0.513
425.500	267.021	80.005	20.009	100.350	19.957	18.836	0.464
426.000	267.313	80.005	20.009	100.356	19.954	19.314	0.482
426.500	267.538	80.005	20.009	100.363	19.956	19.036	0.522
427.001	267.787	80.004	20.008	100.366	19.953	19.425	0.496
427.500	268.059	80.005	20.009	100.364	19.954	19.277	0.498
428.000	268.345	80.005	20.009	100.356	19.951	19.702	0.540
428.500	268.549	80.005	20.009	100.351	19.955	19.108	0.524
429.000	268.857	80.005	20.009	100.352	19.953	19.429	0.501
429.500	269.097	80.006	20.009	100.358	19.952	19.664	0.530
430.000	269.396	80.005	20.009	100.366	19.952	19.636	0.544
430.500	269.618	80.005	20.008	100.373	19.953	19.442	0.530
431.000	269.871	80.004	20.009	100.371	19.954	19.265	0.498
431.500	270.086	80.004	20.009	100.364	19.951	19.734	0.471
432.000	270.355	80.005	20.009	100.354	19.948	20.192	0.476
432.500	270.634	80.006	20.009	100.347	19.949	20.156	0.516
433.000	270.885	80.004	20.009	100.339	19.947	20.431	0.539
433.500	271.160	80.006	20.009	100.345	19.947	20.460	0.528
434.000	271.437	80.006	20.009	100.352	19.944	20.837	0.539
434.500	271.641	80.005	20.008	100.361	19.942	21.160	0.516
435.000	271.876	80.006	20.009	100.363	19.942	21.191	0.460
435.500	272.095	80.005	20.009	100.362	19.942	21.118	0.447
436.000	272.374	80.004	20.009	100.355	19.943	21.080	0.476
436.500	272.644	80.006	20.009	100.348	19.941	21.326	0.524
437.000	272.901	80.003	20.010	100.345	19.942	21.138	0.538
437.500	273.119	80.005	20.008	100.352	19.940	21.447	0.501
438.000	273.423	80.004	20.008	100.361	19.939	21.725	0.499
438.500	273.653	80.005	20.009	100.369	19.939	21.648	0.528
439.000	273.867	80.005	20.008	100.374	19.937	21.989	0.489
439.500	274.147	80.005	20.009	100.369	19.936	22.203	0.469
440.000	274.372	80.006	20.009	100.361	19.935	22.332	0.500
440.500	274.612	80.003	20.009	100.352	19.934	22.479	0.485
441.000	274.833	80.006	20.009	100.345	19.933	22.664	0.463
441.500	275.084	80.005	20.009	100.342	19.931	22.871	0.467
442.000	275.329	80.006	20.009	100.350	19.934	22.417	0.484
442.500	275.556	80.003	20.009	100.358	19.931	22.960	0.484
443.000	275.867	80.005	20.008	100.365	19.933	22.666	0.505
443.500	276.134	80.006	20.009	100.364	19.931	22.947	0.558
444.000	276.346	80.005	20.009	100.362	19.930	23.066	0.529
444.500	276.618	80.006	20.009	100.354	19.930	23.059	0.481
445.000	276.909	80.005	20.010	100.348	19.928	23.318	0.523
445.500	277.134	80.006	20.009	100.350	19.929	23.190	0.539
446.000	277.373	80.006	20.009	100.359	19.929	23.314	0.490
446.500	277.696	80.005	20.009	100.368	19.925	23.867	0.513
447.000	277.925	80.004	20.009	100.370	19.924	23.944	0.557
447.500	278.147	80.006	20.009	100.369	19.928	23.410	0.502
448.000	278.413	80.006	20.009	100.356	19.923	24.148	0.469
448.500	278.619	80.004	20.009	100.344	19.923	24.214	0.480
449.000	278.852	80.005	20.009	100.335	19.923	24.222	0.456
449.500	279.122	80.004	20.009	100.336	19.921	24.482	0.471
450.000	279.292	80.004	20.009	100.343	19.918	24.957	0.472
450.500	279.612	80.005	20.008	100.356	19.920	24.673	0.465
451.000	279.865	80.006	20.009	100.361	19.917	25.051	0.531
451.500	280.104	80.005	20.009	100.360	19.918	25.004	0.532
452.000	280.359	80.004	20.010	100.350	19.918	24.972	0.492
452.500	280.558	80.005	20.009	100.337	19.914	25.588	0.474
453.000	280.888	80.005	20.009	100.330	19.915	25.450	0.492
453.500	281.101	80.005	20.009	100.332	19.917	25.082	0.536
454.000	281.367	80.006	20.009	100.342	19.915	25.411	0.511
454.500	281.597	80.004	20.009	100.356	19.914	25.623	0.488
455.000	281.812	80.004	20.009	100.367	19.912	25.890	0.470
455.500	282.102	80.005	20.009	100.369	19.912	25.961	0.475
456.000	282.357	80.005	20.009	100.364	19.914	25.567	0.525
456.500	282.588	80.005	20.009	100.356	19.913	25.707	0.516
457.000	282.822	80.004	20.009	100.348	19.914	25.572	0.475
457.500	283.144	80.005	20.009	100.349	19.911	26.050	0.510
458.000	283.370	80.004	20.009	100.357	19.912	25.979	0.552
458.500	283.612	80.004	20.009	100.365	19.910	26.264	0.508
459.000	283.851	80.005	20.009	100.369	19.906	26.798	0.474
459.500	284.122	80.005	20.009	100.367	19.904	27.219	0.495
460.000	284.367	80.004	20.009	100.354	19.907	26.672	0.513
460.500	284.620	80.004	20.009	100.338	19.903	27.262	0.507
461.000	284.857	80.006	20.009	100.329	19.903	27.379	0.494
461.500	285.144	80.004	20.009	100.326	19.902	27.521	0.507
462.000	285.400	80.004	20.009	100.334	19.905	27.069	0.534
462.500	285.640	80.005	20.009	100.346	19.904	27.106	0.520
463.000	285.866	80.004	20.009	100.355	19.901	27.637	0.481
463.500	286.138	80.006	20.009	100.350	19.900	27.783	0.482
464.000	286.376	80.004	20.009	100.343	19.903	27.290	0.504
464.500	286.638	80.004	20.009	100.328	19.900	27.741	0.505
465.000	286.905	80.005	20.009	100.320	19.901	27.693	0.515
465.500	287.159	80.004	20.009	100.318	19.900	27.735	0.525
466.000	287.410	80.006	20.009	100.326	19.897	28.275	0.513
466.500	287.616	80.004	20.009	100.335	19.899	28.014	0.481
467.000	287.870	80.005	20.009	100.342	19.900	27.746	0.459
467.500	288.145	80.003	20.009	100.336	19.899	27.950	0.495
468.000	288.416	80.004	20.009	100.328	19.895	28.563	0.538
468.500	288.604	80.005	20.009	100.319	19.895	28.623	0.503
469.000	288.864	80.004	20.008	100.314	19.897	28.264	0.453
469.500	289.141	80.004	20.009	100.314	19.894	28.749	0.492
470.000	289.398	80.004	20.009	100.321	19.893	28.922	0.535
470.500	289.649	80.005	20.009	100.329	19.895	28.595	0.521
471.000	289.891	80.005	20.008	100.334	19.894	28.694	0.500
471.500	290.178	80.004	20.009	100.329	19.893	28.961	0.511
472.000	290.429	80.004	20.009	100.322	19.892	29.070	0.534
472.500	290.649	80.005	20.009	100.314	19.894	28.725	0.504
473.000	290.960	80.004	20.009	100.310	19.890	29.374	0.501
473.500	291.191	80.006	20.009	100.312	19.891	29.278	0.537
474.000	291.426	80.005	20.009	100.323	19.890	29.361	0.504
474.500	291.672	80.005	20.009	100.330	19.889	29.455	0.473
475.000	291.908	80.004	20.009	100.336	19.890	29.321	0.482
475.500	292.142	80.004	20.009	100.336	19.888	29.696	0.476
476.000	292.377	80.005	20.009	100.331	19.888	29.679	0.469
476.500	292.630	80.005	20.009	100.328	19.889	29.465	0.478
477.000	292.873	80.005	20.009	100.329	19.888	29.639	0.492
477.500	293.134	80.006	20.009	100.334	19.889	29.530	0.500
478.000	293.385	80.004	20.009	100.340	19.890	29.387	0.508
478.500	293.695	80.006	20.009	100.345	19.887	29.833	0.537
479.000	293.899	80.005	20.009	100.345	19.888	29.711	0.538
479.500	294.156	80.005	20.009	100.341	19.890	29.352	0.487
480.000	294.414	80.004	20.009	100.340	19.888	29.736	0.487
480.501	294.636	80.005	20.009	100.341	19.889	29.575	0.497
481.000	294.884	80.004	20.009	100.350	19.890	29.307	0.475
481.500	295.163	80.006	20.009	100.365	19.890	29.323	0.499
482.000	295.404	80.005	20.009	100.377	19.891	29.193	0.523
482.500	295.629	80.006	20.009	100.384	19.889	29.533	0.493
483.000	295.931	80.005	20.009	100.383	19.892	29.040	0.497
483.500	296.150	80.004	20.009	100.371	19.890	29.378	0.524
484.000	296.377	80.006	20.009	100.355	19.890	29.308	0.484
484.500	296.672	80.006	20.009	100.346	19.889	29.510	0.484
485.000	296.905	80.005	20.009	100.341	19.888	29.682	0.525
485.500	297.156	80.006	20.009	100.346	19.887	29.823	0.506
486.000	297.407	80.004	20.009	100.355	19.886	29.974	0.493
486.500	297.638	80.006	20.009	100.358	19.885	30.157	0.492
487.000	297.901	80.006	20.009	100.357	19.886	30.054	0.488
487.500	298.152	80.005	20.009	100.347	19.884	30.248	0.504
488.000	298.421	80.005	20.010	100.333	19.884	30.317	0.517
488.500	298.649	80.005	20.009	100.326	19.882	30.599	0.508
489.000	298.892	80.005	20.009	100.327	19.885	30.128	0.484
489.500	299.137	80.005	20.009	100.334	19.883	30.556	0.480
490.000	299.383	80.006	20.009	100.350	19.885	30.130	0.490
490.500	299.656	80.004	20.009	100.362	19.883	30.454	0.505
491.000	299.870	80.005	20.009	100.363	19.882	30.597	0.503
491.500	300.108	80.006	20.010	100.362	19.882	30.634	0.469
492.000	300.371	80.005	20.009	100.355	19.880	30.949	0.476
492.500	300.629	80.005	20.009	100.347	19.882	30.611	0.511
493.000	300.908	80.005	20.009	100.340	19.881	30.789	0.529
493.500	301.135	80.004	20.009	100.347	19.880	30.908	0.521
494.000	301.397	80.004	20.008	100.355	19.880	30.875	0.497
494.500	301.620	80.006	20.009	100.362	19.878	31.338	0.487
495.000	301.912	80.004	20.009	100.362	19.877	31.485	0.500
495.500	302.186	80.005	20.009	100.361	19.877	31.469	0.540
496.000	302.413	80.005	20.009	100.353	19.874	31.931	0.534
496.500	302.627	80.005	20.009	100.346	19.876	31.616	0.471
497.000	302.944	80.005	20.009	100.347	19.871	32.425	0.486
497.500	303.152	80.004	20.009	100.354	19.871	32.303	0.528
498.000	303.452	80.006	20.009	100.360	19.870	32.443	0.516
498.500	303.658	80.004	20.009	100.363	19.873	31.992	0.507
499.000	303.950	80.005	20.009	100.364	19.869	32.616	0.502
499.500	304.154	80.006	20.009	100.364	19.866	33.159	0.497
500.000	304.420	80.005	20.009	100.365	19.867	33.068	0.483
500.500	304.712	80.005	20.009	100.367	19.866	33.103	0.514
501.000	304.915	80.006	20.009	100.375	19.865	33.296	0.526
501.500	305.189	80.005	20.009	100.382	19.865	33.343	0.486
502.000	305.402	80.005	20.009	100.380	19.863	33.583	0.482
502.501	305.648	80.006	20.010	100.372	19.864	33.514	0.473
503.001	305.860	80.005	20.009	100.364	19.861	33.921	0.459
503.500	306.130	80.005	20.010	100.356	19.860	34.157	0.470
504.000	306.367	80.004	20.010	100.353	19.860	34.051	0.494
504.500	306.634	80.005	20.011	100.355	19.857	34.525	0.506
505.000	306.881	80.005	20.009	100.360	19.857	34.495	0.509
505.500	307.204	80.006	20.009	100.367	19.854	34.991	0.542
506.000	307.425	80.003	20.009	100.371	19.855	34.874	0.557
506.500	307.649	80.006	20.009	100.366	19.852	35.333	0.494
507.000	307.937	80.005	20.009	100.359	19.849	35.746	0.479
507.500	308.152	80.005	20.009	100.356	19.848	35.919	0.508
508.000	308.404	80.004	20.009	100.357	19.845	36.408	0.485
508.500	308.656	80.004	20.009	100.360	19.843	36.779	0.485
509.000	308.907	80.005	20.008	100.368	19.842	36.886	0.504
509.500	309.162	80.004	20.008	100.371	19.843	36.826	0.504
510.000	309.390	80.005	20.009	100.369	19.837	37.743	0.494
510.501	309.610	80.006	20.009	100.361	19.836	37.838	0.465
511.000	309.884	80.004	20.009	100.353	19.835	37.981	0.471
511.500	310.104	80.005	20.009	100.348	19.832	38.524	0.494
512.000	310.384	80.005	20.008	100.352	19.830	38.874	0.497
512.500	310.612	80.006	20.009	100.359	19.830	38.867	0.504
513.000	310.853	80.004	20.009	100.368	19.826	39.358	0.489
513.500	311.103	80.005	20.009	100.373	19.825	39.522	0.481
514.000	311.313	80.004	20.008	100.370	19.821	40.271	0.476
514.500	311.634	80.006	20.009	100.362	19.820	40.404	0.495
515.000	311.866	80.004	20.009	100.352	19.816	40.983	0.542
515.501	312.088	80.005	20.009	100.345	19.814	41.368	0.504
516.000	312.362	80.005	20.009	100.344	19.810	41.981	0.475
516.500	312.596	80.005	20.009	100.352	19.808	42.180	0.502
517.000	312.827	80.006	20.009	100.356	19.806	42.513	0.486
517.500	313.112	80.006	20.009	100.359	19.803	43.039	0.491
518.000	313.379	80.006	20.009	100.357	19.799	43.634	0.534
518.500	313.608	80.005	20.009	100.346	19.796	44.196	0.524
519.000	313.828	80.006	20.009	100.335	19.795	44.264	0.473
519.500	314.103	80.005	20.009	100.332	19.791	45.003	0.472
520.000	314.363	80.005	20.008	100.331	19.789	45.212	0.515
520.500	314.609	80.005	20.009	100.331	19.786	45.701	0.520
521.000	314.851	80.004	20.009	100.337	19.782	46.385	0.497
521.500	315.096	80.007	20.009	100.332	19.779	46.835	0.487
522.000	315.372	80.004	20.009	100.323	19.772	47.930	0.504
522.500	315.574	80.005	20.009	100.315	19.771	48.028	0.499
523.000	315.827	80.005	20.009	100.308	19.768	48.578	0.466
523.500	316.082	80.005	20.009	100.304	19.764	49.190	0.482
524.000	316.275	80.005	20.009	100.312	19.760	49.767	0.478
524.500	316.586	80.006	20.009	100.319	19.758	50.122	0.476
525.000	316.823	80.005	20.009	100.320	19.754	50.706	0.526
525.500	317.085	80.004	20.009	100.320	19.753	50.954	0.524
526.000	317.298	80.005	20.010	100.313	19.749	51.474	0.487
526.500	317.529	80.006	20.009	100.299	19.745	52.068	0.460
527.000	317.802	80.006	20.009	100.288	19.744	52.301	0.474
527.500	318.069	80.003	20.009	100.287	19.737	53.352	0.522
528.000	318.313	80.005	20.009	100.294	19.734	53.842	0.525
528.501	318.573	80.005	20.008	100.300	19.734	53.958	0.507
529.000	318.800	80.005	20.008	100.306	19.729	54.712	0.495
529.500	319.086	80.004	20.009	100.305	19.721	55.867	0.500
530.000	319.289	80.005	20.009	100.298	19.719	56.192	0.501
530.500	319.557	80.004	20.009	100.288	19.716	56.685	0.480
531.000	319.800	80.004	20.009	100.284	19.711	57.558	0.491
531.500	320.063	80.004	20.009	100.289	19.708	57.909	0.508
532.000	320.306	80.005	20.008	100.301	19.706	58.223	0.506
532.500	320.541	80.004	20.009	100.315	19.703	58.832	0.492
533.000	320.800	80.005	20.008	100.321	19.697	59.713	0.486
533.500	321.038	80.005	20.009	100.319	19.692	60.415	0.496
534.000	321.286	80.005	20.009	100.307	19.689	60.933	0.491
534.500	321.528	80.004	20.009	100.292	19.683	61.863	0.487
535.000	321.784	80.004	20.009	100.282	19.678	62.655	0.494
535.500	322.051	80.005	20.009	100.280	19.675	63.219	0.511
536.000	322.326	80.005	20.008	100.287	19.669	64.032	0.533
536.500	322.542	80.005	20.009	100.298	19.664	64.874	0.517
537.000	322.815	80.005	20.009	100.306	19.660	65.565	0.490
537.500	323.093	80.003	20.009	100.302	19.657	65.954	0.520
538.000	323.272	80.006	20.009	100.292	19.648	67.345	0.504
538.500	323.578	80.005	20.009	100.276	19.645	67.877	0.471
539.000	323.807	80.005	20.009	100.264	19.641	68.480	0.510
539.500	324.053	80.005	20.010	100.260	19.634	69.558	0.505
540.000	324.285	80.005	20.009	100.266	19.627	70.658	0.476
540.500	324.514	80.004	20.009	100.275	19.623	71.304	0.469
541.000	324.824	80.006	20.008	100.287	19.622	71.503	0.500
541.500	325.049	80.005	20.009	100.288	19.616	72.359	0.537
542.000	325.306	80.005	20.009	100.284	19.611	73.223	0.508
542.500	325.576	80.005	20.009	100.276	19.606	73.928	0.504
543.000	325.788	80.005	20.009	100.272	19.600	74.947	0.504
543.500	326.076	80.005	20.009	100.273	19.595	75.740	0.491
544.000	326.289	80.004	20.009	100.280	19.592	76.245	0.501
544.500	326.587	80.006	20.009	100.288	19.585	77.288	0.506
545.000	326.806	80.005	20.009	100.294	19.579	78.193	0.515
545.500	327.094	80.005	20.009	100.293	19.573	79.139	0.512
546.000	327.309	80.006	20.009	100.285	19.569	79.762	0.505
546.500	327.541	80.005	20.009	100.278	19.563	80.690	0.475
547.000	327.812	80.006	20.009	100.269	19.557	81.757	0.475
547.500	328.073	80.006	20.009	100.265	19.553	82.319	0.517
548.000	328.350	80.005	20.009	100.270	19.546	83.380	0.535
548.500	328.618	80.005	20.008	100.277	19.542	83.978	0.541
549.000	328.866	80.004	20.009	100.277	19.535	85.190	0.531
549.500	329.086	80.005	20.009	100.276	19.531	85.720	0.492
550.000	329.355	80.006	20.009	100.273	19.523	87.073	0.478
550.500	329.629	80.005	20.010	100.263	19.517	88.040	0.516
551.000	329.853	80.005	20.009	100.256	19.514	88.435	0.520
551.500	330.145	80.005	20.009	100.260	19.505	89.944	0.507
552.000	330.353	80.005	20.009	100.269	19.502	90.341	0.508
552.500	330.603	80.006	20.009	100.278	19.500	90.690	0.479
553.000	330.848	80.005	20.009	100.284	19.489	92.420	0.477
553.500	331.121	80.005	20.009	100.283	19.481	93.556	0.506
554.000	331.348	80.005	20.009	100.277	19.477	94.248	0.509
554.500	331.622	80.005	20.009	100.269	19.473	94.822	0.501
555.000	331.851	80.006	20.009	100.261	19.468	95.715	0.502
555.500	332.127	80.005	20.009	100.260	19.462	96.706	0.504
556.000	332.387	80.005	20.009	100.268	19.456	97.587	0.520
556.500	332.617	80.005	20.009	100.278	19.448	98.801	0.513
557.000	332.863	80.006	20.009	100.281	19.439	100.204	0.483
557.500	333.142	80.005	20.009	100.280	19.437	100.551	0.500
558.000	333.359	80.004	20.010	100.276	19.430	101.672	0.510
558.500	333.578	80.005	20.009	100.267	19.425	102.434	0.466
559.000	333.828	80.005	20.009	100.259	19.421	103.086	0.453
559.500	334.113	80.005	20.009	100.257	19.417	103.690	0.502
560.000	334.399	80.005	20.009	100.259	19.408	105.171	0.553
560.500	334.612	80.005	20.009	100.262	19.404	105.749	0.535
561.000	334.853	80.005	20.009	100.264	19.400	106.277	0.477
561.500	335.137	80.007	20.009	100.263	19.393	107.392	0.489
562.000	335.321	80.005	20.009	100.259	19.389	108.110	0.496
562.500	335.636	80.005	20.009	100.252	19.382	109.162	0.484
563.000	335.873	80.004	20.009	100.252	19.377	109.993	0.526
563.500	336.126	80.006	20.009	100.258	19.369	111.231	0.521
564.000	336.333	80.006	20.009	100.267	19.365	111.918	0.475
564.500	336.597	80.004	20.009	100.279	19.358	112.919	0.465
565.000	336.823	80.006	20.009	100.287	19.354	113.574	0.481
565.500	337.090	80.005	20.009	100.279	19.348	114.505	0.492
566.000	337.313	80.005	20.009	100.265	19.343	115.310	0.491
566.500	337.581	80.006	20.009	100.252	19.335	116.630	0.490
567.000	337.874	80.005	20.009	100.244	19.329	117.510	0.526
567.500	338.122	80.006	20.009	100.249	19.325	118.257	0.551
568.000	338.399	80.005	20.009	100.264	19.318	119.338	0.533
568.501	338.610	80.005	20.009	100.276	19.312	120.245	0.506
569.000	338.841	80.004	20.009	100.281	19.307	120.954	0.465
569.500	339.089	80.005	20.009	100.280	19.303	121.573	0.461
570.000	339.333	80.005	20.009	100.266	19.297	122.601	0.485
570.500	339.680	80.004	20.009	100.254	19.292	123.383	0.542
571.000	339.868	80.006	20.009	100.250	19.284	124.667	0.564
571.500	340.140	80.006	20.009	100.252	19.280	125.216	0.498
572.000	340.408	80.004	20.009	100.255	19.274	126.158	0.500
572.500	340.618	80.004	20.008	100.262	19.267	127.194	0.509
573.000	340.877	80.005	20.009	100.261	19.263	127.836	0.473
573.500	341.100	80.004	20.009	100.254	19.260	128.356	0.476
574.000	341.368	80.005	20.009	100.243	19.255	129.239	0.487
574.500	341.639	80.005	20.009	100.236	19.248	130.284	0.515
575.000	341.906	80.005	20.009	100.235	19.242	131.270	0.538
575.500	342.192	80.005	20.009	100.241	19.239	131.636	0.545
576.000	342.409	80.005	20.009	100.249	19.235	132.319	0.528
576.500	342.618	80.005	20.009	100.254	19.230	133.071	0.465
577.000	342.922	80.005	20.009	100.253	19.223	134.173	0.470
577.500	343.163	80.005	20.009	100.246	19.216	135.243	0.529
578.000	343.383	80.005	20.009	100.238	19.217	135.187	0.503
578.500	343.710	80.004	20.009	100.237	19.210	136.304	0.504
579.000	343.933	80.004	20.009	100.245	19.205	137.048	0.548
579.500	344.186	80.005	20.009	100.261	19.204	137.213	0.513
580.000	344.419	80.005	20.009	100.275	19.196	138.425	0.481
580.500	344.638	80.005	20.009	100.282	19.191	139.286	0.469
581.000	344.927	80.005	20.009	100.283	19.189	139.572	0.480
581.500	345.205	80.005	20.009	100.276	19.184	140.415	0.537
582.000	345.455	80.004	20.009	100.265	19.181	140.821	0.548
582.500	345.668	80.006	20.009	100.259	19.177	141.474	0.496
583.000	345.979	80.005	20.009	100.261	19.175	141.854	0.493
583.500	346.188	80.005	20.009	100.260	19.166	143.237	0.521
584.000	346.450	80.004	20.009	100.262	19.164	143.573	0.496
584.500	346.687	80.005	20.009	100.261	19.161	144.052	0.485
585.000	346.931	80.005	20.009	100.255	19.153	145.252	0.490
585.500	347.159	80.004	20.009	100.248	19.154	145.150	0.476
586.000	347.464	80.006	20.009	100.250	19.148	146.162	0.503
586.500	347.676	80.005	20.009	100.258	19.145	146.637	0.525
587.000	347.927	80.005	20.009	100.269	19.141	147.179	0.490
587.500	348.169	80.005	20.009	100.281	19.137	147.858	0.478
588.000	348.434	80.005	20.009	100.289	19.130	148.943	0.500
588.500	348.680	80.006	20.009	100.286	19.128	149.141	0.509
589.000	348.937	80.005	20.009	100.274	19.127	149.438	0.507
589.500	349.182	80.005	20.010	100.266	19.120	150.455	0.503
590.000	349.415	80.006	20.009	100.265	19.117	150.927	0.490
590.500	349.686	80.005	20.009	100.271	19.111	151.863	0.491
591.000	349.953	80.007	20.009	100.281	19.108	152.379	0.521
591.500	350.216	80.003	20.008	100.289	19.103	153.082	0.534
592.000	350.465	80.006	20.009	100.290	19.100	153.661	0.521
592.500	350.702	80.006	20.009	100.284	19.095	154.466	0.499
593.000	350.955	80.005	20.009	100.277	19.092	154.949	0.488
593.500	351.202	80.005	20.009	100.276	19.089	155.433	0.495
594.000	351.460	80.005	20.009	100.279	19.083	156.348	0.503
594.500	351.704	80.005	20.009	100.294	19.080	156.803	0.504
595.000	351.962	80.003	20.009	100.306	19.075	157.532	0.502
595.500	352.221	80.005	20.009	100.313	19.070	158.352	0.509
596.000	352.531	80.007	20.009	100.313	19.067	158.839	0.543
596.501	352.667	80.004	20.009	100.311	19.063	159.486	0.508
597.000	352.948	80.006	20.010	100.306	19.061	159.839	0.432
597.500	353.169	80.006	20.009	100.310	19.052	161.220	0.459
598.000	353.453	80.005	20.009	100.317	19.047	161.987	0.503
598.500	353.694	80.005	20.009	100.325	19.041	162.848	0.515
599.000	353.919	80.005	20.009	100.333	19.039	163.224	0.495
599.500	354.173	80.006	20.009	100.334	19.033	164.182	0.472
600.000	354.390	80.003	20.009	100.327	19.030	164.628	0.476
600.500	354.651	80.006	20.009	100.320	19.024	165.626	0.475
601.000	354.878	80.004	20.009	100.314	19.019	166.402	0.483
601.500	355.117	80.005	20.009	100.315	19.013	167.407	0.477
602.000	355.416	80.005	20.009	100.320	19.009	168.062	0.501
602.500	355.642	80.004	20.009	100.327	19.001	169.161	0.531
603.000	355.876	80.004	20.009	100.333	18.998	169.692	0.493
603.500	356.135	80.005	20.009	100.330	18.992	170.558	0.477
604.000	356.366	80.005	20.010	100.326	18.987	171.404	0.492
604.500	356.626	80.005	20.009	100.325	18.981	172.401	0.491
605.000	356.876	80.007	20.009	100.332	18.976	173.164	0.500
605.500	357.094	80.004	20.009	100.342	18.973	173.695	0.489
606.000	357.366	80.006	20.009	100.352	18.965	174.883	0.479
606.500	357.621	80.006	20.009	100.356	18.958	175.961	0.508
607.000	357.871	80.004	20.009	100.355	18.956	176.148	0.516
607.500	358.077	80.006	20.009	100.350	18.951	176.988	0.481
608.000	358.313	80.005	20.009	100.341	18.947	177.577	0.449
608.500	358.615	80.005	20.009	100.341	18.943	178.184	0.490
609.001	358.843	80.005	20.009	100.348	18.936	179.149	0.534
609.501	359.093	80.004	20.010	100.356	18.929	180.243	0.504
610.000	359.289	80.005	20.009	100.362	18.920	181.644	0.463
610.500	359.547	80.004	20.008	100.361	18.909	183.320	0.450
611.000	359.791	80.005	20.010	100.351	18.901	184.661	0.478
611.500	360.076	80.006	20.009	100.335	18.893	185.968	0.515
612.000	360.292	80.004	20.009	100.320	18.884	187.332	0.515
612.500	360.536	80.007	20.009	100.313	18.877	188.399	0.481
613.000	360.806	80.004	20.009	100.321	18.870	189.487	0.487
613.500	361.037	80.005	20.009	100.336	18.859	191.309	0.507
614.000	361.291	80.005	20.009	100.350	18.854	192.068	0.493
614.500	361.531	80.004	20.009	100.357	18.845	193.533	0.489
615.000	361.769	80.005	20.009	100.353	18.835	195.172	0.486
615.500	362.074	80.005	20.009	100.347	18.831	195.800	0.510
616.000	362.302	80.005	20.009	100.342	18.826	196.644	0.538
616.500	362.609	80.004	20.009	100.338	18.828	196.433	0.534
617.000	362.849	80.005	20.010	100.347	18.827	196.588	0.541
617.500	363.092	80.005	20.009	100.357	18.830	196.205	0.515
618.000	363.323	80.005	20.009	100.353	18.837	195.159	0.478
618.500	363.527	80.005	20.009	100.336	18.841	194.450	0.455
619.000	363.821	80.005	20.010	100.320	18.845	193.992	0.467
619.500	364.078	80.004	20.010	100.306	18.849	193.289	0.524
620.000	364.303	80.005	20.009	100.287	18.854	192.492	0.516
620.500	364.564	80.005	20.009	100.266	18.863	191.210	0.484
621.000	364.809	80.005	20.009	100.243	18.868	190.473	0.496
621.500	365.073	80.004	20.008	100.209	18.873	189.730	0.508
622.000	365.284	80.006	20.010	100.166	18.880	188.512	0.492
622.500	365.521	80.005	20.010	100.141	18.891	186.929	0.461
623.000	365.793	80.005	20.009	100.136	18.897	185.905	0.478
623.500	366.020	80.005	20.009	100.150	18.908	184.178	0.504
624.000	366.279	80.005	20.009	100.174	18.915	183.101	0.493
624.500	366.559	80.005	20.009	100.192	18.919	182.447	0.512
625.000	366.788	80.005	20.010	100.190	18.924	181.629	0.524
625.500	367.020	80.005	20.010	100.184	18.930	180.744	0.485
626.000	367.251	80.005	20.009	100.180	18.932	180.414	0.462
626.500	367.490	80.004	20.009	100.183	18.938	179.426	0.467
627.000	367.780	80.006	20.009	100.194	18.943	178.619	0.500
627.500	368.006	80.005	20.009	100.213	18.947	178.035	0.522
628.000	368.218	80.004	20.009	100.239	18.951	177.468	0.477
628.500	368.507	80.004	20.010	100.266	18.952	177.277	0.470
629.000	368.742	80.005	20.010	100.288	18.958	176.325	0.512
629.500	369.007	80.006	20.010	100.311	18.960	175.957	0.512
630.000	369.282	80.005	20.009	100.338	18.965	175.210	0.520
630.500	369.546	80.005	20.009	100.364	18.965	175.206	0.540
631.000	369.755	80.005	20.009	100.381	18.968	174.723	0.506
631.500	370.033	80.005	20.009	100.404	18.970	174.280	0.480
632.000	370.244	80.004	20.009	100.426	18.975	173.558	0.487
632.500	370.495	80.005	20.009	100.442	18.978	173.105	0.475
633.000	370.777	80.004	20.009	100.456	18.984	172.179	0.498
633.500	371.016	80.006	20.009	100.470	18.983	172.355	0.527
634.000	371.262	80.004	20.009	100.484	18.984	172.162	0.503
634.500	371.484	80.005	20.009	100.501	18.988	171.464	0.477
635.000	371.752	80.004	20.009	100.513	18.992	170.804	0.479
635.500	371.948	80.006	20.009	100.517	18.996	170.182	0.477
636.000	372.334	80.004	20.009	100.518	18.998	169.897	0.523
636.500	372.509	80.005	20.009	100.512	19.002	169.314	0.571
637.000	372.795	80.005	20.009	100.510	19.009	168.180	0.511
637.500	372.960	80.005	20.009	100.518	19.011	167.938	0.457
638.000	373.183	80.005	20.009	100.533	19.015	167.318	0.420
638.500	373.456	80.004	20.009	100.542	19.015	167.191	0.441
639.000	373.783	80.005	20.009	100.548	19.019	166.555	0.547
639.500	374.020	80.005	20.010	100.541	19.021	166.382	0.582
640.001	374.276	80.005	20.009	100.529	19.026	165.539	0.529
640.501	374.520	80.005	20.009	100.519	19.027	165.343	0.497
641.000	374.817	80.006	20.009	100.517	19.031	164.773	0.521
641.500	375.019	80.004	20.009	100.519	19.034	164.267	0.520
642.000	375.299	80.006	20.009	100.520	19.038	163.681	0.490
642.500	375.505	80.006	20.009	100.521	19.041	163.130	0.484
643.000	375.785	80.004	20.009	100.511	19.041	163.172	0.486
643.500	376.023	80.005	20.009	100.496	19.046	162.442	0.502
644.000	376.294	80.005	20.009	100.485	19.049	161.854	0.514
644.500	376.558	80.006	20.009	100.483	19.052	161.437	0.522
645.000	376.775	80.005	20.009	100.482	19.057	160.629	0.508
645.500	377.027	80.004	20.009	100.483	19.063	159.751	0.475
646.000	377.328	80.005	20.009	100.482	19.065	159.322	0.511
646.500	377.520	80.006	20.010	100.478	19.069	158.690	0.523
647.000	377.736	80.004	20.009	100.470	19.072	158.306	0.450
647.500	377.960	80.004	20.009	100.466	19.082	156.752	0.424
648.000	378.250	80.005	20.009	100.468	19.083	156.574	0.477
648.500	378.504	80.005	20.009	100.476	19.087	155.955	0.529
649.000	378.760	80.004	20.009	100.483	19.092	155.078	0.527
649.500	378.983	80.006	20.010	100.483	19.096	154.416	0.495
650.000	379.216	80.005	20.010	100.480	19.103	153.425	0.468
650.500	379.507	80.005	20.009	100.473	19.109	152.429	0.490
651.000	379.763	80.004	20.009	100.473	19.113	151.783	0.535
651.501	380.033	80.004	20.009	100.473	19.118	151.045	0.537
652.000	380.261	80.006	20.009	100.481	19.122	150.461	0.512
652.500	380.547	80.004	20.009	100.487	19.126	149.719	0.506
653.000	380.815	80.005	20.009	100.492	19.130	149.137	0.534
653.500	381.088	80.006	20.009	100.484	19.135	148.366	0.548
654.000	381.311	80.005	20.009	100.476	19.141	147.378	0.519
654.500	381.576	80.005	20.009	100.471	19.146	146.622	0.492
655.000	381.808	80.004	20.009	100.472	19.154	145.380	0.492
655.500	382.054	80.005	20.009	100.480	19.158	144.766	0.487
656.000	382.327	80.006	20.009	100.489	19.166	143.496	0.499
656.500	382.569	80.004	20.009	100.498	19.172	142.505	0.517
657.000	382.807	80.006	20.009	100.498	19.178	141.541	0.497
657.500	383.073	80.005	20.009	100.490	19.187	140.176	0.492
658.000	383.284	80.005	20.009	100.479	19.190	139.757	0.491
658.500	383.539	80.005	20.009	100.477	19.195	138.954	0.472
659.000	383.789	80.004	20.009	100.476	19.203	137.692	0.485
659.500	384.033	80.004	20.009	100.484	19.209	136.664	0.499
660.000	384.274	80.004	20.009	100.492	19.216	135.629	0.489
660.500	384.499	80.006	20.009	100.492	19.221	134.812	0.475
661.000	384.780	80.005	20.009	100.485	19.226	134.039	0.486
661.500	385.054	80.005	20.009	100.478	19.232	133.201	0.531
662.000	385.262	80.006	20.009	100.472	19.238	132.151	0.518
662.500	385.515	80.005	20.009	100.471	19.246	131.008	0.472
663.000	385.813	80.004	20.009	100.480	19.248	130.626	0.506
663.500	386.061	80.005	20.009	100.488	19.257	129.225	0.548
664.000	386.319	80.004	20.009	100.496	19.263	128.263	0.526
664.500	386.605	80.007	20.009	100.500	19.272	126.820	0.525
665.000	386.817	80.005	20.009	100.496	19.279	125.769	0.521
665.501	387.058	80.005	20.009	100.491	19.284	124.927	0.476
666.000	387.312	80.006	20.009	100.490	19.295	123.257	0.474
666.500	387.599	80.004	20.009	100.492	19.302	122.119	0.518
667.000	387.807	80.005	20.009	100.499	19.308	121.184	0.518
667.500	388.045	80.005	20.009	100.505	19.318	119.570	0.470
668.000	388.304	80.004	20.009	100.507	19.323	118.733	0.472
668.500	388.525	80.006	20.009	100.507	19.331	117.602	0.489
669.000	388.765	80.004	20.009	100.504	19.337	116.674	0.471
669.500	389.022	80.005	20.009	100.497	19.347	115.072	0.479
670.000	389.258	80.005	20.009	100.500	19.351	114.387	0.495
670.501	389.537	80.004	20.008	100.507	19.360	113.090	0.504
671.000	389.733	80.005	20.009	100.516	19.366	112.062	0.495
671.500	390.018	80.005	20.009	100.522	19.375	110.604	0.478
672.000	390.281	80.004	20.009	100.522	19.383	109.433	0.514
672.501	390.572	80.005	20.009	100.518	19.387	108.740	0.550
673.000	390.805	80.005	20.009	100.510	19.399	106.864	0.539
673.500	391.029	80.005	20.009	100.510	19.406	105.752	0.491
674.000	391.274	80.005	20.009	100.514	19.412	104.799	0.463
674.500	391.580	80.005	20.009	100.522	19.419	103.638	0.510
675.000	391.771	80.005	20.009	100.531	19.425	102.702	0.525
675.500	392.072	80.005	20.009	100.538	19.429	102.071	0.494
676.000	392.302	80.005	20.009	100.534	19.437	100.895	0.511
676.500	392.520	80.005	20.009	100.530	19.446	99.450	0.489
677.000	392.783	80.004	20.009	100.530	19.455	98.083	0.464
677.500	392.999	80.005	20.009	100.535	19.463	96.780	0.480
678.000	393.242	80.004	20.008	100.544	19.470	95.715	0.469
678.500	393.471	80.004	20.009	100.551	19.476	94.654	0.466
679.000	393.714	80.004	20.009	100.554	19.483	93.562	0.472
679.500	393.966	80.005	20.009	100.555	19.492	92.233	0.483
680.000	394.188	80.004	20.009	100.549	19.498	91.193	0.484
680.500	394.457	80.005	20.009	100.543	19.503	90.445	0.483
681.000	394.693	80.006	20.009	100.547	19.514	88.689	0.498
681.500	394.937	80.004	20.009	100.557	19.522	87.405	0.493
682.001	395.256	80.006	20.009	100.569	19.527	86.610	0.522
682.500	395.474	80.005	20.009	100.576	19.540	84.577	0.550
683.000	395.729	80.006	20.009	100.581	19.544	84.056	0.505
683.500	395.962	80.005	20.009	100.581	19.551	82.888	0.480
684.000	396.243	80.006	20.009	100.579	19.560	81.490	0.501
684.500	396.473	80.005	20.009	100.580	19.565	80.755	0.513
685.000	396.708	80.006	20.009	100.589	19.570	79.947	0.488
685.500	396.962	80.006	20.009	100.596	19.581	78.185	0.477
686.000	397.215	80.005	20.009	100.598	19.586	77.348	0.498
686.500	397.402	80.006	20.009	100.592	19.592	76.440	0.474
687.000	397.642	80.006	20.009	100.579	19.599	75.360	0.434
687.500	397.939	80.004	20.009	100.564	19.606	74.277	0.482
688.000	398.198	80.004	20.009	100.557	19.610	73.643	0.546
688.500	398.449	80.004	20.009	100.557	19.616	72.600	0.533
689.000	398.755	80.006	20.009	100.563	19.626	71.020	0.533
689.500	398.940	80.005	20.009	100.569	19.632	70.176	0.524
690.000	399.160	80.005	20.009	100.567	19.639	69.004	0.448
690.500	399.414	80.005	20.009	100.560	19.647	67.743	0.439
691.000	399.661	80.005	20.009	100.554	19.650	67.200	0.487
691.500	399.886	80.004	20.009	100.552	19.656	66.351	0.487
692.000	400.085	80.005	20.009	100.555	19.662	65.335	0.448
692.500	400.370	80.004	20.008	100.570	19.669	64.211	0.454
693.000	400.589	80.006	20.009	100.580	19.673	63.601	0.495
693.500	400.902	80.005	20.009	100.588	19.681	62.346	0.518
694.000	401.093	80.006	20.010	100.589	19.685	61.789	0.518
694.500	401.409	80.006	20.009	100.588	19.691	60.721	0.505
695.000	401.605	80.005	20.009	100.581	19.697	59.835	0.510
695.500	401.874	80.007	20.009	100.579	19.705	58.612	0.488
696.000	402.124	80.006	20.009	100.580	19.709	57.956	0.492
696.500	402.391	80.006	20.008	100.580	19.716	56.777	0.518
697.000	402.645	80.005	20.009	100.578	19.720	56.263	0.519
697.500	402.864	80.005	20.009	100.571	19.725	55.479	0.497
698.000	403.092	80.006	20.009	100.563	19.730	54.655	0.460
698.500	403.365	80.006	20.010	100.557	19.737	53.591	0.474
699.001	403.590	80.005	20.009	100.558	19.742	52.752	0.499
699.500	403.867	80.005	20.009	100.567	19.746	52.040	0.500
700.000	404.050	80.005	20.008	100.575	19.754	50.916	0.481
700.500	404.288	80.005	20.009	100.583	19.759	50.021	0.441
701.000	404.515	80.006	20.008	100.580	19.762	49.573	0.443
701.500	404.741	80.005	20.009	100.570	19.767	48.792	0.459
702.000	404.996	80.005	20.009	100.555	19.774	47.770	0.467
702.500	405.262	80.004	20.009	100.553	19.780	46.739	0.501
703.000	405.506	80.006	20.009	100.552	19.783	46.271	0.516
703.500	405.741	80.005	20.009	100.560	19.788	45.473	0.495
704.000	406.001	80.005	20.009	100.568	19.797	44.074	0.486
704.500	406.248	80.006	20.008	100.572	19.800	43.527	0.501
705.000	406.484	80.005	20.009	100.565	19.802	43.322	0.495
705.500	406.763	80.004	20.009	100.557	19.808	42.334	0.499
706.000	406.986	80.005	20.009	100.549	19.812	41.625	0.509
706.500	407.229	80.004	20.009	100.540	19.816	41.064	0.484
707.000	407.449	80.004	20.009	100.535	19.820	40.500	0.464
707.500	407.761	80.004	20.008	100.536	19.826	39.459	0.497
708.000	407.938	80.006	20.008	100.535	19.829	38.948	0.511
708.500	408.220	80.003	20.009	100.527	19.833	38.322	0.474
709.000	408.440	80.005	20.009	100.519	19.835	38.016	0.480
709.500	408.683	80.005	20.009	100.513	19.843	36.831	0.482
710.000	408.913	80.004	20.008	100.512	19.843	36.769	0.468
710.500	409.160	80.004	20.009	100.513	19.846	36.330	0.475
711.000	409.411	80.004	20.008	100.521	19.851	35.547	0.488
711.500	409.703	80.006	20.008	100.524	19.855	34.983	0.521
712.000	409.952	80.005	20.009	100.522	19.859	34.260	0.542
712.500	410.220	80.005	20.009	100.514	19.861	33.898	0.529
713.000	410.397	80.004	20.009	100.508	19.867	33.088	0.481
713.500	410.684	80.005	20.008	100.508	19.868	32.929	0.455
714.000	410.926	80.004	20.009	100.514	19.872	32.309	0.496
714.500	411.167	80.005	20.009	100.521	19.872	32.182	0.506
715.000	411.458	80.004	20.009	100.528	19.879	31.110	0.508
715.501	411.663	80.004	20.009	100.529	19.881	30.771	0.514
716.000	411.927	80.003	20.009	100.522	19.883	30.466	0.483
716.500	412.201	80.004	20.008	100.513	19.886	29.960	0.503
717.000	412.466	80.006	20.009	100.506	19.889	29.503	0.539
717.500	412.703	80.004	20.009	100.499	19.895	28.607	0.521
718.000	412.917	80.004	20.008	100.496	19.896	28.398	0.476
718.500	413.266	80.004	20.008	100.497	19.899	28.031	0.507
719.000	413.439	80.005	20.009	100.493	19.901	27.729	0.542
719.500	413.678	80.005	20.009	100.485	19.902	27.474	0.467
720.000	413.949	80.005	20.009	100.477	19.907	26.783	0.461
720.500	414.166	80.004	20.009	100.477	19.910	26.316	0.499
721.000	414.393	80.004	20.008	100.477	19.911	26.161	0.466
721.500	414.698	80.006	20.008	100.480	19.914	25.665	0.488
722.000	414.957	80.005	20.009	100.483	19.915	25.462	0.548
722.500	415.145	80.003	20.008	100.481	19.917	25.193	0.505
723.000	415.421	80.005	20.009	100.468	19.918	25.030	0.456
723.500	415.674	80.006	20.009	100.455	19.921	24.523	0.497
724.000	415.931	80.004	20.009	100.448	19.922	24.362	0.520
724.500	416.144	80.005	20.009	100.446	19.927	23.490	0.490
725.000	416.411	80.005	20.008	100.450	19.928	23.419	0.475
725.500	416.689	80.005	20.008	100.457	19.931	22.867	0.512
726.000	416.927	80.003	20.008	100.459	19.935	22.248	0.531
726.500	417.132	80.004	20.009	100.451	19.937	22.058	0.480
727.000	417.398	80.006	20.009	100.442	19.940	21.551	0.457
727.500	417.669	80.004	20.009	100.432	19.938	21.805	0.504
728.000	417.856	80.006	20.008	100.429	19.938	21.888	0.498
728.500	418.142	80.005	20.009	100.432	19.940	21.558	0.466
729.000	418.421	80.006	20.008	100.439	19.940	21.559	0.519
729.500	418.645	80.004	20.008	100.442	19.945	20.696	0.534
730.000	418.871	80.005	20.008	100.442	19.948	20.190	0.476
730.500	419.118	80.005	20.009	100.435	19.949	20.058	0.461
731.000	419.394	80.005	20.009	100.429	19.953	19.476	0.498
731.500	419.599	80.005	20.009	100.429	19.952	19.557	0.502
732.000	419.819	80.006	20.008	100.435	19.956	18.999	0.453
732.500	420.078	80.004	20.009	100.439	19.956	19.002	0.452
733.000	420.335	80.005	20.008	100.440	19.959	18.452	0.498
733.500	420.578	80.007	20.010	100.438	19.961	18.203	0.508
734.000	420.831	80.004	20.009	100.431	19.962	18.088	0.498
734.500	421.056	80.005	20.009	100.424	19.965	17.550	0.487
735.000	421.289	80.006	20.008	100.427	19.965	17.552	0.468
735.500	421.543	80.004	20.009	100.433	19.967	17.228	0.472
736.000	421.786	80.004	20.008	100.432	19.967	17.231	0.492
736.500	422.035	80.004	20.009	100.432	19.972	16.401	0.495
737.000	422.290	80.005	20.009	100.431	19.971	16.581	0.498
737.500	422.540	80.004	20.009	100.423	19.973	16.389	0.504
738.000	422.808	80.005	20.009	100.419	19.973	16.277	0.511
738.500	423.032	80.005	20.009	100.425	19.975	16.065	0.505
739.000	423.244	80.004	20.008	100.433	19.975	15.934	0.464
739.500	423.528	80.006	20.009	100.436	19.980	15.219	0.466
740.000	423.772	80.004	20.009	100.436	19.978	15.587	0.512
740.500	424.011	80.006	20.010	100.435	19.979	15.355	0.506
741.000	424.245	80.005	20.009	100.434	19.980	15.185	0.478
741.500	424.516	80.006	20.009	100.435	19.980	15.208	0.489
742.000	424.750	80.005	20.009	100.441	19.984	14.586	0.505
742.500	424.993	80.005	20.008	100.448	19.984	14.632	0.491
743.000	425.233	80.005	20.008	100.450	19.985	14.426	0.480
743.500	425.423	80.005	20.009	100.444	19.985	14.363	0.456
744.000	425.683	80.005	20.009	100.434	19.984	14.521	0.439
744.500	425.893	80.004	20.009	100.425	19.987	14.112	0.460
745.000	426.144	80.005	20.009	100.418	19.986	14.202	0.466
745.500	426.413	80.005	20.008	100.418	19.986	14.258	0.491
746.000	426.661	80.005	20.009	100.420	19.988	13.980	0.518
746.500	426.911	80.004	20.008	100.422	19.988	13.980	0.507
747.000	427.205	80.006	20.009	100.416	19.986	14.271	0.521
747.500	427.419	80.005	20.009	100.408	19.987	14.070	0.526
748.000	427.697	80.005	20.009	100.400	19.987	14.177	0.500
748.500	427.930	80.004	20.009	100.397	19.988	13.910	0.501
749.000	428.204	80.005	20.009	100.397	19.987	14.055	0.509
749.500	428.446	80.005	20.008	100.399	19.989	13.738	0.512
750.000	428.673	80.005	20.009	100.399	19.987	14.057	0.493
750.500	428.923	80.004	20.008	100.390	19.988	13.904	0.473
751.000	429.213	80.005	20.009	100.377	19.991	13.556	0.508
751.500	429.405	80.006	20.010	100.363	19.994	13.084	0.511
752.000	429.656	80.005	20.009	100.360	19.995	12.932	0.463
752.500	429.946	80.004	20.009	100.365	19.990	13.672	0.492
753.000	430.181	80.004	20.009	100.375	19.992	13.284	0.533
753.500	430.445	80.005	20.009	100.382	19.992	13.249	0.513
754.000	430.642	80.004	20.009	100.389	19.993	13.175	0.480
754.500	430.934	80.007	20.010	100.383	19.995	12.819	0.475
755.000	431.183	80.004	20.009	100.372	19.996	12.774	0.515
755.500	431.396	80.006	20.009	100.368	19.992	13.319	0.502
756.000	431.665	80.004	20.009	100.370	19.993	13.212	0.471
756.500	431.900	80.005	20.009	100.376	19.994	12.975	0.493
757.000	432.104	80.005	20.008	100.383	19.995	12.868	0.472
757.500	432.374	80.005	20.009	100.387	19.996	12.727	0.457
758.000	432.619	80.005	20.009	100.388	19.998	12.433	0.495
758.500	432.871	80.004	20.009	100.386	19.998	12.319	0.506
759.000	433.120	80.005	20.009	100.380	19.997	12.590	0.499
759.500	433.374	80.004	20.008	100.378	19.996	12.766	0.502
760.001	433.637	80.005	20.009	100.380	19.998	12.365	0.510
760.500	433.856	80.005	20.009	100.380	19.999	12.257	0.500
761.000	434.105	80.004	20.009	100.380	20.000	11.993	0.475
761.500	434.343	80.005	20.009	100.375	20.000	12.116	0.477
762.000	434.603	80.004	20.009	100.367	20.000	12.027	0.492
762.500	434.853	80.004	20.009	100.360	19.999	12.165	0.504
763.001	435.115	80.004	20.009	100.357	19.997	12.512	0.511
763.500	435.349	80.005	20.009	100.361	20.002	11.761	0.504
764.000	435.611	80.004	20.008	100.373	19.998	12.304	0.496
764.500	435.847	80.005	20.009	100.385	20.000	12.076	0.497
765.000	436.062	80.004	20.008	100.393	20.002	11.772	0.474
765.500	436.332	80.005	20.010	100.391	20.004	11.496	0.468
766.000	436.571	80.005	20.009	100.382	20.004	11.384	0.497
766.500	436.819	80.005	20.009	100.372	20.001	11.951	0.498
767.000	437.072	80.005	20.009	100.368	20.004	11.434	0.494
767.500	437.340	80.004	20.009	100.372	20.002	11.684	0.511
768.000	437.598	80.005	20.008	100.383	20.005	11.293	0.523
768.500	437.797	80.004	20.008	100.393	20.004	11.439	0.492
769.000	438.053	80.005	20.009	100.396	20.003	11.525	0.456
769.500	438.317	80.004	20.009	100.393	20.000	12.010	0.487
770.000	438.529	80.006	20.009	100.387	20.002	11.787	0.498
770.500	438.801	80.005	20.009	100.379	20.001	11.904	0.480
771.000	439.091	80.004	20.009	100.373	20.005	11.347	0.523
771.500	439.291	80.005	20.008	100.374	20.002	11.683	0.526
772.000	439.583	80.006	20.008	100.377	20.002	11.679	0.491
772.501	439.782	80.004	20.009	100.372	20.002	11.736	0.492
773.001	440.039	80.005	20.009	100.365	20.003	11.526	0.473
773.500	440.289	80.004	20.009	100.357	20.003	11.577	0.482
774.000	440.513	80.004	20.009	100.350	20.005	11.277	0.490
774.500	440.763	80.004	20.009	100.350	20.004	11.360	0.474
775.001	441.013	80.005	20.009	100.355	20.002	11.689	0.487
775.501	441.251	80.005	20.008	100.363	20.002	11.794	0.494
776.000	441.497	80.006	20.009	100.365	20.004	11.510	0.486
776.500	441.737	80.005	20.009	100.364	20.002	11.724	0.485
777.000	442.041	80.006	20.009	100.356	20.000	12.052	0.515
777.500	442.271	80.003	20.009	100.348	20.005	11.330	0.539
778.000	442.527	80.004	20.009	100.341	20.007	11.027	0.510
778.500	442.734	80.005	20.009	100.346	20.004	11.400	0.474
779.000	442.989	80.004	20.008	100.355	20.004	11.373	0.463
779.500	443.239	80.005	20.008	100.360	20.006	11.132	0.484
780.000	443.455	80.005	20.008	100.360	20.008	10.839	0.486
780.500	443.683	80.004	20.009	100.359	20.005	11.290	0.455
781.000	443.959	80.005	20.009	100.351	20.005	11.201	0.474
781.500	444.258	80.005	20.009	100.343	20.008	10.737	0.540
782.000	444.471	80.004	20.009	100.341	20.008	10.764	0.544
782.500	444.721	80.005	20.009	100.349	20.007	10.943	0.487
783.000	445.017	80.005	20.009	100.354	20.008	10.879	0.504
783.500	445.216	80.005	20.009	100.357	20.009	10.602	0.521
784.000	445.467	80.006	20.009	100.357	20.009	10.569	0.473
784.500	445.786	80.005	20.009	100.353	20.009	10.593	0.510
785.000	445.968	80.004	20.009	100.346	20.010	10.494	0.535
785.500	446.220	80.004	20.009	100.345	20.010	10.433	0.468
786.000	446.473	80.005	20.009	100.349	20.010	10.512	0.469
786.500	446.703	80.005	20.008	100.355	20.012	10.164	0.494
787.000	446.988	80.005	20.009	100.357	20.011	10.330	0.499
787.500	447.218	80.005	20.009	100.354	20.013	10.010	0.515
788.000	447.503	80.005	20.009	100.343	20.010	10.514	0.515
788.500	447.735	80.004	20.009	100.333	20.010	10.498	0.516
789.000	447.980	80.005	20.009	100.328	20.011	10.402	0.497
789.500	448.233	80.006	20.009	100.332	20.007	10.905	0.488
790.001	448.505	80.004	20.009	100.342	20.009	10.688	0.511
790.500	448.763	80.006	20.008	100.353	20.010	10.421	0.527
791.000	448.995	80.004	20.010	100.355	20.009	10.694	0.510
791.500	449.224	80.006	20.009	100.354	20.006	11.144	0.476
792.001	449.481	80.005	20.009	100.349	20.009	10.725	0.474
792.500	449.726	80.004	20.009	100.342	20.010	10.449	0.494
793.000	449.962	80.004	20.009	100.344	20.011	10.312	0.491
793.500	450.244	80.006	20.009	100.352	20.009	10.655	0.499
794.000	450.501	80.005	20.009	100.359	20.011	10.401	0.529
794.500	450.745	80.005	20.009	100.359	20.013	10.044	0.521
795.000	451.054	80.006	20.009	100.357	20.010	10.424	0.527
795.500	451.316	80.004	20.009	100.348	20.014	9.845	0.562
796.000	451.561	80.006	20.009	100.341	20.014	9.870	0.539
796.500	451.816	80.004	20.009	100.339	20.012	10.120	0.504
797.000	452.007	80.004	20.008	100.346	20.012	10.120	0.473
797.500	452.336	80.004	20.009	100.353	20.012	10.112	0.483
798.000	452.572	80.005	20.008	100.356	20.012	10.181	0.542
798.500	452.799	80.004	20.009	100.354	20.012	10.187	0.514
799.000	453.105	80.006	20.009	100.342	20.012	10.251	0.498
799.500	453.298	80.005	20.009	100.327	20.014	9.851	0.516
800.000	453.582	80.005	20.009	100.322	20.010	10.502	0.488
800.500	453.793	80.006	20.009	100.322	20.010	10.496	0.486
801.000	454.062	80.003	20.009	100.325	20.010	10.455	0.487
801.500	454.329	80.005	20.009	100.333	20.011	10.388	0.508
802.000	454.580	80.005	20.009	100.340	20.011	10.367	0.527
802.500	454.833	80.004	20.009	100.339	20.011	10.264	0.511
803.000	455.085	80.004	20.009	100.334	20.011	10.277	0.505
803.500	455.328	80.006	20.009	100.329	20.011	10.341	0.500
804.000	455.581	80.004	20.009	100.330	20.011	10.322	0.496
804.500	455.803	80.005	20.009	100.333	20.010	10.419	0.485
805.000	456.081	80.006	20.009	100.338	20.009	10.698	0.487
805.500	456.289	80.004	20.009	100.344	20.012	10.144	0.493
806.000	456.557	80.004	20.009	100.342	20.009	10.600	0.481
806.500	456.832	80.005	20.009	100.335	20.012	10.190	0.509
807.001	457.062	80.005	20.009	100.329	20.009	10.650	0.524
807.500	457.296	80.006	20.009	100.325	20.011	10.354	0.484
808.000	457.587	80.005	20.009	100.326	20.011	10.361	0.495
808.500	457.831	80.004	20.009	100.338	20.009	10.668	0.530
809.000	458.026	80.006	20.008	100.348	20.011	10.365	0.487
809.500	458.314	80.004	20.009	100.352	20.011	10.267	0.461
810.000	458.569	80.005	20.009	100.349	20.011	10.350	0.513
810.501	458.874	80.004	20.009	100.342	20.009	10.673	0.551
811.000	459.112	80.005	20.009	100.330	20.009	10.650	0.552
811.500	459.394	80.005	20.009	100.327	20.010	10.561	0.532
812.000	459.634	80.005	20.009	100.326	20.009	10.689	0.521
812.500	459.900	80.003	20.009	100.329	20.007	11.020	0.514
813.000	460.102	80.005	20.009	100.337	20.010	10.430	0.487
813.500	460.340	80.005	20.009	100.342	20.009	10.599	0.453
814.000	460.637	80.006	20.009	100.338	20.009	10.581	0.487
814.500	460.828	80.004	20.009	100.331	20.009	10.673	0.512
815.000	461.107	80.005	20.009	100.328	20.010	10.559	0.479
815.500	461.356	80.005	20.009	100.328	20.011	10.319	0.499
816.000	461.608	80.005	20.009	100.327	20.008	10.783	0.515
816.500	461.868	80.006	20.009	100.333	20.009	10.631	0.506
817.000	462.112	80.005	20.009	100.340	20.009	10.662	0.508
817.500	462.354	80.005	20.009	100.343	20.008	10.875	0.495
818.000	462.619	80.006	20.009	100.337	20.010	10.414	0.496
818.500	462.845	80.005	20.010	100.328	20.011	10.380	0.499
819.000	463.152	80.005	20.009	100.320	20.011	10.366	0.513
819.500	463.350	80.004	20.009	100.319	20.009	10.663	0.519
820.000	463.620	80.005	20.009	100.319	20.008	10.780	0.486
820.500	463.842	80.005	20.009	100.325	20.011	10.354	0.480
821.000	464.085	80.006	20.009	100.333	20.008	10.771	0.479
821.500	464.316	80.004	20.009	100.338	20.008	10.808	0.469
822.000	464.563	80.005	20.009	100.332	20.010	10.497	0.475
822.500	464.782	80.005	20.009	100.326	20.011	10.373	0.472
823.000	465.035	80.005	20.009	100.318	20.010	10.479	0.469
823.500	465.313	80.005	20.009	100.316	20.011	10.405	0.502
824.000	465.562	80.005	20.009	100.318	20.011	10.269	0.529
824.500	465.841	80.004	20.008	100.329	20.009	10.631	0.527
825.000	466.076	80.004	20.009	100.341	20.008	10.862	0.521
825.500	466.327	80.005	20.009	100.350	20.011	10.319	0.500
826.000	466.517	80.005	20.009	100.350	20.011	10.279	0.463
826.500	466.826	80.006	20.009	100.342	20.009	10.608	0.470
827.000	467.080	80.006	20.009	100.328	20.010	10.477	0.531
827.500	467.317	80.005	20.009	100.315	20.010	10.549	0.527
828.000	467.597	80.005	20.009	100.312	20.010	10.499	0.504
828.500	467.818	80.004	20.008	100.314	20.011	10.383	0.508
829.000	468.098	80.006	20.009	100.322	20.011	10.270	0.501
829.500	468.341	80.004	20.009	100.333	20.011	10.328	0.512
830.000	468.595	80.005	20.009	100.339	20.011	10.281	0.510
830.500	468.857	80.006	20.009	100.339	20.010	10.564	0.506
831.000	469.101	80.005	20.009	100.331	20.007	10.966	0.511
831.500	469.321	80.005	20.009	100.323	20.008	10.736	0.485
832.000	469.598	80.004	20.009	100.316	20.008	10.839	0.481
832.500	469.859	80.006	20.009	100.316	20.009	10.583	0.518
833.000	470.103	80.004	20.009	100.318	20.009	10.677	0.521
833.500	470.345	80.005	20.008	100.326	20.009	10.571	0.495
834.000	470.634	80.004	20.009	100.334	20.009	10.628	0.509
834.500	470.875	80.005	20.009	100.332	20.011	10.317	0.531
835.000	471.122	80.007	20.009	100.324	20.009	10.580	0.509
835.500	471.375	80.005	20.009	100.316	20.009	10.569	0.494
836.000	471.565	80.005	20.009	100.308	20.010	10.512	0.472
836.500	471.845	80.006	20.009	100.305	20.015	9.679	0.456
837.000	472.050	80.005	20.009	100.312	20.013	10.013	0.477
837.500	472.287	80.005	20.009	100.327	20.012	10.203	0.463
838.000	472.622	80.005	20.008	100.339	20.012	10.177	0.508
838.500	472.828	80.005	20.009	100.347	20.012	10.236	0.557
839.000	473.128	80.004	20.009	100.346	20.010	10.546	0.523
839.500	473.339	80.006	20.009	100.338	20.009	10.652	0.508
840.000	473.554	80.004	20.009	100.323	20.009	10.659	0.469
840.500	473.841	80.005	20.009	100.311	20.010	10.510	0.464
841.000	474.095	80.006	20.009	100.309	20.007	10.991	0.522
841.500	474.285	80.004	20.009	100.313	20.007	10.932	0.493
842.000	474.580	80.006	20.008	100.321	20.009	10.725	0.464
842.500	474.819	80.006	20.009	100.329	20.008	10.858	0.509
843.000	475.076	80.004	20.009	100.331	20.007	10.930	0.515
843.500	475.333	80.006	20.009	100.325	20.009	10.683	0.505
844.000	475.577	80.005	20.009	100.318	20.008	10.726	0.508
844.500	475.825	80.006	20.009	100.311	20.008	10.790	0.497
845.000	476.100	80.004	20.009	100.309	20.008	10.874	0.507
845.500	476.326	80.006	20.008	100.314	20.007	10.935	0.512
846.000	476.574	80.006	20.009	100.322	20.010	10.508	0.488
846.500	476.766	80.006	20.009	100.330	20.009	10.651	0.457
847.000	477.036	80.007	20.009	100.332	20.010	10.550	0.451
847.500	477.311	80.005	20.008	100.326	20.009	10.719	0.504
848.000	477.529	80.005	20.009	100.318	20.011	10.363	0.519
848.500	477.846	80.005	20.009	100.311	20.009	10.663	0.514
849.000	478.082	80.005	20.009	100.304	20.010	10.437	0.543
849.500	478.340	80.005	20.009	100.307	20.008	10.875	0.523
850.000	478.610	80.006	20.008	100.313	20.009	10.658	0.511
850.500	478.853	80.004	20.009	100.319	20.007	10.951	0.520
851.001	479.090	80.004	20.009	100.319	20.009	10.700	0.497
851.501	479.326	80.006	20.008	100.318	20.006	11.122	0.477
852.000	479.557	80.006	20.009	100.312	20.006	11.069	0.470
852.500	479.827	80.006	20.009	100.309	20.007	10.946	0.484
853.000	480.079	80.005	20.009	100.312	20.006	11.134	0.511
853.500	480.367	80.005	20.008	100.324	20.010	10.548	0.531
854.000	480.605	80.005	20.008	100.333	20.009	10.608	0.533
854.500	480.858	80.006	20.008	100.341	20.007	10.921	0.508
855.000	481.082	80.005	20.009	100.340	20.009	10.700	0.484
855.500	481.284	80.005	20.008	100.333	20.006	11.104	0.452
856.000	481.548	80.005	20.009	100.322	20.008	10.784	0.446
856.500	481.816	80.005	20.009	100.314	20.006	11.078	0.499
857.000	482.041	80.005	20.009	100.314	20.006	11.122	0.512
857.500	482.329	80.005	20.009	100.319	20.006	11.086	0.503
858.000	482.581	80.004	20.008	100.327	20.005	11.205	0.527
858.500	482.795	80.005	20.009	100.334	20.007	10.904	0.503
859.000	483.037	80.006	20.008	100.338	20.006	11.122	0.461
859.500	483.355	80.006	20.009	100.331	20.006	11.095	0.508
860.000	483.601	80.004	20.009	100.322	20.006	11.112	0.562
860.501	483.833	80.006	20.009	100.315	20.009	10.710	0.521
861.000	484.043	80.004	20.009	100.314	20.010	10.541	0.460
861.500	484.327	80.005	20.008	100.318	20.004	11.384	0.468
862.000	484.597	80.005	20.009	100.326	20.007	11.037	0.524
862.500	484.807	80.005	20.009	100.334	20.006	11.040	0.517
863.000	485.089	80.005	20.008	100.335	20.007	11.025	0.486
863.500	485.336	80.006	20.008	100.327	20.007	11.025	0.510
864.000	485.592	80.004	20.009	100.319	20.007	10.979	0.516
864.500	485.829	80.005	20.009	100.313	20.008	10.803	0.498
865.000	486.065	80.006	20.008	100.313	20.011	10.297	0.483
865.500	486.306	80.005	20.009	100.318	20.013	9.964	0.475
866.000	486.552	80.004	20.008	100.327	20.009	10.641	0.482
866.500	486.806	80.005	20.009	100.335	20.009	10.600	0.494
867.000	487.056	80.005	20.009	100.338	20.013	10.073	0.502
867.500	487.297	80.006	20.009	100.331	20.009	10.609	0.497
868.000	487.561	80.005	20.009	100.325	20.009	10.569	0.498
868.500	487.781	80.005	20.009	100.324	20.010	10.417	0.495
869.000	488.016	80.006	20.008	100.329	20.012	10.164	0.469
869.500	488.330	80.004	20.009	100.335	20.009	10.621	0.502
870.000	488.559	80.004	20.008	100.342	20.011	10.321	0.546
870.500	488.804	80.005	20.009	100.346	20.011	10.313	0.508
871.000	489.076	80.006	20.008	100.339	20.009	10.580	0.496
871.500	489.313	80.004	20.009	100.326	20.010	10.487	0.513
872.000	489.541	80.005	20.009	100.314	20.010	10.554	0.487
872.500	489.805	80.005	20.009	100.310	20.010	10.479	0.479
873.000	489.999	80.005	20.009	100.313	20.011	10.384	0.475
873.500	490.281	80.004	20.009	100.322	20.010	10.434	0.467
874.000	490.514	80.005	20.009	100.330	20.009	10.636	0.495
874.500	490.806	80.005	20.009	100.332	20.009	10.641	0.520
875.000	491.040	80.006	20.009	100.328	20.009	10.583	0.525
875.500	491.293	80.006	20.009	100.319	20.013	9.956	0.506
876.001	491.544	80.005	20.009	100.311	20.012	10.146	0.496
876.500	491.773	80.005	20.009	100.304	20.010	10.423	0.492
877.000	492.029	80.005	20.009	100.310	20.012	10.114	0.483
877.500	492.224	80.006	20.008	100.317	20.011	10.361	0.468
878.000	492.541	80.004	20.009	100.325	20.011	10.338	0.481
878.500	492.752	80.004	20.008	100.330	20.012	10.147	0.521
879.000	493.026	80.005	20.009	100.329	20.013	10.089	0.507
879.500	493.265	80.004	20.009	100.321	20.011	10.279	0.499
880.000	493.533	80.005	20.009	100.313	20.011	10.312	0.510
880.500	493.760	80.005	20.010	100.310	20.011	10.310	0.501
881.000	494.053	80.005	20.009	100.312	20.012	10.217	0.508
881.500	494.309	80.004	20.008	100.320	20.013	9.958	0.535
882.000	494.587	80.005	20.008	100.326	20.014	9.835	0.541
882.500	494.802	80.004	20.008	100.332	20.015	9.768	0.514
883.000	495.062	80.006	20.009	100.329	20.016	9.537	0.484
883.500	495.274	80.005	20.008	100.320	20.016	9.583	0.473
884.000	495.540	80.006	20.009	100.317	20.015	9.663	0.474
884.500	495.788	80.006	20.009	100.322	20.012	10.133	0.496
885.000	496.060	80.005	20.008	100.329	20.012	10.114	0.517
885.500	496.296	80.005	20.009	100.343	20.009	10.614	0.514
886.000	496.539	80.005	20.008	100.354	20.011	10.263	0.494
886.500	496.778	80.006	20.008	100.358	20.010	10.552	0.481
887.000	497.007	80.005	20.009	100.347	20.010	10.545	0.475
887.500	497.294	80.005	20.009	100.332	20.012	10.098	0.492
888.000	497.530	80.006	20.009	100.317	20.009	10.565	0.520
888.500	497.825	80.003	20.009	100.309	20.009	10.692	0.527
889.000	498.012	80.005	20.009	100.309	20.012	10.180	0.506
889.500	498.302	80.004	20.008	100.316	20.007	10.956	0.480
890.000	498.541	80.006	20.008	100.325	20.011	10.279	0.503
890.500	498.796	80.005	20.008	100.333	20.011	10.364	0.511
891.000	499.024	80.006	20.009	100.330	20.010	10.487	0.488
891.500	499.302	80.004	20.008	100.322	20.009	10.717	0.495
892.000	499.571	80.005	20.009	100.312	20.010	10.534	0.527
892.500	499.805	80.005	20.009	100.307	20.012	10.109	0.525
893.000	500.071	80.004	20.008	100.308	20.014	9.863	0.501
893.500	500.260	80.005	20.009	100.316	20.011	10.317	0.477
894.000	500.490	80.006	20.008	100.327	20.010	10.466	0.437
894.500	500.772	80.005	20.008	100.336	20.009	10.696	0.465
895.000	501.034	80.005	20.009	100.336	20.008	10.828	0.528
895.500	501.252	80.005	20.009	100.328	20.010	10.538	0.512
896.000	501.505	80.005	20.009	100.320	20.010	10.562	0.475
896.500	501.716	80.004	20.009	100.312	20.012	10.176	0.467
897.000	502.002	80.006	20.009	100.312	20.008	10.800	0.481
897.500	502.263	80.005	20.009	100.315	20.009	10.697	0.522
898.000	502.532	80.004	20.009	100.323	20.012	10.097	0.539
898.500	502.726	80.005	20.009	100.324	20.009	10.589	0.496
899.000	503.030	80.005	20.008	100.321	20.009	10.566	0.480
899.500	503.256	80.007	20.009	100.312	20.009	10.662	0.514
900.000	503.465	80.005	20.009	100.304	20.006	11.040	0.483
900.500	503.706	80.005	20.009	100.298	20.006	11.067	0.443
901.000	503.959	80.005	20.008	100.303	20.006	11.098	0.472
901.500	504.137	80.006	20.009	100.312	20.005	11.337	0.462
902.000	504.437	80.005	20.009	100.315	20.004	11.426	0.454
902.500	504.646	80.006	20.008	100.315	20.007	10.946	0.494
903.000	504.895	80.005	20.009	100.309	20.003	11.522	0.484
903.500	505.157	80.006	20.009	100.297	20.006	11.150	0.485
904.000	505.382	80.005	20.009	100.289	20.006	11.188	0.499
904.500	505.642	80.005	20.009	100.289	20.007	10.956	0.486
905.000	505.861	80.003	20.009	100.297	20.004	11.435	0.482
905.500	506.109	80.006	20.009	100.311	20.001	11.911	0.473
906.000	506.328	80.006	20.008	100.320	20.002	11.786	0.467
906.500	506.590	80.004	20.009	100.321	20.001	11.862	0.474
907.000	506.830	80.004	20.009	100.318	20.003	11.546	0.492
907.500	507.095	80.006	20.009	100.311	20.004	11.377	0.504
908.000	507.290	80.005	20.009	100.303	20.005	11.242	0.483
908.500	507.630	80.006	20.009	100.300	20.007	10.887	0.497
909.000	507.863	80.004	20.008	100.307	20.005	11.347	0.554
909.500	508.078	80.005	20.009	100.316	20.005	11.274	0.510
910.000	508.332	80.005	20.008	100.321	20.004	11.356	0.458
910.500	508.585	80.005	20.009	100.322	20.006	11.105	0.488
911.000	508.842	80.005	20.009	100.320	20.007	11.038	0.509
911.500	509.030	80.005	20.009	100.312	20.008	10.851	0.478
912.000	509.334	80.006	20.009	100.310	20.005	11.218	0.468
912.500	509.541	80.005	20.008	100.313	20.006	11.105	0.501
913.000	509.816	80.005	20.008	100.321	20.006	11.139	0.496
913.500	510.036	80.005	20.008	100.329	20.005	11.249	0.489
914.000	510.355	80.005	20.009	100.333	20.008	10.772	0.517
914.500	510.587	80.005	20.009	100.328	20.009	10.604	0.545
915.000	510.808	80.005	20.009	100.321	20.010	10.461	0.502
915.500	511.087	80.006	20.009	100.316	20.006	11.074	0.477
916.000	511.322	80.005	20.009	100.316	20.008	10.814	0.507
916.500	511.560	80.003	20.009	100.326	20.010	10.514	0.493
917.000	511.822	80.006	20.008	100.336	20.009	10.658	0.486
917.500	512.070	80.004	20.008	100.344	20.010	10.455	0.505
918.000	512.261	80.004	20.008	100.341	20.006	11.047	0.474
918.500	512.545	80.005	20.008	100.334	20.008	10.846	0.456
919.000	512.769	80.004	20.009	100.322	20.009	10.589	0.492
919.500	512.999	80.006	20.009	100.317	20.009	10.579	0.482
920.000	513.294	80.005	20.009	100.317	20.009	10.637	0.490
920.500	513.523	80.004	20.008	100.328	20.010	10.452	0.524
921.000	513.708	80.005	20.009	100.343	20.011	10.359	0.469
921.500	513.962	80.005	20.009	100.352	20.011	10.286	0.427
922.000	514.169	80.003	20.008	100.355	20.009	10.712	0.450
922.500	514.476	80.005	20.008	100.354	20.011	10.321	0.487
923.000	514.747	80.004	20.009	100.345	20.012	10.154	0.546
923.500	514.980	80.004	20.009	100.333	20.012	10.137	0.541
924.000	515.240	80.003	20.009	100.331	20.012	10.107	0.499
924.500	515.520	80.004	20.009	100.331	20.011	10.256	0.517
925.000	515.767	80.006	20.008	100.334	20.011	10.380	0.533
925.500	515.999	80.004	20.009	100.339	20.011	10.287	0.503
926.000	516.231	80.006	20.009	100.345	20.011	10.406	0.472
926.500	516.483	80.005	20.008	100.344	20.012	10.151	0.474
927.000	516.735	80.005	20.009	100.339	20.013	9.957	0.494
927.500	516.993	80.004	20.010	100.330	20.012	10.223	0.507
928.000	517.209	80.006	20.009	100.328	20.010	10.443	0.492
928.500	517.472	80.004	20.009	100.328	20.009	10.633	0.477
929.000	517.732	80.005	20.008	100.327	20.009	10.624	0.501
929.500	517.988	80.003	20.008	100.331	20.008	10.868	0.520
930.000	518.237	80.005	20.009	100.336	20.012	10.218	0.511
930.500	518.487	80.004	20.009	100.332	20.012	10.117	0.502
931.000	518.791	80.005	20.008	100.324	20.011	10.306	0.526
931.500	518.980	80.005	20.010	100.315	20.012	10.189	0.524
932.000	519.227	80.003	20.009	100.310	20.012	10.196	0.465
932.500	519.474	80.006	20.009	100.312	20.011	10.353	0.465
933.000	519.754	80.005	20.008	100.321	20.011	10.321	0.511
933.500	519.982	80.005	20.008	100.335	20.013	10.042	0.517
934.000	520.254	80.003	20.008	100.345	20.011	10.368	0.504
934.500	520.456	80.004	20.008	100.349	20.014	9.868	0.487
935.000	520.739	80.005	20.009	100.341	20.015	9.648	0.480
935.500	520.973	80.004	20.008	100.330	20.013	9.968	0.501
936.000	521.195	80.005	20.009	100.322	20.015	9.658	0.486
936.500	521.449	80.005	20.009	100.322	20.016	9.555	0.466
937.000	521.702	80.006	20.008	100.327	20.014	9.890	0.492
937.500	522.008	80.004	20.009	100.341	20.012	10.144	0.534
938.000	522.227	80.003	20.008	100.350	20.013	10.000	0.542
938.500	522.459	80.006	20.008	100.352	20.012	10.120	0.488
939.000	522.678	80.005	20.008	100.345	20.014	9.816	0.451
939.500	522.949	80.006	20.009	100.334	20.012	10.158	0.471
940.000	523.207	80.004	20.009	100.319	20.010	10.421	0.510
940.500	523.457	80.005	20.009	100.313	20.013	10.011	0.519
941.000	523.738	80.004	20.008	100.314	20.011	10.301	0.520
941.500	523.922	80.005	20.009	100.319	20.012	10.175	0.498
942.000	524.179	80.004	20.008	100.327	20.010	10.545	0.453
942.500	524.400	80.006	20.008	100.333	20.011	10.327	0.459
943.000	524.704	80.005	20.009	100.328	20.013	9.993	0.501
943.500	524.905	80.005	20.009	100.320	20.012	10.229	0.515
944.000	525.164	80.006	20.009	100.313	20.013	10.049	0.482
944.500	525.431	80.005	20.008	100.310	20.009	10.723	0.493
945.000	525.637	80.006	20.008	100.312	20.010	10.410	0.499
945.500	525.871	80.004	20.008	100.320	20.011	10.281	0.457
946.000	526.149	80.005	20.008	100.328	20.013	10.061	0.476
946.500	526.377	80.005	20.008	100.335	20.012	10.194	0.509
947.000	526.658	80.005	20.009	100.337	20.012	10.113	0.508
947.500	526.916	80.005	20.009	100.331	20.014	9.850	0.524
948.000	527.144	80.005	20.009	100.327	20.014	9.903	0.512
948.500	527.375	80.005	20.009	100.328	20.013	10.061	0.473
949.000	527.610	80.004	20.008	100.328	20.009	10.615	0.463
949.500	527.883	80.006	20.009	100.334	20.012	10.251	0.487
950.000	528.092	80.004	20.009	100.348	20.013	10.074	0.495
950.500	528.371	80.006	20.008	100.355	20.013	10.057	0.485
951.000	528.610	80.003	20.009	100.355	20.010	10.516	0.504
951.500	528.883	80.005	20.009	100.353	20.008	10.791	0.515
952.000	529.117	80.005	20.008	100.341	20.008	10.758	0.509
952.500	529.345	80.006	20.009	100.332	20.007	10.899	0.484
953.000	529.609	80.004	20.009	100.328	20.009	10.590	0.477
953.500	529.831	80.005	20.009	100.331	20.006	11.091	0.489
954.000	530.047	80.004	20.008	100.335	20.007	11.004	0.463
954.500	530.356	80.007	20.008	100.341	20.007	10.987	0.482
955.000	530.571	80.005	20.009	100.334	20.009	10.703	0.524
955.500	530.821	80.004	20.009	100.327	20.008	10.832	0.494
956.001	531.011	80.005	20.009	100.317	20.008	10.729	0.452
956.501	531.275	80.005	20.009	100.307	20.007	10.923	0.447
957.000	531.565	80.006	20.008	100.309	20.008	10.817	0.504
957.500	531.790	80.005	20.009	100.316	20.008	10.751	0.534
958.000	532.012	80.004	20.008	100.324	20.005	11.214	0.481
958.500	532.245	80.005	20.009	100.331	20.007	10.930	0.451
959.000	532.538	80.006	20.009	100.330	20.007	11.002	0.491
959.500	532.729	80.005	20.009	100.322	20.008	10.832	0.505
960.000	532.994	80.004	20.009	100.319	20.007	10.999	0.470
960.500	533.226	80.005	20.009	100.319	20.008	10.743	0.477
961.000	533.475	80.004	20.008	100.319	20.007	10.981	0.489
961.500	533.759	80.004	20.009	100.328	20.008	10.791	0.507
962.000	534.011	80.005	20.008	100.335	20.009	10.584	0.535
962.500	534.281	80.005	20.009	100.335	20.008	10.863	0.529
963.000	534.482	80.006	20.009	100.328	20.008	10.763	0.496
963.500	534.696	80.005	20.009	100.319	20.008	10.736	0.443
964.000	534.949	80.005	20.009	100.310	20.009	10.706	0.441
964.500	535.206	80.005	20.009	100.302	20.007	10.907	0.488
965.000	535.470	80.004	20.009	100.306	20.008	10.821	0.516
965.500	535.713	80.005	20.008	100.312	20.007	10.945	0.515
966.000	535.993	80.005	20.009	100.321	20.008	10.745	0.515
966.500	536.152	80.005	20.008	100.329	20.009	10.674	0.481
967.000	536.431	80.005	20.009	100.331	20.008	10.863	0.439
967.500	536.641	80.005	20.009	100.323	20.009	10.626	0.463
968.000	536.903	80.005	20.009	100.315	20.009	10.649	0.480
968.500	537.150	80.004	20.009	100.313	20.011	10.316	0.491
969.000	537.412	80.005	20.009	100.313	20.007	10.924	0.509
969.500	537.635	80.005	20.009	100.320	20.011	10.379	0.497
970.000	537.898	80.005	20.008	100.328	20.007	10.886	0.485
970.500	538.164	80.006	20.008	100.335	20.009	10.725	0.507
971.000	538.420	80.006	20.009	100.328	20.012	10.191	0.526
971.500	538.659	80.004	20.009	100.320	20.012	10.179	0.509
972.000	538.897	80.005	20.009	100.312	20.011	10.329	0.486
972.500	539.200	80.004	20.009	100.307	20.012	10.246	0.509
973.000	539.422	80.006	20.008	100.310	20.013	10.063	0.533
973.500	539.644	80.003	20.008	100.319	20.010	10.424	0.484
974.000	539.909	80.004	20.008	100.327	20.013	10.057	0.465
974.500	540.176	80.005	20.009	100.334	20.011	10.310	0.509
975.000	540.438	80.004	20.009	100.331	20.012	10.205	0.530
975.500	540.631	80.004	20.009	100.322	20.011	10.318	0.492
976.000	540.900	80.006	20.009	100.315	20.009	10.720	0.458
976.500	541.186	80.003	20.009	100.313	20.012	10.101	0.508
977.000	541.478	80.006	20.009	100.315	20.012	10.209	0.567
977.500	541.732	80.006	20.009	100.324	20.015	9.643	0.562
978.000	541.930	80.005	20.008	100.333	20.012	10.137	0.499
978.500	542.177	80.006	20.009	100.339	20.014	9.910	0.448
979.000	542.401	80.004	20.009	100.336	20.012	10.153	0.458
979.500	542.661	80.004	20.009	100.327	20.012	10.239	0.478
980.000	542.941	80.005	20.009	100.318	20.013	10.039	0.512
980.500	543.136	80.004	20.009	100.311	20.013	9.973	0.508
981.000	543.384	80.005	20.008	100.312	20.016	9.508	0.459
981.500	543.645	80.005	20.009	100.317	20.015	9.695	0.476
982.000	543.929	80.004	20.008	100.331	20.013	10.014	0.527
982.500	544.149	80.005	20.009	100.340	20.013	10.087	0.525
983.000	544.391	80.005	20.009	100.343	20.014	9.883	0.483
983.500	544.621	80.004	20.009	100.335	20.012	10.148	0.467
984.000	544.859	80.004	20.009	100.326	20.015	9.748	0.470
984.500	545.162	80.005	20.009	100.313	20.013	10.069	0.505
985.000	545.458	80.005	20.009	100.308	20.013	9.973	0.569
985.500	545.655	80.005	20.009	100.312	20.013	9.994	0.546
986.000	545.864	80.005	20.008	100.320	20.008	10.761	0.450
986.500	546.105	80.005	20.008	100.325	20.009	10.581	0.428
987.000	546.404	80.005	20.009	100.325	20.010	10.453	0.494
987.500	546.666	80.004	20.009	100.320	20.011	10.276	0.551
988.000	546.905	80.006	20.009	100.307	20.008	10.749	0.531
988.500	547.139	80.004	20.009	100.298	20.011	10.349	0.487
989.000	547.359	80.004	20.009	100.294	20.013	10.050	0.464
989.500	547.637	80.005	20.009	100.301	20.014	9.891	0.476
990.000	547.861	80.004	20.009	100.308	20.011	10.322	0.500
990.500	548.096	80.005	20.008	100.318	20.010	10.418	0.480
991.000	548.339	80.006	20.009	100.319	20.011	10.341	0.468
991.500	548.557	80.004	20.009	100.318	20.009	10.717	0.470
992.000	548.802	80.006	20.009	100.312	20.010	10.417	0.462
992.500	549.053	80.005	20.009	100.310	20.011	10.323	0.479
993.000	549.280	80.004	20.009	100.313	20.009	10.591	0.487
993.500	549.587	80.005	20.009	100.320	20.009	10.688	0.507
994.000	549.807	80.003	20.008	100.328	20.008	10.727	0.530
994.500	550.086	80.005	20.009	100.330	20.011	10.306	0.513
995.000	550.297	80.004	20.009	100.326	20.012	10.204	0.495
995.500	550.520	80.005	20.009	100.318	20.010	10.558	0.462
996.000	550.746	80.004	20.009	100.310	20.009	10.596	0.441
996.500	551.019	80.006	20.009	100.303	20.008	10.836	0.474
997.000	551.299	80.005	20.009	100.301	20.007	10.910	0.526
997.500	551.534	80.004	20.009	100.308	20.006	11.069	0.534
998.000	551.740	80.004	20.009	100.317	20.007	10.978	0.479
998.500	551.989	80.005	20.009	100.324	20.007	10.909	0.448
999.000	552.240	80.005	20.009	100.328	20.009	10.600	0.478
999.500	552.478	80.004	20.009	100.327	20.009	10.566	0.495
1000.000	552.712	80.004	20.009	100.319	20.009	10.635	0.480
1000.500	552.950	80.004	20.009	100.310	20.010	10.468	0.471
1001.000	553.179	80.005	20.009	100.309	20.010	10.409	0.469
1001.500	553.410	80.004	20.009	100.314	20.010	10.469	0.463
1002.000	553.640	80.006	20.009	100.322	20.008	10.817	0.461
1002.500	553.858	80.004	20.008	100.331	20.009	10.704	0.455
1003.000	554.131	80.006	20.009	100.338	20.011	10.311	0.470
1003.500	554.358	80.005	20.009	100.332	20.008	10.836	0.496
1004.000	554.649	80.006	20.009	100.326	20.008	10.752	0.509
1004.500	554.889	80.004	20.009	100.321	20.011	10.395	0.524
1005.000	555.148	80.005	20.009	100.320	20.011	10.266	0.515
1005.500	555.427	80.005	20.009	100.319	20.008	10.731	0.519
1006.000	555.658	80.005	20.009	100.326	20.007	10.895	0.525
1006.500	555.815	80.004	20.009	100.330	20.007	10.999	0.449
1007.000	556.098	80.007	20.009	100.325	20.006	11.055	0.413
1007.500	556.312	80.005	20.009	100.309	20.012	10.111	0.469
1008.000	556.607	80.004	20.009	100.290	20.010	10.537	0.503
1008.500	556.803	80.005	20.009	100.268	20.008	10.757	0.500
1009.000	557.043	80.003	20.009	100.254	20.011	10.341	0.464
1009.500	557.250	80.005	20.009	100.252	20.010	10.463	0.441
1010.000	557.551	80.004	20.009	100.264	20.012	10.127	0.477
1010.500	557.760	80.005	20.008	100.284	20.010	10.434	0.509
1011.000	557.987	80.006	20.009	100.306	20.009	10.573	0.473
1011.500	558.204	80.004	20.009	100.315	20.011	10.319	0.440
1012.000	558.488	80.004	20.009	100.317	20.012	10.217	0.473
1012.500	558.620	80.005	20.009	100.311	20.012	10.184	0.459
1013.000	558.870	80.005	20.009	100.304	20.011	10.307	0.399
1013.500	559.133	80.004	20.009	100.299	20.014	9.851	0.447
1014.000	559.384	80.004	20.009	100.306	20.013	9.969	0.514
1014.500	559.594	80.005	20.009	100.315	20.014	9.862	0.487
1015.000	559.888	80.003	20.008	100.324	20.016	9.598	0.482
1015.500	560.094	80.004	20.009	100.328	20.013	9.997	0.502
1016.000	560.347	80.005	20.009	100.326	20.015	9.696	0.480
1016.500	560.612	80.005	20.009	100.317	20.013	10.069	0.489
1017.000	560.874	80.005	20.009	100.310	20.014	9.916	0.523
1017.500	561.081	80.005	20.009	100.308	20.014	9.887	0.498
1018.000	561.248	80.003	20.009	100.312	20.008	10.787	0.422
1018.500	561.516	80.005	20.009	100.326	20.009	10.581	0.405
1019.000	561.830	80.005	20.008	100.336	20.010	10.487	0.508
1019.500	562.082	80.004	20.009	100.344	20.012	10.193	0.574
1020.000	562.307	80.005	20.009	100.341	20.011	10.320	0.522
1020.500	562.599	80.005	20.009	100.334	20.012	10.220	0.497
1021.000	562.837	80.006	20.009	100.326	20.013	10.037	0.523
1021.500	563.054	80.004	20.009	100.326	20.009	10.635	0.493
1022.000	563.266	80.005	20.009	100.332	20.011	10.353	0.442
1022.500	563.578	80.004	20.009	100.345	20.010	10.439	0.476
1023.000	563.793	80.005	20.008	100.356	20.011	10.275	0.526
1023.500	564.049	80.005	20.009	100.358	20.011	10.404	0.500
1024.000	564.258	80.004	20.008	100.353	20.009	10.626	0.468
1024.500	564.525	80.006	20.009	100.340	20.008	10.768	0.470
1025.000	564.753	80.004	20.009	100.328	20.007	10.969	0.486
1025.500	565.048	80.004	20.009	100.323	20.007	10.893	0.509
1026.000	565.310	80.005	20.009	100.326	20.005	11.201	0.540
1026.500	565.519	80.006	20.009	100.331	20.006	11.141	0.514
1027.000	565.765	80.004	20.009	100.338	20.004	11.380	0.463
1027.500	566.068	80.005	20.008	100.337	20.004	11.360	0.502
1028.000	566.338	80.005	20.009	100.329	20.005	11.306	0.561
1028.500	566.594	80.005	20.009	100.318	20.003	11.586	0.549
1029.000	566.829	80.004	20.009	100.309	20.004	11.400	0.509
1029.500	567.069	80.005	20.009	100.308	20.006	11.085	0.483
1030.000	567.365	80.005	20.009	100.313	20.005	11.236	0.505
1030.500	567.586	80.005	20.009	100.321	20.005	11.200	0.526
1031.000	567.837	80.004	20.009	100.329	20.002	11.752	0.495
1031.500	568.104	80.004	20.009	100.334	20.003	11.601	0.495
1032.000	568.344	80.005	20.009	100.327	20.004	11.376	0.513
1032.500	568.586	80.005	20.009	100.321	20.006	11.053	0.495
1033.000	568.838	80.005	20.009	100.320	20.004	11.401	0.488
1033.500	569.081	80.005	20.009	100.320	20.004	11.493	0.494
1034.000	569.302	80.005	20.009	100.325	20.003	11.574	0.480
1034.500	569.570	80.004	20.009	100.337	20.004	11.371	0.477
1035.000	569.818	80.006	20.008	100.345	20.006	11.131	0.502
1035.500	570.098	80.004	20.009	100.340	20.005	11.200	0.522
1036.000	570.366	80.005	20.009	100.333	20.008	10.845	0.539
1036.500	570.616	80.005	20.009	100.324	20.006	11.187	0.533
1037.000	570.875	80.004	20.009	100.311	20.004	11.394	0.513
1037.500	571.118	80.005	20.009	100.307	20.005	11.294	0.505
1038.000	571.368	80.005	20.008	100.313	20.008	10.868	0.497
1038.501	571.655	80.004	20.009	100.321	20.006	11.055	0.515
1039.001	571.921	80.006	20.009	100.328	20.006	11.041	0.545
1039.500	572.167	80.004	20.009	100.332	20.006	11.124	0.532
1040.001	572.439	80.005	20.009	100.327	20.009	10.660	0.514
1040.501	572.651	80.006	20.009	100.319	20.006	11.056	0.501
1041.000	572.924	80.005	20.009	100.316	20.010	10.487	0.485
1041.501	573.217	80.004	20.009	100.316	20.010	10.455	0.526
1042.001	573.474	80.006	20.009	100.327	20.010	10.562	0.558
1042.500	573.670	80.004	20.008	100.341	20.009	10.676	0.501
1043.000	573.932	80.004	20.008	100.349	20.008	10.779	0.455
1043.500	574.161	80.004	20.009	100.348	20.007	10.927	0.475
1044.000	574.454	80.005	20.010	100.341	20.008	10.876	0.507
1044.500	574.704	80.005	20.009	100.329	20.009	10.703	0.533
1045.000	575.029	80.005	20.009	100.320	20.011	10.383	0.559
1045.500	575.218	80.005	20.009	100.320	20.007	10.917	0.544
1046.000	575.498	80.005	20.009	100.331	20.009	10.655	0.491
1046.500	575.710	80.005	20.008	100.346	20.008	10.858	0.481
1047.000	576.004	80.005	20.008	100.359	20.010	10.557	0.499
1047.501	576.236	80.005	20.008	100.363	20.012	10.200	0.516
1048.001	576.519	80.005	20.009	100.363	20.012	10.152	0.520
1048.500	576.866	80.005	20.009	100.349	20.010	10.478	0.573
1049.000	577.099	80.003	20.009	100.337	20.012	10.212	0.605
1049.500	577.321	80.005	20.009	100.329	20.008	10.750	0.517
1050.001	577.567	80.005	20.009	100.329	20.010	10.467	0.461
1050.501	577.807	80.006	20.009	100.329	20.008	10.874	0.477
1051.000	578.104	80.005	20.008	100.338	20.009	10.710	0.512
1051.500	578.337	80.005	20.009	100.340	20.010	10.469	0.533
1052.000	578.620	80.005	20.009	100.332	20.011	10.385	0.523
1052.500	578.850	80.006	20.009	100.325	20.008	10.811	0.514
1053.000	579.112	80.004	20.009	100.319	20.006	11.161	0.503
1053.500	579.382	80.005	20.009	100.316	20.007	10.999	0.512
1054.001	579.641	80.005	20.009	100.322	20.007	11.013	0.531
1054.501	579.872	80.005	20.009	100.334	20.009	10.704	0.510
1055.000	580.165	80.006	20.009	100.341	20.006	11.073	0.507
1055.500	580.419	80.005	20.008	100.345	20.008	10.853	0.535
1056.000	580.707	80.005	20.009	100.339	20.006	11.118	0.545
1056.501	580.884	80.005	20.009	100.329	20.004	11.475	0.503
1057.001	581.208	80.004	20.009	100.320	20.008	10.816	0.483
1057.500	581.448	80.005	20.009	100.320	20.007	10.897	0.533
1058.000	581.734	80.006	20.008	100.321	20.005	11.327	0.545
1058.500	581.943	80.006	20.010	100.328	20.005	11.264	0.510
1059.000	582.196	80.005	20.009	100.335	20.004	11.480	0.479
1059.501	582.449	80.005	20.009	100.333	20.003	11.576	0.484
1060.001	582.714	80.006	20.009	100.325	20.006	11.188	0.511
1060.501	582.972	80.005	20.009	100.315	20.006	11.048	0.520
1061.000	583.228	80.005	20.008	100.307	20.006	11.142	0.519
1061.500	583.467	80.005	20.009	100.304	20.007	10.907	0.504
1062.001	583.763	80.006	20.009	100.310	20.003	11.611	0.515
1062.501	584.002	80.003	20.009	100.318	20.000	12.041	0.535
1063.001	584.267	80.006	20.009	100.326	20.002	11.803	0.520
1063.501	584.542	80.005	20.008	100.326	20.004	11.399	0.522
1064.000	584.774	80.005	20.009	100.320	20.004	11.468	0.523
1064.500	585.004	80.006	20.009	100.310	20.003	11.550	0.485
1065.000	585.300	80.006	20.009	100.303	20.001	11.911	0.494
1065.500	585.499	80.005	20.009	100.299	20.002	11.796	0.510
1066.000	585.817	80.005	20.009	100.306	20.003	11.580	0.506
1066.500	586.012	80.005	20.008	100.314	20.003	11.551	0.515
1067.000	586.284	80.004	20.009	100.322	20.006	11.186	0.490
1067.500	586.547	80.007	20.009	100.323	20.009	10.698	0.501
1068.000	586.839	80.005	20.009	100.321	20.008	10.857	0.545
1068.500	587.085	80.005	20.009	100.315	20.008	10.740	0.546
1069.000	587.303	80.004	20.009	100.306	20.007	11.037	0.501
1069.501	587.586	80.005	20.009	100.306	20.006	11.068	0.483
1070.001	587.817	80.006	20.009	100.313	20.009	10.726	0.508
1070.500	588.116	80.005	20.009	100.321	20.005	11.280	0.522
1071.000	588.342	80.006	20.009	100.328	20.007	11.007	0.527
1071.500	588.571	80.005	20.009	100.330	20.007	10.986	0.490
1072.000	588.839	80.005	20.009	100.323	20.004	11.385	0.476
1072.500	589.100	80.006	20.009	100.316	20.005	11.227	0.513
1073.001	589.361	80.005	20.009	100.308	20.006	11.097	0.526
1073.501	589.625	80.004	20.009	100.308	20.004	11.498	0.524
1074.000	589.895	80.006	20.009	100.314	20.006	11.153	0.530
1074.500	590.117	80.006	20.009	100.322	20.003	11.611	0.513
1075.001	590.351	80.004	20.008	100.330	20.004	11.444	0.474
1075.501	590.645	80.007	20.008	100.332	20.002	11.677	0.492
1076.001	590.877	80.005	20.009	100.322	20.003	11.521	0.527
1076.500	591.129	80.005	20.009	100.313	20.004	11.384	0.505
1077.000	591.346	80.006	20.009	100.305	20.006	11.190	0.477
1077.500	591.645	80.003	20.009	100.298	20.005	11.297	0.493
1078.000	591.860	80.007	20.009	100.303	20.006	11.109	0.515
1078.500	592.072	80.004	20.009	100.316	20.006	11.056	0.470
1079.000	592.322	80.005	20.008	100.328	20.006	11.073	0.444
1079.500	592.629	80.003	20.008	100.335	20.004	11.456	0.510
1080.001	592.848	80.006	20.009	100.343	20.006	11.091	0.542
1080.501	593.101	80.006	20.009	100.337	20.007	11.017	0.499
1081.000	593.334	80.005	20.009	100.328	20.006	11.190	0.479
1081.500	593.608	80.005	20.009	100.324	20.005	11.298	0.497
1082.001	593.830	80.005	20.009	100.326	20.006	11.189	0.501
1082.501	594.101	80.004	20.008	100.333	20.003	11.603	0.494
1083.000	594.378	80.006	20.009	100.345	20.001	11.833	0.520
1083.500	594.610	80.005	20.009	100.354	20.001	11.829	0.529
1084.000	594.861	80.005	20.009	100.354	20.003	11.547	0.496
1084.500	595.129	80.004	20.009	100.349	20.006	11.170	0.501
1085.001	595.385	80.006	20.009	100.334	20.005	11.240	0.522
1085.501	595.646	80.005	20.009	100.328	20.006	11.177	0.521
1086.001	595.874	80.005	20.008	100.329	20.004	11.415	0.503
1086.501	596.114	80.005	20.009	100.338	20.006	11.090	0.478
1087.000	596.374	80.006	20.009	100.347	20.005	11.244	0.484
1087.501	596.629	80.005	20.009	100.358	20.007	11.004	0.508
1088.001	596.833	80.004	20.009	100.359	20.006	11.167	0.488
1088.501	597.099	80.005	20.009	100.352	20.005	11.203	0.464
1089.000	597.376	80.005	20.009	100.336	20.006	11.163	0.506
1089.500	597.581	80.005	20.009	100.327	20.006	11.051	0.513
1090.000	597.829	80.005	20.009	100.323	20.006	11.108	0.468
1090.500	598.070	80.005	20.009	100.330	20.005	11.322	0.471
1091.000	598.316	80.004	20.008	100.340	20.003	11.581	0.488
1091.500	598.569	80.004	20.008	100.349	20.004	11.427	0.493
1092.000	598.818	80.005	20.009	100.353	20.003	11.670	0.501
1092.500	599.083	80.005	20.009	100.346	20.006	11.187	0.508
1093.000	599.341	80.005	20.009	100.333	20.004	11.367	0.518
1093.500	599.594	80.004	20.009	100.327	20.005	11.328	0.517
1094.001	599.837	80.003	20.009	100.326	20.005	11.328	0.503
1094.501	600.086	80.004	20.008	100.334	20.003	11.651	0.494
1095.000	600.317	80.005	20.009	100.343	20.004	11.406	0.486
1095.500	600.552	80.004	20.008	100.351	20.005	11.315	0.473
1096.000	600.849	80.005	20.009	100.348	20.007	11.038	0.499
1096.500	601.063	80.004	20.008	100.341	20.007	10.905	0.522
1097.000	601.344	80.005	20.009	100.325	20.008	10.795	0.503
1097.500	601.625	80.005	20.008	100.322	20.009	10.676	0.528
1098.000	601.832	80.005	20.009	100.322	20.008	10.870	0.525
1098.500	602.040	80.004	20.008	100.326	20.006	11.063	0.451
1099.000	602.306	80.004	20.009	100.340	20.005	11.202	0.445
1099.500	602.518	80.004	20.008	100.353	20.005	11.258	0.477
1100.000	602.762	80.004	20.009	100.355	20.006	11.125	0.467
1100.500	603.027	80.004	20.009	100.355	20.005	11.229	0.482
1101.000	603.329	80.005	20.010	100.353	20.005	11.314	0.538
1101.500	603.536	80.005	20.008	100.350	20.006	11.138	0.538
1102.000	603.786	80.003	20.008	100.352	20.005	11.351	0.483
1102.500	604.074	80.005	20.009	100.360	20.004	11.427	0.498
1103.001	604.319	80.004	20.008	100.366	20.003	11.590	0.536
1103.501	604.543	80.005	20.009	100.368	20.008	10.816	0.501
1104.001	604.796	80.006	20.010	100.364	20.006	11.129	0.473
1104.500	605.055	80.004	20.010	100.357	20.008	10.842	0.494
1105.000	605.297	80.006	20.009	100.350	20.009	10.599	0.507
1105.501	605.553	80.005	20.008	100.352	20.008	10.869	0.500
1106.001	605.804	80.004	20.009	100.357	20.009	10.685	0.502
1106.501	606.028	80.005	20.009	100.361	20.006	11.138	0.491
1107.001	606.266	80.004	20.008	100.362	20.009	10.674	0.468
1107.501	606.536	80.006	20.009	100.360	20.006	11.050	0.485
1108.001	606.767	80.004	20.009	100.350	20.009	10.584	0.505
1108.501	607.005	80.005	20.009	100.339	20.008	10.745	0.485
1109.001	607.267	80.005	20.009	100.335	20.007	11.016	0.484
1109.500	607.577	80.006	20.009	100.335	20.007	10.983	0.536
1110.000	607.775	80.006	20.010	100.341	20.008	10.792	0.540
1110.501	608.042	80.005	20.009	100.348	20.007	10.918	0.487
1111.001	608.268	80.005	20.009	100.352	20.007	11.037	0.478
1111.501	608.550	80.005	20.009	100.351	20.009	10.614	0.500
1112.000	608.798	80.006	20.009	100.343	20.007	10.978	0.520
1112.500	609.064	80.004	20.009	100.337	20.009	10.667	0.522
1113.000	609.310	80.005	20.009	100.339	20.007	11.035	0.513
1113.501	609.616	80.005	20.008	100.346	20.008	10.766	0.532
1114.001	609.850	80.005	20.009	100.356	20.007	10.896	0.546
1114.500	610.076	80.006	20.009	100.363	20.005	11.219	0.500
1115.000	610.281	80.005	20.009	100.364	20.007	10.939	0.445
1115.500	610.532	80.005	20.009	100.357	20.006	11.105	0.443
1116.001	610.744	80.006	20.009	100.351	20.006	11.055	0.459
1116.501	611.044	80.005	20.009	100.343	20.008	10.879	0.487
1117.001	611.215	80.004	20.008	100.343	20.010	10.452	0.492
1117.501	611.521	80.003	20.009	100.345	20.006	11.072	0.475
1118.000	611.753	80.005	20.009	100.346	20.008	10.745	0.508
1118.500	612.016	80.004	20.008	100.345	20.007	10.928	0.516
1119.000	612.227	80.006	20.009	100.341	20.007	10.891	0.484
1119.500	612.457	80.004	20.009	100.333	20.007	11.026	0.458
1120.000	612.745	80.004	20.009	100.323	20.007	10.993	0.480
1120.500	612.968	80.004	20.009	100.321	20.007	10.976	0.515
1121.000	613.262	80.005	20.009	100.324	20.006	11.163	0.514
1121.500	613.492	80.004	20.008	100.335	20.004	11.492	0.521
1122.000	613.747	80.004	20.008	100.344	20.008	10.853	0.505
1122.500	613.977	80.005	20.008	100.349	20.005	11.251	0.485
1123.001	614.239	80.004	20.009	100.342	20.007	10.909	0.488
1123.501	614.506	80.005	20.009	100.333	20.007	10.925	0.511
1124.001	614.776	80.004	20.009	100.325	20.007	10.932	0.533
1124.501	614.993	80.005	20.008	100.327	20.009	10.702	0.512
1125.000	615.227	80.004	20.009	100.338	20.008	10.829	0.469
1125.501	615.481	80.004	20.009	100.353	20.008	10.749	0.469
1126.001	615.765	80.005	20.008	100.366	20.009	10.689	0.512
1126.500	615.971	80.004	20.008	100.374	20.010	10.462	0.514
1127.000	616.223	80.004	20.008	100.373	20.009	10.582	0.474
1127.500	616.528	80.005	20.009	100.371	20.011	10.376	0.508
1128.000	616.716	80.005	20.009	100.370	20.012	10.241	0.525
1128.500	617.016	80.005	20.009	100.370	20.012	10.161	0.490
1129.000	617.192	80.005	20.009	100.372	20.011	10.385	0.482
1129.500	617.462	80.004	20.008	100.376	20.010	10.528	0.461
1130.000	617.743	80.004	20.009	100.376	20.014	9.927	0.499
1130.500	617.950	80.004	20.009	100.373	20.012	10.190	0.519
1131.000	618.243	80.005	20.010	100.371	20.012	10.107	0.494
1131.500	618.469	80.005	20.010	100.366	20.011	10.358	0.510
1132.001	618.729	80.004	20.009	100.366	20.009	10.702	0.503
1132.501	618.946	80.003	20.008	100.373	20.011	10.399	0.481
1133.001	619.224	80.004	20.008	100.380	20.011	10.395	0.486
1133.501	619.455	80.005	20.009	100.381	20.012	10.224	0.502
1134.001	619.713	80.003	20.009	100.378	20.009	10.613	0.499
1134.501	619.978	80.006	20.009	100.370	20.007	10.957	0.506
1135.001	620.201	80.004	20.009	100.350	20.008	10.850	0.506
1135.501	620.445	80.004	20.009	100.331	20.007	11.007	0.478
1136.001	620.708	80.004	20.009	100.316	20.008	10.778	0.486
1136.501	620.950	80.005	20.008	100.311	20.007	10.888	0.506
1137.001	621.182	80.004	20.008	100.309	20.007	10.981	0.490
1137.501	621.432	80.005	20.009	100.312	20.005	11.323	0.478
1138.001	621.680	80.005	20.009	100.312	20.007	10.986	0.490
1138.500	621.855	80.004	20.009	100.313	20.006	11.126	0.461
1139.000	622.156	80.005	20.009	100.309	20.006	11.133	0.449
1139.500	622.405	80.004	20.009	100.305	20.005	11.224	0.513
1140.000	622.649	80.005	20.008	100.307	20.008	10.852	0.522
1140.500	622.896	80.005	20.009	100.314	20.003	11.539	0.492
1141.000	623.103	80.004	20.008	100.325	20.004	11.505	0.472
1141.500	623.340	80.005	20.008	100.333	20.003	11.591	0.449
1142.000	623.646	80.005	20.009	100.334	20.001	11.893	0.494
1142.500	623.932	80.005	20.009	100.329	20.002	11.697	0.568
1143.000	624.116	80.005	20.009	100.326	20.004	11.500	0.531
1143.500	624.403	80.004	20.009	100.323	20.005	11.315	0.470
1144.000	624.685	80.006	20.008	100.324	20.002	11.785	0.520
1144.501	624.932	80.005	20.008	100.331	20.002	11.735	0.549
1145.001	625.141	80.004	20.009	100.338	20.002	11.734	0.492
1145.500	625.404	80.005	20.008	100.341	20.001	11.880	0.464
1146.000	625.669	80.004	20.009	100.336	20.002	11.793	0.500
1146.500	625.944	80.005	20.008	100.329	20.003	11.666	0.534
1147.000	626.147	80.004	20.009	100.322	20.002	11.697	0.509
1147.500	626.393	80.006	20.009	100.322	20.003	11.547	0.464
1148.000	626.645	80.004	20.008	100.324	20.004	11.462	0.473
1148.500	626.911	80.006	20.009	100.329	20.002	11.671	0.508
1149.001	627.177	80.005	20.009	100.335	20.003	11.567	0.525
1149.501	627.468	80.004	20.009	100.337	20.000	12.043	0.544
1150.000	627.712	80.006	20.009	100.330	19.999	12.143	0.546
1150.500	627.944	80.006	20.009	100.322	20.001	11.859	0.505
1151.001	628.179	80.005	20.009	100.317	20.001	11.880	0.471
1151.501	628.451	80.004	20.008	100.318	20.001	11.907	0.487
1152.000	628.742	80.005	20.008	100.322	20.000	12.084	0.535
1152.500	628.986	80.004	20.009	100.333	19.999	12.200	0.549
1153.001	629.242	80.006	20.008	100.341	19.998	12.449	0.518
1153.501	629.466	80.005	20.009	100.344	19.997	12.465	0.490
1154.000	629.738	80.005	20.009	100.337	19.999	12.272	0.488
1154.500	629.984	80.004	20.008	100.329	19.998	12.454	0.508
1155.000	630.251	80.006	20.009	100.325	19.998	12.372	0.516
1155.501	630.502	80.003	20.009	100.324	19.998	12.421	0.515
1156.001	630.781	80.006	20.008	100.327	19.998	12.388	0.524
1156.500	630.972	80.005	20.009	100.333	19.998	12.381	0.500
1157.000	631.182	80.005	20.008	100.339	19.996	12.620	0.435
1157.500	631.458	80.005	20.009	100.337	19.996	12.692	0.443
1158.001	631.728	80.004	20.009	100.329	19.997	12.568	0.516
1158.501	631.962	80.005	20.009	100.321	19.994	12.951	0.525
1159.000	632.251	80.005	20.009	100.320	19.995	12.886	0.513
1159.500	632.479	80.005	20.008	100.320	19.995	12.863	0.520
1160.000	632.763	80.005	20.009	100.324	19.994	13.086	0.515
1160.500	633.029	80.006	20.008	100.331	19.996	12.646	0.531
1161.000	633.263	80.005	20.009	100.339	19.996	12.732	0.525
1161.500	633.497	80.004	20.009	100.336	19.997	12.541	0.483
1162.000	633.761	80.006	20.008	100.331	19.995	12.808	0.483
1162.501	634.025	80.006	20.009	100.323	19.999	12.219	0.513
1163.001	634.277	80.005	20.009	100.320	19.998	12.453	0.522
1163.500	634.530	80.005	20.008	100.320	19.998	12.441	0.510
1164.001	634.749	80.005	20.009	100.324	19.999	12.291	0.489
1164.501	635.031	80.005	20.008	100.330	19.999	12.227	0.487
1165.000	635.243	80.006	20.008	100.332	19.999	12.172	0.497
1165.500	635.483	80.005	20.009	100.327	20.000	12.027	0.473
1166.000	635.734	80.006	20.009	100.319	20.001	11.866	0.471
1166.500	635.991	80.005	20.009	100.315	20.002	11.809	0.499
1167.000	636.255	80.007	20.009	100.314	20.003	11.574	0.514
1167.500	636.494	80.004	20.008	100.327	19.999	12.152	0.512
1168.000	636.707	80.004	20.009	100.343	20.001	11.910	0.478
1168.500	636.995	80.005	20.008	100.359	19.999	12.247	0.477
1169.000	637.217	80.005	20.008	100.364	19.999	12.284	0.506
1169.500	637.464	80.005	20.009	100.363	20.001	11.962	0.489
1170.000	637.776	80.006	20.009	100.352	19.998	12.388	0.514
1170.501	637.971	80.004	20.009	100.343	20.000	12.128	0.534
1171.001	638.234	80.005	20.009	100.336	20.001	11.842	0.483
1171.500	638.501	80.004	20.009	100.337	20.002	11.773	0.493
1172.000	638.706	80.006	20.008	100.344	20.002	11.684	0.501
1172.500	639.008	80.005	20.009	100.349	20.004	11.424	0.489
1173.000	639.249	80.006	20.009	100.350	20.003	11.560	0.525
1173.501	639.474	80.003	20.009	100.348	20.004	11.399	0.505
1174.001	639.698	80.004	20.009	100.343	20.005	11.281	0.458
1174.500	639.980	80.005	20.009	100.335	20.006	11.064	0.477
1175.000	640.208	80.004	20.008	100.335	20.007	11.021	0.508
1175.500	640.406	80.005	20.009	100.341	20.004	11.469	0.468
1176.000	640.723	80.006	20.009	100.351	20.003	11.620	0.470
1176.500	640.934	80.004	20.008	100.360	20.003	11.660	0.522
1177.000	641.249	80.005	20.008	100.361	20.004	11.509	0.527
1177.500	641.446	80.004	20.009	100.354	20.003	11.531	0.519
1178.000	641.736	80.005	20.009	100.341	20.004	11.423	0.500
1178.500	642.005	80.005	20.008	100.325	20.002	11.693	0.523
1179.000	642.224	80.004	20.009	100.316	20.003	11.597	0.523
1179.500	642.494	80.006	20.009	100.317	20.003	11.561	0.488
1180.001	642.765	80.004	20.008	100.329	20.002	11.765	0.515
1180.501	642.988	80.005	20.009	100.344	20.001	11.885	0.518
1181.000	643.258	80.005	20.009	100.353	20.002	11.702	0.494
1181.500	643.537	80.004	20.009	100.356	20.004	11.391	0.521
1182.000	643.768	80.005	20.009	100.354	20.005	11.307	0.529
1182.500	644.038	80.005	20.009	100.344	20.003	11.617	0.505
1183.000	644.252	80.005	20.009	100.336	20.004	11.444	0.493
1183.501	644.533	80.005	20.009	100.334	20.000	12.081	0.490
1184.001	644.712	80.005	20.008	100.338	20.000	12.018	0.477
1184.500	644.978	80.003	20.009	100.346	20.002	11.739	0.452
1185.000	645.218	80.005	20.008	100.355	20.002	11.696	0.475
1185.500	645.489	80.005	20.008	100.356	20.002	11.785	0.509
1186.001	645.695	80.004	20.009	100.353	20.001	11.922	0.494
1186.501	645.970	80.004	20.009	100.343	20.000	11.995	0.479
1187.000	646.219	80.005	20.009	100.330	20.000	12.058	0.503
1187.500	646.499	80.005	20.009	100.326	19.999	12.298	0.527
1188.000	646.788	80.004	20.009	100.332	20.001	11.858	0.549
1188.500	647.023	80.007	20.008	100.342	19.999	12.218	0.547
1189.000	647.279	80.004	20.008	100.349	19.998	12.332	0.507
1189.500	647.524	80.005	20.009	100.354	20.001	11.941	0.496
1190.001	647.820	80.005	20.009	100.345	20.002	11.750	0.521
1190.501	648.070	80.005	20.009	100.332	20.000	12.055	0.544
1191.001	648.275	80.005	20.008	100.322	20.002	11.788	0.501
1191.500	648.523	80.006	20.009	100.321	20.000	12.008	0.454
1192.000	648.778	80.004	20.009	100.323	20.001	11.979	0.478
1192.501	648.995	80.005	20.009	100.332	20.000	12.093	0.487
1193.001	649.275	80.006	20.009	100.339	20.001	11.944	0.484
1193.500	649.528	80.005	20.008	100.340	19.999	12.277	0.515
1194.000	649.800	80.005	20.009	100.339	20.004	11.430	0.529
1194.500	650.045	80.005	20.009	100.332	20.004	11.422	0.521
1195.000	650.296	80.005	20.009	100.328	20.004	11.471	0.507
1195.500	650.513	80.005	20.009	100.327	20.005	11.232	0.482
1196.000	650.746	80.004	20.009	100.327	20.005	11.243	0.459
1196.500	651.028	80.005	20.009	100.332	20.004	11.398	0.482
1197.000	651.265	80.004	20.008	100.340	20.004	11.383	0.517
1197.500	651.542	80.007	20.009	100.342	20.003	11.517	0.517
1198.000	651.786	80.005	20.009	100.343	20.003	11.617	0.517
1198.500	652.003	80.004	20.009	100.341	20.003	11.603	0.491
1199.000	652.257	80.007	20.009	100.338	20.003	11.529	0.466
1199.500	652.535	80.004	20.010	100.337	20.003	11.642	0.502
1200.000	652.768	80.006	20.009	100.338	20.002	11.756	0.522
1200.501	653.002	80.004	20.009	100.339	20.001	11.837	0.489
1201.001	653.240	80.006	20.009	100.340	20.000	12.005	0.469
1201.501	653.577	80.005	20.008	100.340	20.001	11.932	0.523
1202.001	653.789	80.006	20.008	100.339	20.000	12.095	0.562
1202.501	654.030	80.004	20.009	100.331	20.001	11.944	0.501
1203.000	654.273	80.005	20.009	100.322	20.002	11.709	0.469
1203.500	654.493	80.005	20.009	100.313	20.005	11.298	0.473
1204.001	654.773	80.005	20.009	100.307	20.003	11.617	0.481
1204.501	655.006	80.005	20.009	100.307	20.003	11.618	0.507
1205.000	655.288	80.004	20.008	100.316	20.002	11.721	0.514
1205.500	655.551	80.004	20.009	100.324	20.002	11.779	0.529
1206.000	655.882	80.006	20.009	100.328	20.001	11.959	0.569
1206.500	656.131	80.005	20.009	100.327	20.003	11.625	0.587
1207.001	656.358	80.005	20.009	100.320	20.003	11.610	0.529
1207.501	656.584	80.005	20.009	100.312	20.001	11.976	0.465
1208.000	656.875	80.004	20.009	100.304	20.004	11.380	0.485
1208.500	657.101	80.004	20.009	100.308	20.004	11.421	0.517
1209.000	657.353	80.004	20.009	100.319	20.004	11.502	0.497
1209.500	657.653	80.005	20.008	100.333	20.002	11.736	0.515
1210.000	657.918	80.003	20.008	100.346	20.002	11.750	0.558
1210.501	658.171	80.005	20.010	100.354	20.003	11.566	0.541
1211.001	658.396	80.006	20.009	100.355	20.005	11.299	0.498
1211.500	658.693	80.005	20.009	100.351	20.004	11.505	0.500
1212.001	658.916	80.004	20.009	100.345	20.004	11.512	0.521
1212.501	659.205	80.005	20.009	100.341	20.003	11.529	0.516
1213.000	659.492	80.005	20.009	100.349	20.003	11.627	0.545
1213.501	659.720	80.006	20.009	100.357	20.002	11.714	0.546
1214.001	659.908	80.005	20.009	100.364	20.003	11.571	0.465
1214.500	660.179	80.005	20.009	100.367	20.001	11.920	0.437
1215.000	660.410	80.005	20.008	100.366	20.001	11.958	0.480
1215.501	660.693	80.005	20.009	100.356	20.002	11.781	0.509
1216.001	660.935	80.006	20.009	100.341	20.001	11.897	0.520
1216.500	661.185	80.005	20.009	100.331	20.003	11.528	0.508
1217.001	661.403	80.006	20.009	100.328	20.001	11.966	0.480
1217.500	661.624	80.005	20.008	100.332	20.001	11.958	0.454
1218.000	661.932	80.005	20.009	100.337	20.000	12.004	0.484
1218.500	662.197	80.005	20.009	100.343	19.999	12.223	0.550
1219.000	662.471	80.005	20.009	100.343	19.998	12.339	0.556
1219.500	662.705	80.005	20.009	100.335	20.002	11.798	0.524
1220.000	662.954	80.006	20.009	100.322	20.001	11.898	0.496
1220.500	663.200	80.006	20.009	100.318	20.002	11.795	0.489
1221.000	663.428	80.005	20.009	100.319	20.002	11.822	0.484
1221.500	663.728	80.006	20.008	100.330	20.000	11.993	0.501
1222.000	663.914	80.005	20.009	100.342	20.002	11.682	0.507
1222.500	664.185	80.005	20.009	100.350	20.003	11.634	0.471
1223.000	664.446	80.004	20.008	100.353	20.002	11.703	0.495
1223.500	664.683	80.005	20.009	100.351	20.002	11.817	0.515
1224.000	665.003	80.005	20.009	100.340	20.005	11.298	0.528
1224.501	665.202	80.004	20.009	100.336	20.006	11.049	0.538
1225.000	665.465	80.005	20.009	100.338	20.003	11.604	0.491
1225.500	665.755	80.006	20.008	100.345	20.004	11.387	0.508
1226.000	665.908	80.005	20.009	100.354	20.004	11.499	0.498
1226.500	666.195	80.003	20.009	100.359	20.005	11.221	0.441
1227.000	666.476	80.006	20.008	100.360	20.003	11.630	0.504
1227.500	666.654	80.005	20.009	100.354	20.002	11.699	0.514
1228.000	666.912	80.005	20.009	100.339	20.004	11.444	0.448
1228.500	667.191	80.006	20.009	100.329	20.004	11.431	0.486
1229.000	667.401	80.004	20.010	100.330	20.003	11.626	0.513
1229.500	667.620	80.005	20.008	100.338	20.003	11.526	0.459
1230.000	667.887	80.004	20.008	100.350	20.004	11.409	0.457
1230.500	668.125	80.005	20.008	100.360	20.004	11.428	0.495
1231.000	668.343	80.006	20.008	100.360	20.002	11.771	0.481
1231.500	668.593	80.006	20.009	100.352	20.002	11.825	0.462
1232.000	668.845	80.004	20.009	100.342	20.000	12.119	0.485
1232.500	669.142	80.006	20.009	100.334	20.002	11.781	0.526
1233.000	669.327	80.004	20.008	100.335	20.000	12.054	0.516
1233.500	669.575	80.005	20.009	100.340	19.999	12.284	0.457
1234.000	669.825	80.006	20.008	100.345	20.001	11.906	0.466
1234.500	670.066	80.004	20.009	100.346	20.000	12.054	0.494
1235.000	670.231	80.005	20.009	100.339	20.000	12.103	0.448
1235.500	670.536	80.005	20.009	100.328	20.000	12.080	0.438
1236.000	670.752	80.005	20.009	100.324	19.996	12.667	0.495
1236.500	671.051	80.004	20.009	100.324	20.000	12.011	0.518
1237.000	671.269	80.005	20.009	100.334	20.000	12.109	0.516
1237.500	671.532	80.005	20.008	100.346	20.001	11.939	0.499
1238.000	671.795	80.006	20.009	100.355	20.003	11.544	0.503
1238.500	671.981	80.005	20.008	100.354	20.006	11.183	0.488
1239.000	672.275	80.005	20.009	100.345	20.005	11.346	0.465
1239.500	672.525	80.005	20.009	100.331	20.003	11.660	0.512
1240.000	672.727	80.004	20.009	100.321	20.003	11.611	0.498
1240.500	672.966	80.005	20.009	100.319	20.003	11.543	0.446
1241.000	673.266	80.006	20.008	100.325	20.003	11.561	0.490
1241.500	673.466	80.004	20.009	100.336	20.004	11.405	0.519
1242.000	673.705	80.006	20.008	100.343	20.004	11.456	0.469
1242.500	673.948	80.006	20.009	100.345	20.001	11.859	0.461
1243.000	674.155	80.006	20.009	100.341	20.004	11.449	0.466
1243.501	674.412	80.005	20.009	100.334	20.004	11.372	0.457
1244.000	674.662	80.005	20.009	100.331	20.002	11.736	0.485
1244.500	674.933	80.006	20.009	100.336	20.003	11.616	0.514
1245.000	675.164	80.005	20.009	100.345	20.005	11.286	0.511
1245.500	675.418	80.006	20.008	100.358	20.005	11.265	0.493
1246.000	675.696	80.006	20.009	100.358	20.001	11.831	0.508
1246.500	675.931	80.005	20.009	100.359	20.003	11.553	0.522
1247.000	676.193	80.006	20.009	100.348	20.000	12.069	0.505
1247.500	676.393	80.006	20.009	100.334	20.001	11.892	0.480
1248.001	676.635	80.005	20.009	100.323	20.001	11.973	0.452
1248.500	676.905	80.004	20.009	100.323	20.001	11.854	0.477
1249.000	677.151	80.006	20.009	100.328	19.999	12.257	0.514
1249.500	677.358	80.005	20.008	100.336	19.998	12.314	0.484
1250.000	677.646	80.005	20.009	100.341	19.997	12.460	0.474
1250.500	677.869	80.006	20.008	100.341	20.000	11.996	0.503
1251.000	678.141	80.004	20.009	100.332	19.999	12.235	0.503
1251.500	678.383	80.006	20.009	100.321	19.999	12.182	0.505
1252.000	678.610	80.003	20.009	100.317	19.999	12.220	0.492
1252.500	678.875	80.007	20.010	100.320	20.000	12.135	0.481
1253.000	679.141	80.004	20.008	100.330	20.001	11.889	0.511
1253.500	679.384	80.006	20.009	100.346	20.003	11.605	0.520
1254.000	679.629	80.006	20.009	100.362	20.001	11.881	0.499
1254.500	679.919	80.004	20.009	100.367	20.005	11.313	0.511
1255.000	680.132	80.006	20.009	100.372	20.004	11.496	0.519
1255.500	680.413	80.006	20.009	100.372	20.002	11.763	0.499
1256.000	680.653	80.005	20.010	100.372	20.001	11.860	0.508
1256.500	680.899	80.005	20.009	100.373	20.003	11.535	0.504
1257.000	681.167	80.005	20.008	100.376	20.003	11.625	0.500
1257.500	681.445	80.005	20.008	100.378	20.003	11.569	0.530
1258.000	681.680	80.007	20.009	100.378	20.001	11.839	0.530
1258.500	681.922	80.005	20.009	100.369	20.000	12.025	0.495
1259.000	682.178	80.005	20.009	100.360	20.001	11.848	0.487
1259.500	682.432	80.005	20.009	100.351	20.005	11.338	0.504
1260.000	682.668	80.006	20.009	100.344	20.003	11.612	0.500
1260.500	682.934	80.004	20.009	100.340	20.002	11.817	0.496
1261.000	683.160	80.007	20.009	100.349	20.001	11.881	0.498
1261.500	683.499	80.005	20.009	100.357	20.003	11.605	0.528
1262.000	683.688	80.007	20.008	100.359	20.004	11.382	0.546
1262.500	683.917	80.004	20.009	100.359	20.002	11.824	0.473
1263.000	684.165	80.005	20.009	100.353	20.001	11.909	0.448
1263.500	684.409	80.005	20.009	100.346	20.001	11.901	0.485
1264.000	684.680	80.005	20.009	100.339	20.003	11.636	0.503
1264.500	684.880	80.005	20.009	100.345	20.003	11.622	0.492
1265.000	685.128	80.006	20.008	100.353	20.001	11.859	0.459
1265.500	685.370	80.005	20.008	100.363	20.002	11.756	0.469
1266.000	685.559	80.006	20.009	100.371	20.002	11.689	0.461
1266.500	685.884	80.006	20.008	100.370	20.001	11.916	0.472
1267.000	686.130	80.006	20.009	100.362	20.002	11.772	0.542
1267.500	686.382	80.005	20.009	100.354	20.002	11.797	0.534
1268.000	686.623	80.006	20.009	100.349	20.004	11.471	0.495
1268.500	686.856	80.006	20.009	100.348	20.002	11.702	0.484
1269.000	687.118	80.007	20.009	100.355	20.003	11.582	0.485
1269.500	687.381	80.005	20.008	100.363	20.005	11.312	0.510
1270.000	687.548	80.004	20.009	100.370	20.006	11.151	0.477
1270.500	687.851	80.006	20.009	100.375	20.009	10.706	0.450
1271.000	688.041	80.004	20.008	100.369	20.007	10.916	0.481
1271.500	688.330	80.007	20.009	100.365	20.009	10.720	0.486
1272.000	688.596	80.005	20.009	100.364	20.006	11.084	0.517
1272.500	688.814	80.006	20.009	100.364	20.003	11.542	0.520
1273.000	689.086	80.005	20.008	100.367	20.004	11.369	0.487
1273.500	689.351	80.005	20.009	100.380	20.006	11.129	0.513
1274.000	689.550	80.004	20.008	100.391	20.007	11.022	0.500
1274.500	689.834	80.007	20.008	100.400	20.005	11.301	0.474
1275.000	690.059	80.005	20.009	100.399	20.004	11.438	0.496
1275.500	690.316	80.005	20.009	100.390	20.004	11.448	0.495
1276.000	690.575	80.006	20.009	100.375	20.003	11.642	0.499
1276.500	690.769	80.005	20.008	100.361	20.003	11.589	0.485
1277.000	691.065	80.006	20.009	100.348	20.006	11.115	0.472
1277.500	691.333	80.005	20.009	100.345	20.007	10.950	0.527
1278.000	691.587	80.004	20.009	100.346	20.007	10.979	0.543
1278.500	691.833	80.006	20.008	100.346	20.003	11.519	0.511
1279.000	692.084	80.005	20.010	100.345	20.003	11.526	0.499
1279.500	692.355	80.006	20.009	100.345	20.004	11.464	0.509
1280.000	692.548	80.005	20.009	100.345	20.004	11.441	0.493
1280.500	692.854	80.006	20.008	100.352	20.005	11.302	0.482
1281.000	693.098	80.005	20.009	100.361	20.004	11.515	0.524
1281.500	693.330	80.006	20.008	100.369	20.003	11.547	0.513
1282.000	693.591	80.006	20.009	100.372	20.004	11.436	0.484
1282.500	693.861	80.005	20.009	100.368	20.005	11.289	0.512
1283.000	694.067	80.005	20.009	100.359	20.003	11.563	0.503
1283.500	694.290	80.005	20.009	100.351	20.003	11.564	0.452
1284.000	694.536	80.005	20.009	100.347	20.001	11.865	0.449
1284.500	694.853	80.006	20.009	100.352	20.004	11.495	0.516
1285.000	695.072	80.006	20.009	100.360	20.001	11.881	0.550
1285.500	695.367	80.006	20.009	100.369	20.003	11.607	0.525
1286.000	695.719	80.006	20.009	100.374	19.999	12.250	0.580
1286.500	695.877	80.007	20.009	100.374	20.003	11.629	0.579
1287.000	696.108	80.004	20.009	100.368	20.003	11.626	0.450
1287.500	696.379	80.007	20.009	100.365	20.002	11.725	0.446
1288.000	696.585	80.003	20.008	100.365	20.002	11.736	0.489
1288.500	696.819	80.005	20.008	100.368	20.001	11.967	0.458
1289.000	697.091	80.004	20.009	100.372	20.000	12.128	0.473
1289.500	697.384	80.005	20.008	100.374	19.999	12.157	0.536
1290.000	697.587	80.005	20.009	100.366	19.997	12.490	0.530
1290.500	697.836	80.004	20.009	100.355	20.000	12.136	0.474
1291.000	698.024	80.005	20.009	100.344	19.998	12.322	0.445
1291.500	698.359	80.004	20.009	100.340	20.001	11.939	0.480
1292.000	698.587	80.006	20.009	100.345	19.999	12.220	0.543
1292.500	698.896	80.005	20.008	100.354	19.999	12.170	0.549
1293.000	699.132	80.004	20.009	100.364	19.997	12.467	0.541
1293.500	699.416	80.006	20.009	100.369	19.996	12.693	0.533
1294.000	699.685	80.005	20.009	100.365	19.998	12.433	0.537
1294.500	699.927	80.004	20.009	100.356	19.996	12.676	0.532
1295.000	700.153	80.004	20.009	100.348	19.997	12.523	0.490
1295.500	700.429	80.005	20.009	100.346	19.997	12.617	0.485
1296.000	700.736	80.004	20.009	100.351	20.000	11.997	0.542
1296.500	700.907	80.005	20.008	100.359	20.000	12.034	0.531
1297.000	701.148	80.004	20.009	100.366	19.998	12.394	0.445
1297.500	701.391	80.006	20.008	100.368	19.999	12.213	0.447
1298.000	701.688	80.004	20.008	100.365	20.001	11.845	0.512
1298.500	701.967	80.006	20.009	100.357	20.002	11.725	0.559
1299.000	702.233	80.005	20.009	100.349	20.001	11.869	0.560
1299.500	702.501	80.005	20.009	100.346	20.006	11.066	0.539
1300.000	702.709	80.005	20.009	100.351	20.004	11.444	0.505
1300.500	702.973	80.005	20.008	100.365	20.007	10.963	0.474
1301.000	703.240	80.006	20.009	100.379	20.003	11.579	0.501
1301.500	703.545	80.005	20.009	100.387	20.002	11.675	0.551
1302.000	703.692	80.004	20.009	100.388	20.004	11.451	0.512
1302.500	704.023	80.005	20.009	100.386	20.005	11.280	0.465
1303.000	704.325	80.005	20.010	100.377	20.005	11.339	0.555
1303.500	704.579	80.006	20.009	100.371	20.004	11.369	0.595
1304.000	704.795	80.005	20.008	100.371	20.005	11.353	0.513
1304.500	705.058	80.005	20.009	100.375	20.006	11.179	0.475
1305.000	705.364	80.005	20.009	100.378	20.005	11.338	0.524
1305.500	705.622	80.006	20.008	100.380	20.004	11.475	0.566
1306.000	705.823	80.004	20.009	100.380	20.006	11.195	0.512
1306.500	706.076	80.006	20.009	100.379	20.005	11.322	0.457
1307.000	706.376	80.005	20.009	100.377	20.002	11.693	0.503
1307.500	706.639	80.005	20.008	100.377	20.003	11.517	0.558
1308.000	706.889	80.006	20.009	100.379	20.005	11.311	0.538
1308.500	707.130	80.004	20.009	100.384	20.006	11.141	0.502
1309.000	707.383	80.006	20.009	100.386	20.003	11.527	0.492
1309.501	707.670	80.005	20.009	100.386	20.005	11.343	0.517
1310.000	707.929	80.005	20.008	100.384	20.008	10.748	0.544
1310.500	708.186	80.004	20.009	100.378	20.007	10.892	0.531
1311.000	708.425	80.004	20.008	100.370	20.004	11.379	0.506
1311.500	708.716	80.006	20.009	100.369	20.007	10.920	0.513
1312.000	708.976	80.003	20.009	100.371	20.003	11.627	0.540
1312.500	709.275	80.006	20.009	100.376	20.002	11.690	0.555
1313.000	709.464	80.005	20.008	100.384	20.006	11.183	0.524
1313.500	709.816	80.005	20.009	100.384	20.005	11.309	0.515
1314.000	710.059	80.005	20.009	100.376	20.003	11.582	0.568
1314.500	710.283	80.005	20.009	100.368	20.003	11.643	0.531
1315.000	710.558	80.004	20.009	100.362	20.004	11.417	0.483
1315.500	710.839	80.003	20.009	100.354	20.002	11.685	0.527
1316.000	711.101	80.005	20.009	100.348	20.000	12.048	0.550
1316.500	711.326	80.006	20.009	100.347	19.997	12.598	0.515
1317.000	711.572	80.005	20.008	100.346	19.998	12.360	0.479
1317.500	711.810	80.004	20.009	100.340	19.996	12.672	0.477
1318.000	712.102	80.006	20.009	100.338	19.998	12.321	0.507
1318.500	712.321	80.003	20.009	100.337	19.998	12.422	0.521
1319.000	712.569	80.005	20.009	100.338	19.995	12.845	0.489
1319.500	712.812	80.004	20.009	100.340	19.998	12.376	0.479
1320.000	713.125	80.005	20.008	100.347	19.999	12.286	0.524
1320.500	713.387	80.004	20.008	100.355	19.998	12.452	0.566
1321.000	713.666	80.005	20.008	100.359	19.999	12.275	0.558
1321.500	713.893	80.003	20.009	100.358	19.998	12.386	0.523
1322.000	714.143	80.004	20.009	100.354	19.998	12.320	0.491
1322.500	714.368	80.005	20.008	100.346	20.000	11.988	0.476
1323.000	714.617	80.004	20.009	100.337	19.999	12.198	0.475
1323.500	714.947	80.006	20.008	100.339	19.996	12.672	0.526
1324.000	715.203	80.005	20.009	100.347	19.997	12.511	0.582
1324.500	715.478	80.004	20.008	100.353	19.997	12.460	0.558
1325.000	715.726	80.005	20.009	100.354	19.997	12.466	0.527
1325.500	715.974	80.005	20.009	100.354	19.999	12.270	0.509
1326.000	716.280	80.005	20.009	100.349	19.997	12.558	0.525
1326.500	716.503	80.007	20.009	100.341	19.997	12.485	0.541
1327.000	716.741	80.006	20.009	100.341	19.998	12.340	0.495
1327.500	717.023	80.005	20.009	100.349	19.997	12.586	0.491
1328.000	717.237	80.005	20.009	100.358	19.996	12.653	0.508
1328.500	717.539	80.004	20.008	100.366	19.999	12.296	0.506
1329.000	717.778	80.006	20.009	100.367	20.001	11.956	0.529
1329.500	718.044	80.005	20.009	100.362	19.999	12.273	0.523
1330.000	718.256	80.004	20.009	100.352	19.999	12.277	0.491
1330.500	718.532	80.005	20.009	100.343	19.999	12.300	0.483
1331.000	718.811	80.005	20.009	100.337	20.001	11.932	0.522
1331.500	719.076	80.004	20.009	100.339	19.999	12.252	0.549
1332.000	719.356	80.005	20.009	100.342	20.002	11.808	0.544
1332.500	719.565	80.005	20.009	100.343	19.997	12.489	0.517
1333.000	719.828	80.005	20.009	100.344	20.000	12.135	0.480
1333.500	720.056	80.005	20.009	100.342	20.000	12.056	0.482
1334.000	720.314	80.004	20.009	100.340	20.000	12.019	0.489
1334.500	720.617	80.004	20.008	100.347	20.001	11.918	0.523
1335.000	720.770	80.006	20.009	100.355	19.996	12.761	0.508
1335.500	721.039	80.003	20.009	100.362	19.996	12.703	0.439
1336.000	721.328	80.004	20.008	100.365	20.000	12.050	0.490
1336.500	721.556	80.005	20.009	100.365	19.998	12.307	0.537
1337.000	721.820	80.005	20.009	100.357	20.000	12.015	0.504
1337.500	722.040	80.003	20.009	100.350	19.999	12.199	0.488
1338.000	722.286	80.005	20.009	100.349	20.000	12.032	0.475
1338.500	722.585	80.005	20.009	100.354	20.000	12.028	0.505
1339.000	722.891	80.003	20.008	100.362	20.002	11.821	0.575
1339.500	723.120	80.004	20.009	100.370	20.000	12.101	0.570
1340.000	723.379	80.006	20.009	100.376	19.999	12.201	0.512
1340.500	723.591	80.005	20.009	100.377	20.001	11.925	0.479
1341.000	723.845	80.005	20.009	100.377	19.999	12.286	0.469
1341.500	724.078	80.005	20.009	100.377	20.000	12.082	0.477
1342.001	724.380	80.005	20.009	100.378	20.000	11.998	0.511
1342.500	724.672	80.005	20.009	100.381	20.001	11.911	0.564
1343.000	724.957	80.005	20.009	100.381	20.002	11.783	0.585
1343.500	725.181	80.005	20.009	100.381	19.999	12.243	0.543
1344.000	725.409	80.005	20.009	100.373	19.998	12.357	0.481
1344.500	725.741	80.004	20.009	100.370	19.997	12.548	0.507
1345.000	725.973	80.004	20.008	100.368	19.995	12.818	0.562
1345.500	726.289	80.005	20.009	100.368	19.999	12.225	0.556
1346.000	726.535	80.004	20.008	100.369	19.997	12.567	0.555
1346.500	726.754	80.005	20.008	100.375	19.997	12.463	0.513
1347.000	727.086	80.004	20.009	100.372	19.999	12.237	0.508
1347.500	727.298	80.004	20.009	100.366	19.997	12.537	0.548
1348.000	727.615	80.005	20.009	100.359	19.993	13.195	0.537
1348.500	727.781	80.005	20.008	100.351	19.998	12.312	0.506
1349.000	728.067	80.004	20.009	100.351	19.996	12.746	0.468
1349.500	728.375	80.004	20.008	100.356	19.996	12.621	0.523
1350.000	728.613	80.004	20.009	100.363	19.994	13.031	0.570
1350.500	728.878	80.005	20.009	100.370	19.997	12.483	0.525
1351.000	729.124	80.005	20.009	100.370	19.995	12.836	0.507
1351.500	729.383	80.005	20.009	100.364	19.993	13.199	0.508
1352.000	729.641	80.005	20.009	100.358	19.993	13.101	0.511
1352.500	729.911	80.004	20.009	100.358	19.994	13.042	0.523
1353.000	730.199	80.005	20.008	100.358	19.993	13.149	0.543
1353.500	730.437	80.005	20.008	100.365	19.994	13.049	0.542
1354.000	730.716	80.004	20.009	100.371	19.996	12.758	0.521
1354.500	730.927	80.005	20.009	100.372	19.994	13.028	0.504
1355.000	731.260	80.003	20.009	100.365	19.993	13.091	0.517
1355.500	731.483	80.005	20.009	100.358	19.995	12.829	0.550
1356.000	731.717	80.005	20.009	100.351	19.995	12.893	0.506
1356.500	731.975	80.003	20.009	100.350	19.995	12.881	0.475
1357.000	732.219	80.005	20.009	100.355	19.994	12.934	0.497
1357.500	732.517	80.004	20.008	100.363	19.996	12.671	0.522
1358.000	732.742	80.004	20.009	100.366	19.997	12.483	0.533
1358.500	733.045	80.006	20.009	100.364	19.994	13.033	0.525
1359.000	733.251	80.003	20.009	100.358	19.995	12.823	0.519
1359.500	733.541	80.006	20.009	100.353	19.996	12.766	0.503
1360.000	733.761	80.005	20.009	100.352	19.993	13.093	0.503
1360.500	734.061	80.005	20.009	100.356	19.994	13.037	0.515
1361.000	734.298	80.006	20.009	100.363	19.992	13.266	0.528
1361.500	734.560	80.004	20.009	100.371	19.992	13.268	0.517
1362.000	734.832	80.004	20.009	100.371	19.995	12.877	0.517
1362.500	735.101	80.005	20.009	100.364	19.996	12.639	0.538
1363.000	735.364	80.004	20.009	100.357	19.994	12.932	0.536
1363.500	735.602	80.004	20.009	100.349	19.994	12.956	0.517
1364.000	735.850	80.005	20.009	100.344	19.993	13.090	0.494
1364.500	736.122	80.005	20.009	100.348	19.993	13.113	0.503
1365.000	736.374	80.005	20.008	100.357	19.997	12.577	0.522
1365.500	736.615	80.004	20.008	100.364	19.996	12.750	0.509
1366.000	736.935	80.005	20.008	100.371	19.996	12.709	0.527
1366.500	737.202	80.005	20.009	100.368	19.999	12.151	0.574
1367.000	737.430	80.006	20.009	100.362	19.997	12.612	0.541
1367.500	737.634	80.004	20.009	100.361	20.001	11.976	0.463
1368.000	737.932	80.005	20.009	100.364	20.000	11.990	0.467
1368.500	738.219	80.005	20.008	100.370	19.999	12.144	0.544
1369.000	738.413	80.005	20.009	100.379	20.000	12.037	0.533
1369.500	738.697	80.004	20.008	100.386	20.003	11.657	0.479
1370.000	738.955	80.004	20.008	100.387	19.999	12.242	0.510
1370.500	739.216	80.006	20.008	100.383	19.998	12.328	0.530
1371.000	739.429	80.005	20.009	100.377	19.998	12.392	0.497
1371.500	739.660	80.004	20.009	100.374	19.998	12.353	0.459
1372.000	739.972	80.003	20.009	100.373	19.996	12.637	0.493
1372.500	740.242	80.006	20.009	100.375	19.997	12.597	0.562
1373.000	740.441	80.005	20.008	100.377	19.996	12.697	0.525
1373.500	740.728	80.004	20.009	100.377	19.997	12.573	0.478
1374.000	740.930	80.005	20.009	100.372	19.996	12.666	0.488
1374.500	741.194	80.006	20.009	100.364	19.994	12.956	0.477
1375.000	741.426	80.005	20.009	100.355	19.996	12.714	0.481
1375.500	741.651	80.004	20.009	100.346	19.996	12.753	0.477
1376.000	741.940	80.006	20.009	100.339	19.996	12.767	0.485
1376.500	742.156	80.004	20.008	100.345	19.998	12.387	0.509
1377.000	742.425	80.005	20.008	100.351	19.995	12.917	0.495
1377.500	742.642	80.004	20.009	100.351	19.999	12.303	0.485
