Sample Weight (mg):	1.02
Heating Rate (C/s):	0.5
Combustor Temp (C):	900
N2 Flow Rate (cc/min):	80
O2 Flow Rate (cc/min):	20
Time (s)	Temperature (C)	N2 flow rate (cc/min)	O2 flow rate (cc/min)	Flow Rate (cc/min)	Oxygen (%)	HRR (W/g)	Heating rate (C/s)
0.000	88.496	80.003	20.009	100.335	20.017	14.870	0.015
0.500	88.450	80.005	20.009	100.332	20.018	14.392	-0.018
1.000	88.409	80.004	20.009	100.337	20.014	15.720	-0.074
1.500	88.402	80.003	20.009	100.339	20.015	15.539	-0.068
2.000	88.357	80.005	20.010	100.343	20.019	14.115	-0.050
2.500	88.360	80.005	20.010	100.337	20.015	15.563	-0.047
3.000	88.323	80.004	20.010	100.329	20.013	15.939	-0.038
3.500	88.278	80.003	20.009	100.318	20.013	16.108	-0.058
4.000	88.224	80.004	20.009	100.308	20.013	16.012	-0.090
4.500	88.258	80.004	20.010	100.309	20.014	15.617	-0.060
5.000	88.286	80.004	20.010	100.315	20.013	16.118	0.021
5.500	88.266	80.004	20.009	100.327	20.014	15.740	0.035
6.000	88.241	80.004	20.009	100.335	20.015	15.460	-0.019
6.500	88.205	80.005	20.010	100.340	20.014	15.596	-0.053
7.000	88.198	80.004	20.009	100.333	20.012	16.402	-0.052
7.500	88.229	80.003	20.010	100.325	20.012	16.280	-0.010
8.000	88.180	80.005	20.009	100.314	20.012	16.509	0.003
8.500	88.204	80.005	20.010	100.308	20.010	16.940	-0.021
9.000	88.178	80.004	20.009	100.312	20.010	16.960	-0.013
9.500	88.146	80.003	20.009	100.319	20.013	16.023	-0.030
10.001	88.127	80.003	20.010	100.324	20.012	16.296	-0.055
10.501	88.136	80.006	20.010	100.325	20.015	15.489	-0.031
11.001	88.103	80.004	20.010	100.314	20.011	16.620	-0.017
11.501	88.103	80.005	20.009	100.298	20.011	16.763	-0.028
12.001	88.118	80.003	20.010	100.286	20.011	16.666	-0.009
12.500	88.069	80.005	20.010	100.284	20.011	16.770	-0.009
13.000	88.076	80.005	20.010	100.291	20.014	15.865	-0.038
13.500	88.087	80.004	20.009	100.307	20.011	16.572	-0.012
14.000	88.084	80.003	20.010	100.322	20.012	16.337	0.013
14.500	88.120	80.005	20.010	100.327	20.012	16.428	0.021
15.000	88.084	80.005	20.010	100.324	20.013	16.143	0.017
15.500	88.114	80.005	20.010	100.317	20.010	16.958	-0.003
16.000	88.124	80.003	20.010	100.310	20.008	17.584	0.017
16.500	88.097	80.004	20.009	100.310	20.008	17.455	0.011
17.000	88.136	80.005	20.010	100.318	20.008	17.741	-0.003
17.500	88.179	80.005	20.009	100.325	20.006	18.073	0.047
18.000	88.082	80.003	20.010	100.327	20.006	18.274	0.014
18.500	88.128	80.005	20.010	100.326	20.007	17.787	-0.053
19.000	88.059	80.004	20.010	100.320	20.007	17.835	-0.037
19.500	88.100	80.004	20.010	100.315	20.008	17.654	-0.025
20.000	88.148	80.005	20.009	100.317	20.005	18.604	0.030
20.500	88.130	80.005	20.010	100.324	20.007	17.862	0.060
21.000	88.134	80.003	20.010	100.337	20.009	17.419	0.008
21.500	88.146	80.005	20.009	100.346	20.008	17.452	0.001
22.000	88.159	80.005	20.010	100.350	20.011	16.738	0.020
22.500	88.162	80.006	20.009	100.348	20.008	17.501	0.021
23.000	88.221	80.005	20.009	100.345	20.009	17.186	0.039
23.500	88.167	80.005	20.010	100.339	20.008	17.747	0.033
24.000	88.183	80.005	20.009	100.338	20.008	17.521	-0.016
24.500	88.147	80.005	20.010	100.340	20.008	17.722	-0.029
25.000	88.243	80.004	20.010	100.342	20.007	17.864	0.020
25.500	88.223	80.006	20.010	100.339	20.006	18.357	0.068
26.000	88.199	80.004	20.010	100.331	20.005	18.500	0.016
26.500	88.282	80.005	20.010	100.322	20.006	18.275	0.008
27.000	88.264	80.004	20.010	100.316	20.005	18.557	0.062
27.500	88.284	80.006	20.010	100.316	20.004	18.879	0.033
28.000	88.292	80.004	20.010	100.322	20.005	18.573	0.015
28.500	88.304	80.004	20.010	100.338	20.004	18.891	0.024
29.000	88.347	80.004	20.010	100.348	20.004	18.921	0.038
29.500	88.351	80.006	20.010	100.353	20.005	18.392	0.051
30.000	88.370	80.003	20.010	100.352	20.006	18.366	0.035
30.500	88.386	80.005	20.010	100.353	20.003	19.037	0.029
31.000	88.393	80.005	20.010	100.353	20.002	19.527	0.028
31.500	88.438	80.004	20.010	100.359	20.000	20.127	0.037
32.000	88.421	80.007	20.010	100.368	19.999	20.448	0.041
32.500	88.443	80.004	20.010	100.377	20.001	19.713	0.017
33.000	88.446	80.004	20.010	100.378	19.999	20.364	0.015
33.500	88.476	80.005	20.010	100.374	19.996	21.323	0.028
34.000	88.536	80.004	20.010	100.374	19.995	21.605	0.061
34.500	88.549	80.004	20.010	100.374	19.995	21.536	0.081
35.001	88.608	80.004	20.010	100.381	19.993	22.086	0.072
35.501	88.653	80.005	20.010	100.396	19.990	23.142	0.088
36.000	88.644	80.004	20.010	100.414	19.993	22.269	0.070
36.500	88.724	80.003	20.010	100.425	19.994	21.980	0.053
37.000	88.704	80.004	20.010	100.431	19.994	21.880	0.065
37.500	88.821	80.006	20.010	100.431	19.995	21.592	0.078
38.000	88.839	80.004	20.009	100.420	19.997	21.084	0.116
38.500	88.835	80.004	20.010	100.412	19.996	21.171	0.075
39.000	88.920	80.005	20.010	100.416	19.995	21.630	0.047
39.500	88.943	80.003	20.010	100.429	19.996	21.293	0.094
40.000	88.982	80.004	20.010	100.442	19.994	22.022	0.085
40.500	89.064	80.004	20.010	100.454	19.990	23.071	0.091
41.000	89.122	80.004	20.010	100.458	19.989	23.319	0.131
41.500	89.146	80.004	20.010	100.451	19.991	22.805	0.111
42.000	89.181	80.004	20.011	100.437	19.990	23.276	0.070
42.500	89.205	80.004	20.010	100.427	19.990	23.304	0.059
43.000	89.257	80.004	20.010	100.427	19.987	24.146	0.068
43.500	89.352	80.005	20.010	100.433	19.988	23.852	0.111
44.001	89.377	80.004	20.009	100.441	19.984	24.990	0.133
44.501	89.439	80.004	20.011	100.449	19.984	24.942	0.104
45.000	89.493	80.004	20.010	100.456	19.984	24.876	0.102
45.500	89.548	80.005	20.010	100.459	19.984	25.039	0.112
46.000	89.687	80.004	20.010	100.461	19.983	25.386	0.151
46.500	89.704	80.004	20.010	100.467	19.981	26.048	0.175
47.001	89.782	80.004	20.010	100.477	19.983	25.302	0.126
47.501	89.830	80.004	20.010	100.491	19.985	24.756	0.111
48.001	89.911	80.004	20.010	100.504	19.983	25.458	0.127
48.501	89.998	80.005	20.010	100.510	19.985	24.693	0.148
49.000	90.048	80.005	20.010	100.505	19.984	25.056	0.152
49.500	90.133	80.003	20.010	100.497	19.983	25.277	0.136
50.000	90.178	80.004	20.010	100.484	19.982	25.696	0.133
50.501	90.206	80.004	20.010	100.477	19.980	26.233	0.102
51.001	90.293	80.004	20.010	100.479	19.982	25.519	0.094
51.500	90.354	80.003	20.010	100.488	19.979	26.548	0.132
52.000	90.465	80.004	20.010	100.502	19.978	26.864	0.160
52.500	90.564	80.005	20.010	100.510	19.974	27.982	0.191
53.000	90.649	80.004	20.010	100.511	19.977	27.257	0.197
53.501	90.731	80.005	20.010	100.511	19.978	26.840	0.176
54.001	90.820	80.004	20.010	100.515	19.978	26.736	0.169
54.500	90.955	80.005	20.010	100.516	19.976	27.527	0.197
55.000	91.008	80.004	20.010	100.524	19.975	27.768	0.206
55.500	91.091	80.003	20.010	100.532	19.976	27.559	0.162
56.000	91.204	80.005	20.009	100.538	19.975	27.636	0.166
56.500	91.289	80.004	20.010	100.537	19.975	27.824	0.197
57.000	91.370	80.004	20.009	100.529	19.975	27.903	0.182
57.500	91.456	80.004	20.010	100.519	19.976	27.567	0.166
58.000	91.599	80.003	20.010	100.516	19.973	28.246	0.198
58.500	91.691	80.004	20.010	100.517	19.974	28.045	0.232
59.000	91.799	80.004	20.010	100.523	19.971	29.126	0.217
59.500	91.872	80.004	20.010	100.538	19.973	28.258	0.190
60.000	91.980	80.005	20.010	100.552	19.973	28.510	0.181
60.500	92.083	80.004	20.010	100.555	19.969	29.474	0.196
61.000	92.195	80.005	20.009	100.549	19.972	28.746	0.213
61.500	92.355	80.004	20.009	100.539	19.970	29.232	0.244
62.000	92.438	80.005	20.010	100.531	19.970	29.306	0.258
62.500	92.581	80.004	20.010	100.530	19.972	28.610	0.235
63.000	92.705	80.004	20.009	100.537	19.972	28.734	0.246
63.500	92.842	80.004	20.009	100.549	19.970	29.308	0.264
64.001	92.989	80.004	20.009	100.557	19.974	28.012	0.272
64.501	93.116	80.004	20.009	100.555	19.972	28.710	0.279
65.001	93.282	80.004	20.009	100.543	19.972	28.777	0.283
65.500	93.348	80.005	20.009	100.534	19.970	29.293	0.263
66.000	93.517	80.004	20.009	100.527	19.971	29.025	0.234
66.501	93.620	80.004	20.009	100.525	19.969	29.641	0.253
67.001	93.817	80.003	20.009	100.530	19.969	29.487	0.286
67.500	93.923	80.006	20.009	100.537	19.968	29.813	0.302
68.000	94.017	80.004	20.009	100.538	19.970	29.429	0.251
68.500	94.154	80.005	20.009	100.535	19.971	29.124	0.215
69.000	94.321	80.005	20.009	100.530	19.971	29.035	0.268
69.501	94.477	80.005	20.009	100.529	19.973	28.435	0.314
70.001	94.618	80.004	20.009	100.532	19.971	28.967	0.310
70.501	94.747	80.006	20.009	100.539	19.972	28.828	0.283
71.001	94.845	80.004	20.009	100.545	19.970	29.198	0.249
71.500	95.006	80.004	20.009	100.550	19.970	29.198	0.243
72.001	95.216	80.005	20.009	100.547	19.969	29.508	0.315
72.501	95.393	80.004	20.009	100.541	19.972	28.651	0.379
73.001	95.531	80.004	20.009	100.534	19.971	29.111	0.352
73.500	95.608	80.004	20.009	100.533	19.970	29.439	0.265
74.001	95.847	80.004	20.009	100.541	19.969	29.641	0.265
74.501	95.985	80.004	20.009	100.554	19.968	29.861	0.346
75.000	96.115	80.004	20.009	100.563	19.967	30.193	0.322
75.500	96.293	80.006	20.009	100.565	19.966	30.493	0.288
76.000	96.429	80.005	20.009	100.568	19.964	31.063	0.311
76.500	96.572	80.005	20.009	100.567	19.961	32.043	0.297
77.000	96.715	80.005	20.009	100.570	19.961	32.017	0.283
77.500	96.885	80.004	20.009	100.574	19.963	31.606	0.299
78.000	97.004	80.004	20.009	100.581	19.962	31.773	0.301
78.500	97.203	80.005	20.009	100.585	19.961	32.162	0.304
79.000	97.364	80.005	20.009	100.579	19.962	31.869	0.339
79.500	97.521	80.005	20.009	100.569	19.962	31.806	0.339
80.000	97.734	80.005	20.009	100.558	19.962	31.892	0.344
80.500	97.887	80.005	20.009	100.557	19.959	32.579	0.368
81.000	98.043	80.005	20.009	100.557	19.961	32.182	0.338
81.500	98.231	80.005	20.009	100.562	19.960	32.447	0.326
82.000	98.370	80.004	20.009	100.570	19.958	33.112	0.336
82.500	98.533	80.005	20.009	100.571	19.960	32.492	0.315
83.000	98.741	80.004	20.009	100.562	19.961	32.225	0.337
83.500	98.857	80.003	20.009	100.554	19.963	31.557	0.348
84.000	99.108	80.004	20.009	100.548	19.959	32.758	0.345
84.500	99.287	80.004	20.009	100.549	19.959	32.666	0.398
85.001	99.455	80.006	20.009	100.561	19.959	32.579	0.388
85.501	99.665	80.004	20.009	100.572	19.960	32.380	0.362
86.000	99.835	80.005	20.009	100.586	19.963	31.478	0.379
86.500	100.052	80.004	20.009	100.593	19.963	31.614	0.384
87.000	100.226	80.005	20.009	100.591	19.961	32.183	0.389
87.500	100.448	80.005	20.009	100.586	19.962	31.846	0.393
88.000	100.635	80.004	20.009	100.585	19.963	31.618	0.403
88.500	100.843	80.004	20.009	100.587	19.961	31.982	0.403
89.000	101.016	80.003	20.008	100.594	19.963	31.398	0.388
89.500	101.201	80.005	20.009	100.602	19.963	31.578	0.369
90.000	101.381	80.004	20.009	100.603	19.962	31.661	0.361
90.500	101.577	80.004	20.009	100.603	19.964	31.272	0.371
91.000	101.808	80.005	20.009	100.595	19.962	31.653	0.402
91.501	102.033	80.004	20.009	100.587	19.960	32.492	0.441
92.001	102.182	80.004	20.009	100.587	19.957	33.192	0.415
92.500	102.385	80.005	20.009	100.594	19.960	32.396	0.363
93.000	102.548	80.003	20.009	100.600	19.958	32.954	0.359
93.500	102.765	80.004	20.009	100.607	19.962	31.747	0.373
94.000	103.035	80.005	20.009	100.607	19.960	32.274	0.433
94.500	103.196	80.005	20.009	100.602	19.961	32.151	0.459
95.001	103.450	80.004	20.009	100.600	19.959	32.636	0.423
95.501	103.659	80.004	20.009	100.600	19.961	32.032	0.439
96.000	103.916	80.004	20.009	100.602	19.961	32.007	0.465
96.500	104.091	80.005	20.009	100.610	19.961	32.227	0.449
97.000	104.359	80.004	20.009	100.615	19.963	31.503	0.437
97.500	104.528	80.003	20.009	100.612	19.962	31.920	0.440
98.001	104.745	80.005	20.009	100.605	19.961	32.221	0.411
98.501	104.984	80.005	20.009	100.597	19.959	32.627	0.421
99.000	105.199	80.005	20.009	100.587	19.959	32.761	0.455
99.500	105.433	80.004	20.009	100.585	19.959	32.630	0.452
100.000	105.663	80.004	20.009	100.590	19.957	33.308	0.457
100.501	105.870	80.005	20.009	100.598	19.956	33.495	0.451
101.001	106.099	80.005	20.009	100.599	19.959	32.868	0.436
101.501	106.326	80.004	20.009	100.596	19.956	33.506	0.445
102.000	106.586	80.004	20.009	100.584	19.958	32.984	0.471
102.500	106.832	80.005	20.009	100.576	19.957	33.226	0.497
103.000	107.037	80.006	20.009	100.570	19.957	33.212	0.479
103.500	107.251	80.006	20.009	100.575	19.959	32.864	0.435
104.000	107.518	80.004	20.009	100.586	19.960	32.509	0.450
104.500	107.771	80.004	20.009	100.600	19.957	33.340	0.501
105.000	107.984	80.005	20.009	100.607	19.958	33.097	0.493
105.500	108.257	80.006	20.009	100.605	19.959	32.857	0.476
106.000	108.434	80.004	20.009	100.596	19.957	33.382	0.468
106.500	108.691	80.005	20.009	100.592	19.961	32.205	0.441
107.000	108.910	80.006	20.009	100.592	19.960	32.472	0.455
107.500	109.157	80.006	20.009	100.592	19.960	32.250	0.471
108.000	109.428	80.003	20.009	100.600	19.960	32.319	0.492
108.500	109.671	80.004	20.009	100.610	19.959	32.799	0.516
109.000	109.927	80.005	20.009	100.611	19.961	31.992	0.506
109.501	110.186	80.005	20.009	100.605	19.960	32.300	0.507
110.001	110.417	80.005	20.009	100.604	19.962	31.697	0.502
110.500	110.651	80.005	20.009	100.604	19.959	32.623	0.478
111.000	110.945	80.005	20.009	100.607	19.959	32.571	0.497
111.500	111.193	80.004	20.009	100.613	19.961	31.955	0.535
112.000	111.477	80.005	20.009	100.623	19.960	32.409	0.537
112.500	111.740	80.004	20.009	100.624	19.962	31.670	0.540
113.000	111.931	80.005	20.009	100.623	19.961	32.050	0.501
113.501	112.245	80.004	20.009	100.617	19.961	32.183	0.480
114.001	112.472	80.005	20.010	100.613	19.961	31.943	0.523
114.500	112.744	80.004	20.009	100.610	19.962	31.864	0.520
115.000	112.980	80.005	20.010	100.610	19.963	31.524	0.503
115.500	113.222	80.005	20.009	100.611	19.962	31.677	0.493
116.000	113.450	80.004	20.009	100.610	19.961	32.079	0.474
116.500	113.726	80.005	20.009	100.601	19.961	32.118	0.487
117.000	113.976	80.004	20.009	100.591	19.962	31.760	0.515
117.500	114.257	80.005	20.009	100.582	19.961	32.002	0.529
118.001	114.463	80.006	20.009	100.577	19.962	31.892	0.509
118.501	114.851	80.004	20.009	100.581	19.960	32.405	0.541
119.000	115.123	80.005	20.009	100.589	19.964	31.112	0.627
119.500	115.383	80.004	20.008	100.598	19.964	31.285	0.596
120.000	115.616	80.003	20.009	100.599	19.961	32.006	0.512
120.500	115.952	80.005	20.009	100.596	19.961	32.085	0.531
121.000	116.146	80.006	20.009	100.589	19.960	32.413	0.550
121.500	116.483	80.005	20.009	100.581	19.964	31.208	0.531
122.000	116.716	80.004	20.009	100.584	19.966	30.647	0.550
122.501	117.009	80.004	20.009	100.591	19.965	30.925	0.548
123.001	117.288	80.005	20.009	100.600	19.964	31.060	0.549
123.501	117.568	80.005	20.009	100.602	19.962	31.834	0.565
124.000	117.850	80.003	20.009	100.602	19.965	30.748	0.561
124.501	118.135	80.004	20.009	100.593	19.964	31.101	0.565
125.001	118.367	80.005	20.009	100.585	19.963	31.318	0.542
125.500	118.673	80.004	20.009	100.578	19.964	31.226	0.527
126.000	118.932	80.004	20.009	100.582	19.967	30.169	0.551
126.500	119.191	80.005	20.009	100.591	19.965	30.916	0.542
127.000	119.461	80.005	20.009	100.594	19.965	30.733	0.524
127.500	119.752	80.005	20.008	100.594	19.965	30.912	0.545
128.000	120.034	80.004	20.009	100.590	19.966	30.666	0.567
128.500	120.331	80.004	20.009	100.579	19.966	30.466	0.576
129.000	120.616	80.004	20.008	100.572	19.969	29.717	0.581
129.500	120.879	80.004	20.009	100.570	19.969	29.566	0.565
130.000	121.178	80.004	20.009	100.573	19.966	30.527	0.555
130.500	121.452	80.005	20.009	100.576	19.967	30.315	0.568
131.000	121.735	80.004	20.008	100.578	19.967	30.287	0.565
131.500	122.034	80.004	20.009	100.572	19.966	30.398	0.570
132.000	122.314	80.005	20.009	100.564	19.963	31.539	0.581
132.500	122.574	80.005	20.009	100.554	19.967	30.369	0.559
133.000	122.871	80.003	20.009	100.548	19.966	30.554	0.548
133.500	123.163	80.005	20.008	100.549	19.967	30.261	0.573
134.000	123.454	80.005	20.008	100.555	19.966	30.477	0.586
134.500	123.792	80.004	20.009	100.558	19.964	31.084	0.606
135.000	124.000	80.005	20.008	100.557	19.965	30.804	0.588
135.500	124.332	80.003	20.009	100.550	19.966	30.428	0.543
136.000	124.599	80.004	20.009	100.542	19.966	30.469	0.570
136.500	124.869	80.006	20.009	100.540	19.968	29.856	0.568
137.000	125.164	80.005	20.009	100.545	19.967	30.108	0.551
137.500	125.480	80.004	20.008	100.550	19.970	29.448	0.588
138.000	125.755	80.004	20.009	100.555	19.968	29.908	0.601
138.500	126.056	80.004	20.009	100.554	19.967	30.258	0.583
139.000	126.340	80.005	20.009	100.549	19.968	29.810	0.580
139.500	126.562	80.005	20.009	100.542	19.967	30.196	0.546
140.000	126.876	80.005	20.009	100.541	19.968	29.807	0.521
140.500	127.162	80.004	20.008	100.548	19.968	29.930	0.568
141.000	127.464	80.005	20.009	100.556	19.967	30.366	0.594
141.500	127.703	80.003	20.009	100.562	19.968	30.051	0.565
142.000	128.019	80.005	20.009	100.562	19.965	30.858	0.548
142.500	128.291	80.004	20.009	100.559	19.968	30.032	0.571
143.000	128.631	80.004	20.009	100.548	19.967	30.340	0.600
143.500	128.940	80.005	20.009	100.536	19.968	29.898	0.630
144.000	129.191	80.006	20.009	100.529	19.968	30.054	0.605
144.500	129.521	80.003	20.009	100.531	19.968	29.792	0.571
145.000	129.757	80.005	20.009	100.534	19.969	29.763	0.574
145.500	130.055	80.004	20.009	100.544	19.969	29.553	0.550
146.000	130.360	80.004	20.009	100.550	19.968	29.787	0.569
146.500	130.611	80.004	20.009	100.552	19.970	29.304	0.579
147.000	130.901	80.004	20.009	100.554	19.968	29.798	0.548
147.500	131.187	80.005	20.009	100.559	19.969	29.543	0.558
148.000	131.467	80.004	20.009	100.560	19.968	29.962	0.571
148.500	131.795	80.005	20.009	100.566	19.967	30.121	0.587
149.000	132.078	80.004	20.009	100.572	19.968	29.772	0.610
149.500	132.389	80.004	20.009	100.570	19.970	29.315	0.602
150.000	132.628	80.005	20.009	100.563	19.968	29.770	0.571
150.500	132.962	80.005	20.009	100.556	19.969	29.446	0.561
151.001	133.248	80.004	20.009	100.547	19.970	29.414	0.596
151.501	133.528	80.003	20.009	100.542	19.970	29.380	0.593
152.001	133.870	80.005	20.010	100.546	19.970	29.229	0.594
152.500	134.146	80.003	20.009	100.553	19.974	28.121	0.620
153.000	134.472	80.004	20.009	100.557	19.973	28.342	0.610
153.500	134.715	80.005	20.009	100.557	19.974	27.920	0.585
154.000	135.007	80.004	20.009	100.553	19.974	28.202	0.552
154.500	135.299	80.004	20.009	100.545	19.972	28.569	0.560
155.000	135.604	80.005	20.009	100.544	19.971	29.069	0.591
155.500	135.912	80.004	20.009	100.547	19.974	27.928	0.604
156.000	136.174	80.006	20.009	100.554	19.976	27.379	0.591
156.500	136.476	80.005	20.009	100.557	19.973	28.237	0.567
157.000	136.729	80.004	20.009	100.558	19.973	28.251	0.559
157.500	137.036	80.005	20.009	100.551	19.974	28.071	0.558
158.000	137.348	80.005	20.009	100.541	19.973	28.229	0.590
158.500	137.623	80.006	20.009	100.536	19.974	28.139	0.603
159.000	137.925	80.005	20.010	100.533	19.973	28.307	0.582
159.500	138.244	80.004	20.010	100.533	19.974	27.961	0.599
160.000	138.518	80.005	20.009	100.530	19.974	28.162	0.607
160.500	138.754	80.005	20.009	100.524	19.974	28.137	0.551
161.000	139.092	80.004	20.010	100.512	19.973	28.230	0.542
161.500	139.339	80.004	20.009	100.498	19.972	28.564	0.579
162.000	139.669	80.003	20.009	100.485	19.973	28.323	0.581
162.500	139.937	80.005	20.009	100.479	19.973	28.400	0.588
163.000	140.208	80.003	20.010	100.479	19.971	28.834	0.569
163.500	140.505	80.004	20.009	100.482	19.972	28.651	0.554
164.000	140.812	80.005	20.009	100.484	19.972	28.535	0.586
164.500	141.078	80.006	20.009	100.481	19.973	28.408	0.589
165.000	141.390	80.004	20.009	100.475	19.973	28.515	0.576
165.500	141.655	80.004	20.009	100.471	19.974	27.969	0.577
166.000	141.974	80.005	20.008	100.471	19.973	28.341	0.581
166.500	142.217	80.004	20.009	100.475	19.972	28.548	0.573
167.000	142.512	80.005	20.008	100.483	19.973	28.416	0.550
167.500	142.814	80.005	20.009	100.490	19.973	28.514	0.567
168.000	143.099	80.004	20.009	100.487	19.975	27.721	0.592
168.500	143.404	80.004	20.009	100.479	19.973	28.277	0.589
169.000	143.711	80.004	20.009	100.472	19.973	28.467	0.601
169.500	143.982	80.004	20.009	100.469	19.977	27.255	0.594
170.000	144.243	80.004	20.009	100.471	19.976	27.435	0.555
170.500	144.609	80.004	20.009	100.478	19.974	28.011	0.580
171.000	144.812	80.005	20.009	100.486	19.974	28.124	0.598
171.500	145.111	80.004	20.008	100.490	19.974	28.181	0.535
172.000	145.412	80.005	20.009	100.486	19.975	27.634	0.551
172.500	145.707	80.005	20.009	100.481	19.976	27.583	0.598
173.000	145.941	80.005	20.009	100.480	19.975	27.754	0.563
173.500	146.279	80.005	20.008	100.483	19.975	27.781	0.551
174.000	146.558	80.004	20.009	100.489	19.975	27.677	0.595
174.500	146.878	80.005	20.009	100.496	19.973	28.523	0.608
175.000	147.139	80.004	20.009	100.497	19.976	27.384	0.590
175.500	147.407	80.004	20.009	100.491	19.974	28.017	0.555
176.000	147.700	80.005	20.009	100.485	19.974	28.155	0.544
176.500	147.971	80.003	20.008	100.483	19.976	27.433	0.563
177.000	148.256	80.006	20.009	100.486	19.973	28.339	0.560
177.500	148.503	80.004	20.008	100.497	19.974	28.202	0.544
178.000	148.796	80.004	20.009	100.508	19.978	26.787	0.536
178.500	149.086	80.006	20.009	100.512	19.977	27.197	0.562
179.000	149.387	80.004	20.009	100.512	19.978	26.848	0.587
179.500	149.655	80.005	20.009	100.508	19.976	27.456	0.580
180.000	149.945	80.004	20.009	100.501	19.975	27.717	0.563
180.500	150.225	80.004	20.008	100.502	19.973	28.317	0.564
181.000	150.502	80.004	20.009	100.509	19.977	27.208	0.564
181.500	150.787	80.006	20.009	100.517	19.975	27.829	0.559
182.000	151.107	80.004	20.009	100.520	19.976	27.362	0.583
182.500	151.356	80.004	20.009	100.519	19.977	27.047	0.587
183.000	151.666	80.006	20.009	100.509	19.975	27.860	0.564
183.500	151.945	80.005	20.009	100.496	19.972	28.565	0.574
184.000	152.258	80.005	20.009	100.483	19.973	28.371	0.591
184.500	152.507	80.005	20.009	100.479	19.974	28.176	0.577
185.000	152.776	80.004	20.009	100.478	19.976	27.473	0.540
185.500	153.078	80.004	20.008	100.482	19.975	27.615	0.544
186.000	153.381	80.003	20.009	100.485	19.973	28.506	0.588
186.500	153.641	80.004	20.009	100.489	19.974	28.161	0.584
187.000	153.929	80.005	20.009	100.489	19.974	28.163	0.555
187.500	154.190	80.003	20.009	100.488	19.972	28.710	0.548
188.000	154.486	80.006	20.009	100.490	19.975	27.889	0.553
188.500	154.728	80.005	20.008	100.496	19.974	28.142	0.547
189.000	155.063	80.004	20.009	100.501	19.977	27.060	0.557
189.500	155.326	80.005	20.009	100.503	19.979	26.480	0.588
190.000	155.580	80.005	20.009	100.504	19.977	27.113	0.558
190.500	155.852	80.004	20.009	100.504	19.977	27.089	0.522
191.000	156.101	80.005	20.009	100.501	19.971	29.031	0.524
191.500	156.432	80.004	20.009	100.500	19.973	28.360	0.551
192.000	156.698	80.004	20.009	100.507	19.970	29.315	0.588
192.500	156.990	80.005	20.009	100.515	19.971	29.007	0.577
193.000	157.251	80.004	20.009	100.519	19.974	28.055	0.556
193.500	157.503	80.005	20.009	100.521	19.974	28.037	0.533
194.000	157.847	80.006	20.009	100.514	19.972	28.621	0.555
194.500	158.127	80.005	20.009	100.499	19.972	28.825	0.611
195.000	158.395	80.004	20.009	100.483	19.973	28.447	0.586
195.500	158.683	80.005	20.009	100.472	19.973	28.276	0.552
196.000	158.924	80.005	20.009	100.469	19.973	28.421	0.542
196.500	159.197	80.003	20.009	100.475	19.972	28.747	0.521
197.000	159.515	80.005	20.009	100.482	19.969	29.687	0.553
197.500	159.762	80.005	20.009	100.484	19.970	29.323	0.579
198.000	160.084	80.004	20.009	100.482	19.968	29.915	0.567
198.500	160.310	80.005	20.009	100.477	19.969	29.701	0.558
199.000	160.597	80.004	20.009	100.475	19.966	30.443	0.530
199.500	160.862	80.006	20.009	100.475	19.970	29.394	0.533
200.000	161.151	80.004	20.008	100.481	19.969	29.678	0.553
200.500	161.412	80.004	20.009	100.483	19.969	29.528	0.551
201.000	161.717	80.005	20.009	100.482	19.969	29.542	0.558
201.500	161.948	80.004	20.009	100.476	19.968	29.778	0.552
202.000	162.214	80.006	20.009	100.471	19.969	29.648	0.517
202.500	162.460	80.004	20.009	100.471	19.966	30.631	0.504
203.000	162.800	80.004	20.009	100.476	19.966	30.621	0.549
203.500	163.032	80.005	20.009	100.484	19.966	30.637	0.579
204.000	163.340	80.005	20.009	100.489	19.965	30.733	0.556
204.500	163.613	80.003	20.009	100.487	19.966	30.544	0.560
205.000	163.919	80.005	20.009	100.480	19.967	30.049	0.580
205.500	164.203	80.004	20.009	100.472	19.966	30.591	0.585
206.000	164.513	80.005	20.010	100.470	19.967	30.330	0.592
206.500	164.717	80.003	20.009	100.476	19.964	30.959	0.553
207.000	165.005	80.005	20.010	100.489	19.963	31.328	0.503
207.500	165.259	80.004	20.009	100.496	19.962	31.790	0.517
208.000	165.484	80.005	20.010	100.497	19.961	32.167	0.511
208.500	165.823	80.004	20.009	100.490	19.960	32.233	0.522
209.000	166.055	80.004	20.010	100.474	19.959	32.548	0.568
209.500	166.366	80.005	20.010	100.453	19.959	32.771	0.557
210.000	166.637	80.004	20.010	100.441	19.957	33.363	0.562
210.500	166.930	80.003	20.009	100.440	19.955	33.733	0.573
211.000	167.199	80.004	20.009	100.441	19.955	33.784	0.563
211.500	167.480	80.005	20.010	100.442	19.956	33.692	0.557
212.000	167.756	80.004	20.009	100.443	19.957	33.132	0.554
212.500	168.020	80.005	20.010	100.439	19.958	33.022	0.548
213.000	168.259	80.004	20.010	100.432	19.956	33.420	0.521
213.500	168.537	80.004	20.009	100.431	19.955	33.884	0.510
214.000	168.806	80.005	20.009	100.434	19.953	34.402	0.532
214.500	169.065	80.004	20.009	100.438	19.956	33.658	0.538
215.000	169.326	80.005	20.008	100.440	19.954	34.295	0.524
215.500	169.576	80.003	20.009	100.439	19.954	34.087	0.515
216.000	169.926	80.005	20.009	100.427	19.953	34.402	0.555
216.500	170.229	80.004	20.009	100.417	19.952	34.941	0.626
217.000	170.450	80.005	20.009	100.412	19.953	34.595	0.589
217.500	170.722	80.004	20.009	100.409	19.955	33.965	0.509
218.000	170.970	80.005	20.009	100.410	19.954	34.349	0.507
218.500	171.240	80.004	20.009	100.414	19.952	34.925	0.519
219.000	171.520	80.004	20.009	100.414	19.951	35.020	0.534
219.500	171.776	80.005	20.009	100.407	19.953	34.419	0.543
220.000	172.044	80.004	20.010	100.400	19.953	34.561	0.530
220.500	172.323	80.005	20.009	100.399	19.954	34.242	0.536
221.000	172.606	80.005	20.009	100.400	19.949	35.679	0.554
221.500	172.822	80.005	20.009	100.402	19.951	35.052	0.530
222.000	173.162	80.004	20.009	100.409	19.951	35.128	0.528
222.500	173.412	80.004	20.009	100.417	19.951	35.128	0.573
223.000	173.677	80.005	20.009	100.415	19.950	35.486	0.552
223.500	173.893	80.003	20.009	100.411	19.951	35.137	0.498
224.000	174.126	80.005	20.009	100.408	19.953	34.621	0.465
224.500	174.402	80.004	20.009	100.406	19.951	35.235	0.479
225.000	174.646	80.005	20.010	100.406	19.952	34.786	0.514
225.500	175.002	80.005	20.009	100.407	19.949	35.597	0.560
226.000	175.217	80.004	20.009	100.411	19.950	35.371	0.586
226.500	175.516	80.005	20.009	100.415	19.951	35.206	0.543
227.000	175.716	80.004	20.009	100.409	19.954	34.145	0.506
227.500	176.115	80.005	20.010	100.402	19.954	34.191	0.549
228.000	176.380	80.006	20.009	100.401	19.954	34.323	0.631
228.500	176.518	80.004	20.009	100.402	19.953	34.476	0.534
229.000	176.892	80.005	20.009	100.409	19.954	34.190	0.458
229.500	177.110	80.006	20.009	100.425	19.956	33.693	0.552
230.000	177.342	80.005	20.009	100.439	19.955	33.802	0.520
230.500	177.580	80.003	20.009	100.443	19.956	33.445	0.460
231.000	177.870	80.006	20.009	100.443	19.952	34.899	0.500
231.500	178.134	80.005	20.009	100.435	19.954	34.166	0.541
232.000	178.370	80.005	20.009	100.427	19.952	34.709	0.527
232.500	178.631	80.005	20.009	100.420	19.953	34.431	0.498
233.000	178.898	80.005	20.009	100.417	19.955	33.773	0.513
233.501	179.212	80.003	20.009	100.417	19.955	33.783	0.554
234.001	179.432	80.006	20.009	100.413	19.957	33.249	0.557
234.501	179.731	80.005	20.009	100.407	19.954	34.111	0.526
235.000	179.956	80.004	20.009	100.401	19.957	33.325	0.522
235.500	180.237	80.003	20.009	100.400	19.958	33.021	0.515
236.000	180.432	80.006	20.009	100.400	19.957	33.237	0.491
236.500	180.725	80.004	20.008	100.409	19.958	32.851	0.482
237.000	180.998	80.004	20.009	100.421	19.957	33.219	0.527
237.500	181.251	80.004	20.009	100.429	19.958	32.977	0.546
238.000	181.522	80.005	20.009	100.427	19.961	31.988	0.525
238.500	181.761	80.004	20.009	100.420	19.960	32.205	0.517
239.000	182.011	80.005	20.009	100.408	19.958	33.046	0.499
239.500	182.358	80.006	20.009	100.399	19.958	33.059	0.543
240.000	182.612	80.004	20.009	100.398	19.956	33.539	0.599
240.500	182.850	80.005	20.009	100.400	19.959	32.793	0.546
241.000	183.105	80.005	20.009	100.407	19.959	32.530	0.493
241.500	183.356	80.005	20.009	100.415	19.959	32.497	0.500
242.000	183.621	80.005	20.009	100.416	19.960	32.231	0.511
242.500	183.923	80.005	20.009	100.408	19.960	32.454	0.541
243.000	184.183	80.005	20.009	100.404	19.960	32.468	0.564
243.500	184.422	80.005	20.009	100.408	19.960	32.318	0.531
244.000	184.713	80.005	20.009	100.415	19.962	31.615	0.515
244.500	184.946	80.006	20.009	100.423	19.958	32.922	0.527
245.000	185.217	80.003	20.009	100.432	19.963	31.401	0.514
245.500	185.477	80.005	20.009	100.437	19.964	31.208	0.518
246.000	185.780	80.005	20.009	100.434	19.964	31.041	0.547
246.500	186.046	80.005	20.009	100.425	19.964	31.224	0.566
247.001	186.249	80.004	20.009	100.425	19.964	31.081	0.518
247.500	186.503	80.004	20.009	100.432	19.965	30.877	0.463
248.000	186.750	80.006	20.009	100.439	19.971	28.994	0.480
248.500	186.990	80.005	20.009	100.445	19.971	29.045	0.494
249.000	187.267	80.005	20.009	100.446	19.970	29.294	0.502
249.500	187.522	80.004	20.009	100.440	19.972	28.723	0.525
250.000	187.780	80.005	20.010	100.433	19.971	28.973	0.522
250.500	188.081	80.004	20.009	100.427	19.974	28.134	0.535
251.000	188.325	80.005	20.009	100.429	19.973	28.335	0.552
251.500	188.600	80.004	20.009	100.437	19.976	27.585	0.532
252.000	188.854	80.005	20.009	100.440	19.975	27.890	0.524
252.500	189.092	80.004	20.009	100.440	19.971	28.892	0.510
253.000	189.353	80.004	20.009	100.435	19.975	27.845	0.496
253.500	189.645	80.005	20.009	100.424	19.974	27.899	0.526
254.000	189.854	80.005	20.009	100.416	19.976	27.484	0.527
254.500	190.137	80.004	20.009	100.415	19.974	28.038	0.496
255.000	190.391	80.005	20.009	100.417	19.979	26.391	0.514
255.500	190.588	80.004	20.009	100.422	19.981	25.936	0.494
256.000	190.806	80.004	20.009	100.426	19.980	26.112	0.434
256.500	191.127	80.005	20.009	100.424	19.979	26.472	0.477
257.000	191.356	80.004	20.009	100.422	19.979	26.452	0.544
257.500	191.533	80.004	20.010	100.421	19.980	26.281	0.478
258.000	191.852	80.005	20.009	100.424	19.981	26.025	0.451
258.500	192.105	80.005	20.009	100.431	19.983	25.410	0.534
259.000	192.343	80.005	20.009	100.440	19.980	26.201	0.532
259.500	192.623	80.004	20.009	100.443	19.980	26.058	0.505
260.000	192.875	80.004	20.009	100.442	19.984	24.921	0.525
260.500	193.123	80.005	20.009	100.436	19.982	25.593	0.516
261.000	193.359	80.004	20.009	100.429	19.986	24.343	0.492
261.500	193.635	80.005	20.009	100.424	19.985	24.616	0.497
262.000	193.864	80.004	20.009	100.429	19.986	24.348	0.508
262.500	194.159	80.005	20.009	100.437	19.988	23.740	0.515
263.000	194.400	80.005	20.009	100.446	19.990	23.174	0.531
263.500	194.637	80.004	20.009	100.449	19.988	23.722	0.507
264.000	194.952	80.004	20.010	100.446	19.991	22.694	0.514
264.500	195.181	80.004	20.009	100.439	19.992	22.603	0.547
265.000	195.462	80.004	20.009	100.436	19.992	22.649	0.527
265.500	195.699	80.004	20.009	100.435	19.992	22.615	0.515
266.000	195.924	80.004	20.009	100.440	19.991	22.849	0.490
266.500	196.235	80.004	20.009	100.448	19.991	22.863	0.499
267.001	196.513	80.004	20.009	100.453	19.992	22.546	0.562
267.500	196.720	80.004	20.010	100.455	19.992	22.613	0.537
268.000	196.982	80.005	20.009	100.455	19.991	22.958	0.477
268.500	197.205	80.004	20.009	100.455	19.994	21.916	0.477
269.000	197.451	80.004	20.009	100.456	19.993	22.214	0.478
269.500	197.705	80.003	20.009	100.464	19.993	22.089	0.485
270.000	197.946	80.003	20.009	100.465	19.996	21.438	0.497
270.500	198.235	80.006	20.009	100.458	19.996	21.335	0.512
271.000	198.537	80.003	20.009	100.448	19.996	21.199	0.560
271.500	198.775	80.004	20.009	100.438	19.994	22.000	0.566
272.000	199.028	80.005	20.009	100.426	19.995	21.738	0.515
272.500	199.277	80.005	20.009	100.425	19.992	22.386	0.497
273.000	199.520	80.005	20.009	100.432	19.994	22.026	0.497
273.500	199.770	80.005	20.009	100.438	19.993	22.253	0.492
274.000	200.013	80.004	20.009	100.439	19.995	21.661	0.493
274.500	200.343	80.005	20.009	100.437	19.995	21.629	0.532
275.000	200.528	80.004	20.010	100.430	19.994	21.845	0.544
275.500	200.799	80.005	20.009	100.422	19.993	22.217	0.486
276.000	201.035	80.005	20.010	100.422	19.994	21.748	0.481
276.500	201.262	80.004	20.009	100.428	19.993	22.202	0.485
277.000	201.522	80.004	20.009	100.430	19.994	21.831	0.475
277.500	201.793	80.004	20.009	100.429	19.996	21.291	0.509
278.000	202.045	80.006	20.009	100.429	19.992	22.410	0.527
278.500	202.309	80.004	20.009	100.423	19.994	22.007	0.520
279.000	202.594	80.004	20.009	100.421	19.993	22.124	0.533
279.500	202.842	80.005	20.009	100.427	19.993	22.109	0.541
280.000	203.067	80.004	20.009	100.435	19.991	22.883	0.503
280.500	203.312	80.004	20.009	100.444	19.996	21.412	0.472
281.000	203.569	80.005	20.010	100.446	19.996	21.211	0.486
281.500	203.841	80.004	20.009	100.441	19.997	21.107	0.515
282.000	204.085	80.004	20.009	100.433	19.997	20.977	0.522
282.500	204.328	80.004	20.009	100.428	19.996	21.165	0.502
283.000	204.593	80.004	20.009	100.428	19.993	22.081	0.497
283.500	204.813	80.004	20.009	100.434	19.996	21.429	0.497
284.000	205.123	80.004	20.009	100.437	19.995	21.526	0.508
284.500	205.328	80.005	20.009	100.437	19.996	21.216	0.522
285.000	205.606	80.005	20.009	100.432	19.996	21.217	0.498
285.500	205.862	80.005	20.010	100.420	19.997	20.964	0.508
286.000	206.136	80.004	20.009	100.407	19.997	21.055	0.532
286.500	206.409	80.005	20.009	100.406	19.998	20.572	0.539
287.000	206.659	80.004	20.009	100.405	19.996	21.196	0.535
287.500	206.924	80.005	20.009	100.410	19.996	21.254	0.519
288.001	207.115	80.003	20.009	100.415	19.996	21.307	0.486
288.500	207.342	80.005	20.009	100.419	19.997	20.931	0.437
289.000	207.579	80.005	20.009	100.415	19.998	20.736	0.441
289.500	207.857	80.004	20.010	100.413	19.999	20.235	0.490
290.000	208.106	80.004	20.009	100.410	19.999	20.363	0.521
290.500	208.362	80.005	20.009	100.410	19.996	21.298	0.516
291.000	208.625	80.004	20.009	100.411	19.995	21.447	0.512
291.500	208.847	80.003	20.009	100.413	19.996	21.240	0.502
292.000	209.132	80.004	20.009	100.409	19.995	21.659	0.496
292.500	209.385	80.004	20.009	100.401	19.994	21.862	0.522
293.000	209.649	80.005	20.009	100.399	19.995	21.649	0.527
293.500	209.885	80.004	20.009	100.398	19.997	21.005	0.509
294.000	210.087	80.005	20.009	100.400	19.995	21.616	0.469
294.500	210.367	80.005	20.009	100.404	19.999	20.504	0.460
295.000	210.612	80.004	20.009	100.404	19.996	21.311	0.504
295.500	210.848	80.005	20.009	100.398	19.993	22.145	0.503
296.000	211.097	80.004	20.009	100.391	19.995	21.677	0.483
296.500	211.391	80.005	20.009	100.386	19.995	21.455	0.514
297.000	211.652	80.005	20.010	100.385	19.996	21.336	0.549
297.500	211.939	80.004	20.009	100.393	19.994	22.003	0.551
298.000	212.131	80.005	20.009	100.400	19.997	21.033	0.513
298.500	212.403	80.005	20.009	100.404	19.996	21.300	0.471
299.000	212.643	80.004	20.009	100.401	19.993	22.154	0.488
299.500	212.842	80.005	20.009	100.397	19.994	21.744	0.476
300.000	213.099	80.005	20.009	100.390	19.993	22.089	0.448
300.500	213.388	80.005	20.009	100.389	19.996	21.236	0.501
301.000	213.616	80.005	20.009	100.394	19.998	20.662	0.532
301.500	213.863	80.004	20.009	100.401	19.997	21.052	0.496
302.000	214.156	80.004	20.009	100.402	19.998	20.592	0.508
302.500	214.399	80.004	20.009	100.399	19.997	20.995	0.538
303.000	214.620	80.006	20.009	100.391	19.996	21.327	0.500
303.500	214.897	80.005	20.009	100.383	19.996	21.405	0.481
304.000	215.140	80.003	20.009	100.378	19.997	20.968	0.509
304.500	215.423	80.005	20.009	100.386	19.994	21.799	0.523
305.000	215.679	80.005	20.009	100.395	19.994	21.761	0.533
305.500	215.954	80.005	20.009	100.404	19.995	21.633	0.535
306.000	216.180	80.003	20.009	100.409	19.996	21.277	0.516
306.500	216.413	80.005	20.009	100.411	19.998	20.667	0.480
307.000	216.651	80.004	20.010	100.408	19.998	20.693	0.465
307.500	216.901	80.005	20.010	100.410	19.997	20.926	0.479
308.000	217.184	80.004	20.009	100.414	19.998	20.658	0.510
308.500	217.396	80.003	20.009	100.419	19.997	21.094	0.514
309.000	217.636	80.005	20.009	100.421	19.997	21.003	0.474
309.500	217.890	80.005	20.009	100.416	19.999	20.302	0.473
310.001	218.120	80.005	20.009	100.407	19.999	20.265	0.490
310.500	218.403	80.005	20.009	100.395	20.001	19.744	0.499
311.000	218.640	80.004	20.009	100.389	19.999	20.315	0.516
311.500	218.892	80.004	20.009	100.390	19.997	20.886	0.505
312.000	219.123	80.004	20.009	100.398	19.998	20.723	0.486
312.501	219.395	80.003	20.009	100.400	19.996	21.134	0.493
313.001	219.624	80.005	20.009	100.401	19.998	20.732	0.502
313.501	219.896	80.004	20.009	100.398	19.997	21.047	0.501
314.001	220.139	80.003	20.010	100.391	19.997	20.872	0.508
314.500	220.363	80.005	20.009	100.390	19.998	20.538	0.491
315.000	220.625	80.005	20.009	100.395	19.998	20.751	0.476
315.500	220.872	80.004	20.009	100.398	19.995	21.465	0.497
316.000	221.153	80.004	20.009	100.398	19.997	20.997	0.519
316.500	221.394	80.004	20.009	100.397	19.998	20.627	0.525
317.000	221.674	80.004	20.009	100.391	19.997	21.057	0.521
317.500	221.910	80.004	20.010	100.384	19.998	20.550	0.518
318.000	222.159	80.005	20.009	100.388	19.998	20.737	0.501
318.500	222.437	80.005	20.009	100.397	19.998	20.703	0.506
319.000	222.638	80.004	20.009	100.405	20.001	19.699	0.503
319.500	222.876	80.002	20.009	100.412	20.000	20.115	0.459
320.000	223.142	80.004	20.009	100.412	19.997	20.975	0.471
320.500	223.343	80.004	20.009	100.405	20.000	20.020	0.485
321.000	223.648	80.004	20.009	100.401	20.001	19.651	0.487
321.500	223.875	80.004	20.009	100.401	20.000	20.015	0.520
322.000	224.153	80.004	20.009	100.403	20.000	19.981	0.519
322.500	224.445	80.005	20.009	100.413	20.001	19.687	0.537
323.000	224.674	80.003	20.009	100.420	19.999	20.383	0.545
323.500	224.935	80.004	20.009	100.420	20.002	19.576	0.505
324.000	225.159	80.004	20.010	100.411	20.001	19.682	0.487
324.500	225.423	80.004	20.009	100.403	19.999	20.276	0.486
325.000	225.704	80.004	20.009	100.401	20.001	19.711	0.517
325.500	225.984	80.005	20.009	100.405	20.002	19.320	0.553
326.000	226.189	80.004	20.009	100.415	20.001	19.742	0.523
326.500	226.445	80.003	20.009	100.427	20.000	19.942	0.473
327.000	226.701	80.005	20.009	100.429	20.001	19.779	0.486
327.500	226.958	80.005	20.009	100.421	20.001	19.799	0.512
328.000	227.155	80.003	20.009	100.411	20.000	19.918	0.484
328.500	227.419	80.006	20.009	100.404	19.997	20.863	0.458
329.000	227.640	80.004	20.009	100.403	20.002	19.399	0.473
329.500	227.895	80.004	20.009	100.408	20.004	18.742	0.480
330.000	228.186	80.003	20.009	100.414	20.001	19.880	0.511
330.500	228.415	80.006	20.009	100.414	20.003	19.164	0.533
331.000	228.687	80.004	20.009	100.407	20.003	19.196	0.511
331.500	228.918	80.005	20.009	100.397	20.000	20.049	0.502
332.000	229.172	80.004	20.009	100.387	20.006	18.318	0.494
332.500	229.413	80.005	20.009	100.387	20.002	19.293	0.490
333.000	229.687	80.004	20.009	100.393	20.003	19.109	0.505
333.500	229.911	80.005	20.009	100.400	20.003	19.270	0.507
334.000	230.179	80.005	20.009	100.407	20.004	18.833	0.495
334.500	230.405	80.005	20.009	100.409	20.005	18.513	0.493
335.000	230.683	80.004	20.009	100.402	20.003	18.989	0.499
335.500	230.908	80.005	20.009	100.395	20.006	18.249	0.503
336.001	231.184	80.004	20.010	100.393	20.005	18.367	0.502
336.501	231.446	80.004	20.009	100.393	20.003	19.194	0.519
337.000	231.693	80.005	20.009	100.402	20.003	19.258	0.523
337.500	231.931	80.005	20.008	100.413	20.004	18.736	0.497
338.000	232.123	80.004	20.009	100.419	20.004	18.728	0.458
338.500	232.450	80.004	20.009	100.414	20.004	18.794	0.475
339.000	232.675	80.005	20.009	100.408	20.004	18.782	0.535
339.500	232.922	80.004	20.009	100.402	20.003	19.181	0.512
340.000	233.218	80.005	20.009	100.399	20.005	18.453	0.507
340.500	233.429	80.004	20.009	100.403	20.004	18.739	0.525
341.000	233.661	80.005	20.009	100.410	20.004	18.972	0.475
341.500	233.896	80.004	20.009	100.418	20.001	19.816	0.455
342.000	234.144	80.004	20.009	100.421	20.002	19.496	0.475
342.500	234.392	80.006	20.009	100.420	20.002	19.536	0.489
343.000	234.679	80.004	20.009	100.415	20.001	19.746	0.515
343.500	234.938	80.005	20.009	100.414	20.002	19.525	0.541
344.000	235.149	80.003	20.009	100.414	20.001	19.720	0.508
344.500	235.402	80.004	20.009	100.413	20.003	19.238	0.467
345.000	235.646	80.005	20.009	100.413	20.001	19.764	0.481
345.500	235.912	80.004	20.009	100.411	20.002	19.517	0.503
346.000	236.146	80.005	20.009	100.402	20.000	19.947	0.505
346.500	236.484	80.004	20.010	100.391	20.001	19.708	0.536
347.000	236.682	80.004	20.009	100.384	20.002	19.312	0.554
347.500	236.930	80.005	20.009	100.381	19.998	20.640	0.491
348.000	237.258	80.003	20.009	100.385	20.000	19.955	0.511
348.501	237.457	80.004	20.009	100.395	19.999	20.454	0.552
349.000	237.684	80.003	20.009	100.400	20.000	20.141	0.476
349.500	237.983	80.005	20.009	100.399	19.999	20.218	0.476
350.000	238.204	80.005	20.009	100.395	20.000	20.083	0.523
350.500	238.441	80.004	20.009	100.387	19.996	21.287	0.489
351.000	238.723	80.004	20.009	100.379	19.998	20.669	0.489
351.500	238.969	80.004	20.009	100.383	19.999	20.337	0.524
352.000	239.222	80.005	20.009	100.391	19.998	20.551	0.513
352.500	239.429	80.004	20.009	100.399	20.000	20.017	0.479
353.000	239.679	80.005	20.009	100.403	20.000	19.979	0.459
353.500	239.953	80.005	20.009	100.403	20.003	19.122	0.491
354.000	240.184	80.003	20.009	100.398	20.002	19.435	0.515
354.500	240.444	80.004	20.009	100.389	20.002	19.469	0.498
355.000	240.702	80.004	20.009	100.384	20.003	19.221	0.505
355.500	240.952	80.004	20.009	100.387	20.002	19.350	0.513
356.000	241.221	80.004	20.009	100.394	20.004	18.769	0.514
356.500	241.452	80.004	20.009	100.397	20.003	19.257	0.510
357.000	241.777	80.005	20.009	100.398	20.004	18.718	0.528
357.500	241.993	80.003	20.009	100.396	20.005	18.667	0.549
358.000	242.159	80.004	20.010	100.389	20.006	18.135	0.462
358.500	242.423	80.004	20.009	100.390	20.005	18.513	0.406
359.000	242.629	80.004	20.009	100.394	20.006	18.297	0.450
359.500	242.940	80.005	20.009	100.402	20.004	18.920	0.494
360.000	243.284	80.005	20.009	100.408	20.003	19.017	0.586
360.500	243.427	80.005	20.010	100.408	20.004	18.926	0.571
361.000	243.727	80.003	20.009	100.400	20.004	18.835	0.465
361.500	243.944	80.005	20.010	100.392	20.005	18.450	0.480
362.000	244.175	80.004	20.009	100.385	20.006	18.326	0.483
362.500	244.521	80.003	20.009	100.384	20.006	18.337	0.513
363.000	244.726	80.004	20.010	100.388	20.005	18.621	0.564
363.500	244.912	80.005	20.010	100.391	20.007	17.893	0.471
364.000	245.174	80.004	20.010	100.392	20.006	18.193	0.419
364.500	245.419	80.004	20.009	100.392	20.007	18.039	0.478
365.000	245.702	80.004	20.010	100.387	20.006	18.320	0.518
365.500	245.981	80.004	20.009	100.384	20.007	18.002	0.545
366.000	246.209	80.004	20.009	100.390	20.005	18.451	0.534
366.500	246.412	80.004	20.009	100.398	20.004	18.847	0.469
367.000	246.657	80.005	20.009	100.405	20.005	18.410	0.440
367.500	246.932	80.004	20.009	100.408	20.005	18.613	0.484
368.000	247.145	80.004	20.009	100.406	20.006	18.093	0.504
368.500	247.458	80.004	20.009	100.398	20.006	18.106	0.507
369.000	247.747	80.004	20.009	100.391	20.006	18.105	0.564
369.500	247.978	80.004	20.009	100.391	20.002	19.353	0.561
370.000	248.232	80.004	20.009	100.396	20.004	18.790	0.502
370.500	248.498	80.004	20.009	100.403	20.004	18.794	0.502
371.000	248.720	80.005	20.010	100.411	20.006	18.344	0.504
371.500	248.971	80.005	20.009	100.412	20.002	19.463	0.480
372.000	249.279	80.004	20.009	100.407	20.004	18.671	0.516
372.500	249.482	80.004	20.009	100.399	20.004	18.705	0.535
373.000	249.727	80.004	20.009	100.397	20.004	18.718	0.480
373.500	249.994	80.004	20.008	100.396	20.005	18.555	0.480
374.000	250.289	80.005	20.009	100.394	20.004	18.814	0.537
374.500	250.497	80.005	20.009	100.392	20.007	17.936	0.532
375.000	250.750	80.005	20.009	100.388	20.005	18.452	0.482
375.500	250.972	80.002	20.009	100.377	20.003	19.067	0.468
376.000	251.223	80.004	20.009	100.366	20.005	18.503	0.475
376.500	251.486	80.005	20.009	100.365	20.003	19.233	0.493
377.000	251.706	80.004	20.009	100.371	20.004	18.861	0.498
377.500	251.979	80.004	20.009	100.383	20.004	18.930	0.488
378.000	252.266	80.004	20.009	100.392	20.004	18.805	0.527
378.500	252.548	80.004	20.009	100.396	20.003	19.032	0.564
379.000	252.740	80.002	20.009	100.397	20.003	19.091	0.522
379.500	253.052	80.006	20.009	100.391	20.003	19.215	0.489
380.000	253.282	80.004	20.009	100.384	20.002	19.483	0.523
380.500	253.513	80.005	20.009	100.388	20.002	19.463	0.501
381.000	253.763	80.004	20.009	100.394	20.001	19.638	0.471
381.500	254.020	80.004	20.009	100.396	20.004	18.954	0.494
382.000	254.240	80.005	20.010	100.390	20.002	19.344	0.492
382.500	254.486	80.004	20.009	100.381	20.004	18.746	0.472
383.000	254.743	80.004	20.009	100.361	20.003	19.156	0.484
383.500	255.004	80.003	20.009	100.348	20.003	19.124	0.511
384.000	255.239	80.004	20.009	100.342	20.005	18.538	0.507
384.500	255.490	80.005	20.009	100.348	20.003	19.194	0.490
385.000	255.746	80.005	20.009	100.355	20.005	18.360	0.496
385.500	255.950	80.004	20.009	100.363	20.003	19.173	0.484
386.000	256.226	80.005	20.009	100.363	20.005	18.601	0.470
386.500	256.458	80.004	20.009	100.361	20.002	19.460	0.494
387.000	256.742	80.004	20.009	100.354	20.004	18.668	0.512
387.500	256.976	80.005	20.009	100.355	20.004	18.740	0.517
388.000	257.262	80.006	20.011	100.366	20.004	18.849	0.519
388.500	257.460	80.004	20.011	100.381	20.004	18.711	0.502
389.000	257.771	80.005	20.009	100.395	20.006	18.119	0.497
389.500	257.975	80.004	20.009	100.403	20.004	18.756	0.512
390.000	258.211	80.004	20.009	100.398	20.003	19.258	0.477
390.500	258.487	80.005	20.009	100.384	20.003	19.206	0.476
391.000	258.753	80.004	20.009	100.376	20.003	19.050	0.527
391.500	258.970	80.005	20.009	100.370	20.005	18.639	0.512
392.000	259.236	80.004	20.009	100.372	20.003	19.204	0.483
392.500	259.455	80.004	20.009	100.377	20.004	18.664	0.485
393.001	259.735	80.004	20.009	100.383	20.008	17.625	0.492
393.501	260.003	80.003	20.009	100.381	20.003	19.122	0.523
394.000	260.230	80.004	20.009	100.374	20.001	19.820	0.521
394.500	260.503	80.004	20.009	100.371	20.000	20.147	0.497
395.000	260.721	80.003	20.009	100.371	19.999	20.238	0.496
395.500	260.971	80.006	20.009	100.371	20.002	19.502	0.480
396.000	261.221	80.005	20.009	100.372	19.999	20.490	0.484
396.500	261.475	80.003	20.009	100.377	20.000	20.140	0.502
397.000	261.726	80.006	20.009	100.373	20.001	19.750	0.505
397.501	261.971	80.003	20.009	100.366	19.998	20.784	0.500
398.001	262.189	80.005	20.009	100.359	20.000	19.965	0.479
398.500	262.496	80.006	20.009	100.359	20.000	20.172	0.494
399.000	262.693	80.005	20.009	100.360	19.999	20.301	0.515
399.500	263.014	80.005	20.009	100.364	19.999	20.496	0.511
400.000	263.215	80.005	20.009	100.372	20.004	18.974	0.520
400.500	263.445	80.003	20.009	100.375	20.001	19.854	0.476
401.000	263.688	80.005	20.010	100.368	19.998	20.538	0.452
401.500	263.976	80.004	20.009	100.360	19.999	20.467	0.502
402.000	264.197	80.005	20.009	100.359	20.001	19.757	0.520
402.500	264.420	80.004	20.009	100.358	19.999	20.290	0.477
403.000	264.713	80.004	20.009	100.360	20.000	20.171	0.480
403.500	264.951	80.004	20.009	100.364	20.000	19.976	0.523
404.000	265.241	80.005	20.009	100.364	19.997	20.965	0.529
404.500	265.420	80.004	20.009	100.357	19.997	20.992	0.499
405.000	265.727	80.005	20.010	100.350	19.998	20.543	0.478
405.500	265.921	80.005	20.009	100.349	19.998	20.809	0.493
406.000	266.196	80.005	20.009	100.358	20.000	20.125	0.485
406.500	266.493	80.003	20.009	100.367	19.996	21.185	0.521
407.000	266.676	80.004	20.009	100.375	19.995	21.434	0.526
407.500	266.963	80.004	20.009	100.383	19.994	21.870	0.475
408.000	267.246	80.006	20.009	100.385	19.998	20.798	0.520
408.500	267.473	80.005	20.009	100.378	19.997	21.012	0.540
409.000	267.776	80.005	20.009	100.376	19.996	21.199	0.520
409.500	267.960	80.003	20.009	100.381	19.996	21.203	0.508
410.000	268.245	80.004	20.009	100.383	19.996	21.365	0.478
410.500	268.440	80.005	20.008	100.383	19.995	21.639	0.475
411.000	268.664	80.005	20.009	100.384	19.996	21.217	0.450
411.500	268.982	80.004	20.009	100.380	19.994	21.765	0.480
412.000	269.198	80.004	20.009	100.374	19.995	21.701	0.538
412.500	269.446	80.005	20.009	100.371	19.993	22.077	0.499
413.000	269.710	80.004	20.009	100.373	19.994	21.965	0.489
413.500	270.010	80.005	20.009	100.383	19.994	21.834	0.538
414.000	270.278	80.004	20.009	100.390	19.996	21.412	0.566
414.500	270.543	80.005	20.009	100.391	19.995	21.639	0.550
415.000	270.755	80.003	20.009	100.386	19.993	22.226	0.505
415.501	271.041	80.004	20.009	100.381	19.994	21.856	0.487
416.000	271.332	80.004	20.009	100.374	19.992	22.420	0.537
416.500	271.565	80.005	20.009	100.374	19.991	22.718	0.551
417.000	271.760	80.004	20.009	100.374	19.992	22.633	0.476
417.500	272.023	80.005	20.009	100.379	19.993	22.321	0.443
418.000	272.283	80.004	20.009	100.382	19.991	22.758	0.490
418.500	272.541	80.004	20.009	100.377	19.991	22.935	0.520
419.000	272.785	80.004	20.009	100.373	19.992	22.357	0.510
419.500	273.065	80.006	20.009	100.373	19.989	23.545	0.513
420.000	273.270	80.004	20.009	100.378	19.986	24.461	0.505
420.500	273.520	80.004	20.009	100.380	19.988	23.680	0.470
421.000	273.791	80.005	20.009	100.385	19.986	24.300	0.488
421.500	274.100	80.005	20.009	100.381	19.988	23.698	0.551
422.000	274.314	80.006	20.010	100.374	19.988	23.739	0.552
422.500	274.585	80.005	20.009	100.363	19.987	24.104	0.504
423.000	274.826	80.005	20.009	100.362	19.987	23.908	0.498
423.500	275.071	80.005	20.009	100.364	19.988	23.671	0.499
424.000	275.295	80.004	20.009	100.369	19.987	23.955	0.478
424.500	275.570	80.005	20.009	100.375	19.988	23.799	0.484
425.000	275.874	80.005	20.009	100.380	19.986	24.262	0.539
425.500	276.047	80.005	20.009	100.374	19.985	24.666	0.528
426.000	276.299	80.005	20.009	100.367	19.987	24.042	0.451
426.500	276.601	80.004	20.009	100.366	19.986	24.229	0.490
427.000	276.819	80.004	20.009	100.366	19.985	24.521	0.537
427.500	277.087	80.005	20.009	100.367	19.983	25.125	0.503
428.000	277.348	80.006	20.009	100.373	19.986	24.300	0.507
428.500	277.585	80.005	20.009	100.374	19.985	24.606	0.514
429.000	277.841	80.005	20.009	100.368	19.985	24.541	0.496
429.500	278.078	80.004	20.009	100.363	19.983	25.146	0.493
430.000	278.383	80.005	20.009	100.362	19.987	24.090	0.517
430.500	278.608	80.005	20.009	100.362	19.981	25.812	0.536
431.000	278.886	80.004	20.009	100.367	19.984	24.888	0.517
431.500	279.111	80.004	20.009	100.374	19.983	25.163	0.503
432.000	279.347	80.006	20.009	100.374	19.984	24.983	0.482
432.500	279.602	80.004	20.009	100.368	19.985	24.607	0.476
433.000	279.881	80.005	20.009	100.361	19.984	25.081	0.513
433.500	280.139	80.005	20.010	100.360	19.981	26.011	0.536
434.001	280.342	80.005	20.009	100.368	19.980	26.245	0.499
434.500	280.624	80.004	20.009	100.379	19.982	25.504	0.473
435.000	280.868	80.004	20.009	100.388	19.981	25.967	0.505
435.500	281.069	80.004	20.009	100.391	19.979	26.359	0.486
436.000	281.336	80.005	20.009	100.387	19.981	25.897	0.456
436.500	281.630	80.004	20.009	100.375	19.978	26.935	0.515
437.000	281.880	80.006	20.009	100.368	19.979	26.582	0.553
437.500	282.170	80.004	20.009	100.367	19.978	26.846	0.541
438.000	282.420	80.006	20.009	100.371	19.976	27.555	0.540
438.500	282.627	80.003	20.009	100.373	19.975	27.582	0.499
439.000	282.920	80.004	20.010	100.376	19.975	27.655	0.479
439.500	283.172	80.005	20.010	100.371	19.974	27.968	0.522
440.000	283.375	80.004	20.009	100.366	19.973	28.364	0.500
440.500	283.670	80.005	20.009	100.366	19.974	28.082	0.477
441.000	283.906	80.005	20.008	100.368	19.973	28.418	0.515
441.500	284.165	80.005	20.010	100.370	19.973	28.347	0.513
442.000	284.423	80.005	20.009	100.372	19.972	28.687	0.506
442.500	284.650	80.004	20.009	100.369	19.974	28.182	0.501
443.000	284.942	80.005	20.010	100.361	19.975	27.642	0.502
443.500	285.184	80.006	20.009	100.355	19.975	27.616	0.527
444.000	285.465	80.004	20.009	100.354	19.973	28.297	0.528
444.500	285.664	80.003	20.010	100.359	19.973	28.387	0.501
445.000	285.983	80.006	20.008	100.367	19.971	29.063	0.500
445.500	286.227	80.004	20.009	100.372	19.969	29.429	0.541
446.000	286.502	80.005	20.009	100.370	19.969	29.620	0.540
446.500	286.690	80.006	20.009	100.368	19.968	29.997	0.491
447.000	286.942	80.004	20.010	100.369	19.967	30.107	0.452
447.500	287.218	80.005	20.009	100.370	19.969	29.461	0.484
448.000	287.500	80.004	20.009	100.375	19.969	29.654	0.542
448.500	287.732	80.005	20.010	100.383	19.968	29.973	0.536
449.000	288.017	80.004	20.010	100.381	19.967	30.307	0.516
449.500	288.239	80.005	20.010	100.373	19.967	30.097	0.512
450.000	288.490	80.005	20.010	100.363	19.968	29.834	0.490
450.500	288.743	80.004	20.010	100.354	19.970	29.399	0.489
451.000	288.998	80.005	20.010	100.354	19.967	30.179	0.506
451.500	289.238	80.005	20.010	100.357	19.967	30.327	0.502
452.000	289.533	80.004	20.010	100.364	19.966	30.579	0.516
452.501	289.776	80.005	20.010	100.366	19.966	30.604	0.537
453.000	290.009	80.005	20.010	100.364	19.968	29.986	0.507
453.500	290.298	80.005	20.010	100.356	19.967	30.294	0.499
454.000	290.557	80.005	20.009	100.350	19.965	30.742	0.535
454.500	290.774	80.005	20.010	100.349	19.963	31.494	0.512
455.000	291.067	80.004	20.010	100.355	19.965	30.804	0.492
455.500	291.319	80.005	20.009	100.364	19.964	31.109	0.527
456.001	291.561	80.005	20.010	100.365	19.963	31.300	0.520
456.501	291.781	80.005	20.010	100.365	19.965	30.880	0.478
457.000	292.036	80.004	20.010	100.358	19.965	30.791	0.468
457.500	292.283	80.004	20.011	100.352	19.962	31.709	0.488
458.001	292.573	80.004	20.011	100.351	19.964	31.143	0.519
458.500	292.797	80.004	20.010	100.358	19.962	31.772	0.526
459.000	293.111	80.005	20.010	100.366	19.961	31.914	0.526
459.500	293.348	80.004	20.010	100.367	19.963	31.334	0.544
460.000	293.618	80.004	20.010	100.364	19.964	31.145	0.529
460.500	293.855	80.006	20.011	100.356	19.963	31.347	0.507
461.000	294.061	80.004	20.010	100.350	19.963	31.410	0.475
461.500	294.318	80.005	20.010	100.349	19.965	30.699	0.453
462.000	294.543	80.004	20.010	100.358	19.962	31.724	0.472
462.500	294.789	80.005	20.010	100.373	19.962	31.860	0.477
463.000	294.997	80.004	20.010	100.385	19.959	32.582	0.463
463.500	295.284	80.005	20.010	100.391	19.961	31.875	0.474
464.000	295.526	80.004	20.010	100.386	19.959	32.513	0.512
464.500	295.815	80.005	20.010	100.382	19.960	32.220	0.530
465.000	296.076	80.004	20.010	100.375	19.960	32.251	0.540
465.500	296.325	80.005	20.010	100.373	19.963	31.286	0.530
466.000	296.600	80.006	20.010	100.373	19.965	30.855	0.518
466.500	296.817	80.004	20.010	100.379	19.964	31.221	0.508
467.000	297.038	80.005	20.011	100.376	19.962	31.646	0.465
467.500	297.277	80.005	20.011	100.370	19.960	32.376	0.449
468.000	297.522	80.004	20.010	100.366	19.959	32.558	0.472
468.500	297.833	80.004	20.010	100.366	19.960	32.340	0.520
469.000	298.047	80.004	20.010	100.372	19.960	32.211	0.541
469.500	298.295	80.004	20.010	100.381	19.959	32.494	0.494
470.000	298.532	80.004	20.010	100.389	19.961	32.135	0.473
470.500	298.790	80.004	20.010	100.392	19.958	32.877	0.490
471.000	299.068	80.004	20.010	100.391	19.960	32.327	0.516
471.500	299.324	80.004	20.010	100.384	19.961	32.115	0.535
472.000	299.560	80.005	20.010	100.379	19.964	31.173	0.513
472.500	299.820	80.004	20.010	100.377	19.960	32.402	0.494
473.000	300.069	80.004	20.010	100.377	19.958	32.950	0.502
473.500	300.295	80.005	20.010	100.377	19.959	32.724	0.492
474.000	300.580	80.005	20.010	100.371	19.958	32.981	0.493
474.500	300.789	80.004	20.010	100.364	19.960	32.190	0.503
475.000	301.016	80.005	20.010	100.356	19.958	32.815	0.465
475.500	301.311	80.004	20.010	100.353	19.958	33.008	0.479
476.000	301.534	80.003	20.010	100.353	19.956	33.539	0.520
476.500	301.853	80.006	20.010	100.359	19.954	34.129	0.530
477.000	302.065	80.004	20.010	100.362	19.956	33.440	0.536
477.500	302.312	80.005	20.010	100.361	19.954	34.079	0.495
478.000	302.563	80.005	20.011	100.355	19.956	33.619	0.479
478.500	302.804	80.004	20.010	100.348	19.955	33.730	0.495
479.000	303.036	80.004	20.010	100.343	19.955	33.794	0.482
479.500	303.305	80.005	20.010	100.348	19.955	33.929	0.488
480.000	303.532	80.004	20.010	100.357	19.952	34.696	0.499
480.500	303.826	80.004	20.010	100.362	19.951	35.126	0.508
481.000	304.062	80.004	20.010	100.361	19.949	35.577	0.525
481.500	304.318	80.005	20.010	100.350	19.947	36.184	0.511
482.000	304.570	80.004	20.010	100.334	19.951	35.053	0.500
482.500	304.769	80.004	20.010	100.325	19.950	35.506	0.479
483.000	305.020	80.005	20.010	100.321	19.950	35.478	0.450
483.500	305.300	80.005	20.010	100.321	19.948	35.964	0.491
484.000	305.509	80.004	20.010	100.330	19.949	35.769	0.510
484.500	305.769	80.005	20.010	100.338	19.950	35.244	0.479
485.000	306.061	80.005	20.010	100.339	19.948	36.021	0.511
485.501	306.279	80.005	20.010	100.340	19.949	35.748	0.531
486.000	306.520	80.004	20.010	100.345	19.948	36.097	0.484
486.500	306.777	80.004	20.010	100.352	19.948	35.899	0.478
487.000	307.045	80.004	20.010	100.361	19.948	36.112	0.511
487.500	307.328	80.005	20.010	100.369	19.946	36.619	0.538
488.000	307.641	80.005	20.010	100.371	19.946	36.674	0.573
488.500	307.808	80.004	20.011	100.365	19.943	37.630	0.538
489.000	308.042	80.005	20.010	100.358	19.944	37.259	0.441
489.500	308.306	80.005	20.010	100.352	19.945	36.886	0.450
490.000	308.554	80.004	20.010	100.352	19.941	38.046	0.505
490.500	308.814	80.006	20.010	100.358	19.942	37.939	0.509
491.000	309.083	80.004	20.010	100.363	19.940	38.459	0.519
491.500	309.339	80.004	20.010	100.364	19.941	38.180	0.527
492.000	309.530	80.005	20.010	100.362	19.941	38.298	0.486
492.500	309.761	80.004	20.009	100.356	19.942	37.974	0.434
493.000	309.987	80.006	20.010	100.355	19.942	37.874	0.439
493.500	310.212	80.004	20.009	100.358	19.943	37.671	0.454
494.000	310.523	80.004	20.010	100.364	19.942	37.808	0.494
494.500	310.780	80.004	20.009	100.370	19.941	38.120	0.553
495.000	310.996	80.006	20.010	100.372	19.941	38.128	0.521
495.500	311.276	80.004	20.010	100.366	19.943	37.571	0.485
496.000	311.483	80.005	20.010	100.359	19.940	38.424	0.491
496.500	311.699	80.004	20.009	100.356	19.939	38.619	0.454
497.000	311.989	80.005	20.010	100.356	19.940	38.574	0.464
497.500	312.217	80.004	20.010	100.362	19.939	38.632	0.512
498.000	312.505	80.005	20.010	100.369	19.936	39.793	0.517
498.500	312.724	80.004	20.010	100.368	19.933	40.732	0.512
499.000	312.976	80.006	20.010	100.364	19.932	40.800	0.489
499.500	313.204	80.004	20.010	100.356	19.933	40.728	0.476
500.000	313.483	80.005	20.010	100.350	19.927	42.450	0.493
500.500	313.688	80.005	20.009	100.350	19.931	41.367	0.495
501.000	313.995	80.006	20.010	100.357	19.929	41.691	0.498
501.500	314.223	80.005	20.010	100.358	19.930	41.659	0.524
502.000	314.420	80.006	20.010	100.358	19.926	42.696	0.480
502.500	314.689	80.006	20.010	100.352	19.926	42.613	0.446
503.000	314.969	80.004	20.011	100.341	19.926	42.776	0.507
503.500	315.185	80.004	20.010	100.334	19.922	44.107	0.522
504.000	315.419	80.004	20.010	100.332	19.924	43.376	0.473
504.500	315.644	80.006	20.009	100.332	19.923	43.542	0.455
505.000	315.959	80.005	20.011	100.335	19.920	44.458	0.499
505.500	316.184	80.004	20.009	100.339	19.919	44.968	0.540
506.001	316.396	80.005	20.010	100.333	19.917	45.452	0.489
506.500	316.637	80.005	20.010	100.329	19.917	45.588	0.445
507.000	316.902	80.005	20.009	100.329	19.912	47.022	0.479
507.500	317.163	80.004	20.009	100.331	19.914	46.575	0.516
508.000	317.445	80.005	20.010	100.333	19.910	47.653	0.535
508.500	317.709	80.005	20.010	100.339	19.909	47.863	0.544
509.000	317.925	80.004	20.010	100.343	19.907	48.604	0.513
509.500	318.216	80.006	20.010	100.343	19.906	48.841	0.493
510.000	318.506	80.005	20.009	100.343	19.907	48.556	0.544
510.500	318.734	80.004	20.009	100.344	19.905	49.279	0.550
511.000	318.986	80.005	20.009	100.351	19.902	50.051	0.499
511.500	319.252	80.005	20.009	100.358	19.902	50.177	0.498
512.000	319.491	80.003	20.009	100.364	19.901	50.402	0.511
512.500	319.714	80.004	20.009	100.364	19.898	51.469	0.484
513.000	320.015	80.006	20.009	100.360	19.899	51.063	0.493
513.500	320.269	80.005	20.009	100.353	19.895	52.322	0.540
514.000	320.474	80.005	20.010	100.349	19.893	52.933	0.507
514.500	320.728	80.006	20.009	100.349	19.890	53.790	0.459
515.001	320.935	80.003	20.009	100.357	19.888	54.274	0.460
515.501	321.213	80.003	20.009	100.362	19.888	54.517	0.472
516.000	321.428	80.005	20.010	100.363	19.885	55.238	0.489
516.500	321.720	80.005	20.010	100.358	19.884	55.613	0.501
517.000	321.990	80.004	20.009	100.350	19.882	56.196	0.534
517.500	322.257	80.005	20.009	100.343	19.880	56.854	0.549
518.000	322.526	80.005	20.009	100.341	19.879	57.283	0.536
518.500	322.737	80.004	20.010	100.348	19.875	58.501	0.508
519.000	322.983	80.004	20.010	100.353	19.875	58.298	0.469
519.500	323.231	80.005	20.011	100.354	19.873	58.928	0.476
520.000	323.469	80.004	20.010	100.346	19.869	60.161	0.490
520.500	323.741	80.006	20.010	100.335	19.867	60.829	0.497
521.000	324.026	80.004	20.010	100.319	19.865	61.384	0.533
521.500	324.258	80.005	20.010	100.309	19.864	61.876	0.537
522.000	324.545	80.005	20.010	100.308	19.859	63.224	0.518
522.500	324.743	80.004	20.010	100.315	19.858	63.538	0.502
523.001	324.993	80.005	20.010	100.319	19.855	64.499	0.466
523.500	325.250	80.004	20.010	100.319	19.854	64.911	0.477
524.000	325.463	80.005	20.010	100.317	19.851	65.643	0.489
524.500	325.735	80.005	20.010	100.310	19.850	66.162	0.478
525.000	325.996	80.004	20.010	100.303	19.849	66.321	0.509
525.500	326.254	80.003	20.010	100.306	19.846	67.195	0.526
526.000	326.511	80.004	20.010	100.313	19.843	68.347	0.517
526.500	326.748	80.004	20.010	100.321	19.842	68.460	0.505
527.000	326.983	80.005	20.010	100.321	19.838	69.819	0.483
527.500	327.261	80.004	20.011	100.319	19.836	70.360	0.492
528.000	327.511	80.005	20.010	100.312	19.833	71.198	0.520
528.500	327.752	80.005	20.010	100.304	19.829	72.608	0.509
529.000	328.026	80.003	20.010	100.303	19.829	72.661	0.503
529.500	328.254	80.005	20.010	100.311	19.825	73.897	0.509
530.000	328.503	80.004	20.010	100.320	19.822	74.730	0.490
530.500	328.748	80.005	20.010	100.322	19.817	76.102	0.485
531.000	328.959	80.004	20.010	100.322	19.817	76.246	0.475
531.500	329.277	80.005	20.011	100.315	19.813	77.308	0.492
532.000	329.497	80.005	20.010	100.312	19.816	76.561	0.533
532.500	329.757	80.003	20.010	100.312	19.809	78.501	0.509
533.000	329.981	80.005	20.010	100.319	19.808	78.957	0.483
533.500	330.231	80.004	20.010	100.326	19.804	80.035	0.479
534.000	330.467	80.004	20.011	100.331	19.803	80.459	0.480
534.500	330.734	80.005	20.011	100.327	19.799	81.588	0.494
535.000	330.986	80.004	20.011	100.320	19.797	82.401	0.511
535.500	331.233	80.004	20.010	100.313	19.796	82.562	0.509
536.000	331.481	80.005	20.010	100.312	19.795	83.087	0.497
536.500	331.728	80.005	20.010	100.315	19.789	84.915	0.495
537.000	331.984	80.004	20.010	100.322	19.789	84.891	0.499
537.500	332.231	80.004	20.010	100.330	19.786	85.758	0.503
538.000	332.436	80.004	20.010	100.335	19.781	87.091	0.478
538.500	332.701	80.006	20.010	100.328	19.777	88.322	0.461
539.000	332.993	80.003	20.010	100.321	19.777	88.507	0.513
539.500	333.211	80.005	20.010	100.315	19.772	90.022	0.533
540.000	333.471	80.005	20.010	100.315	19.770	90.692	0.494
540.500	333.671	80.004	20.010	100.317	19.764	92.561	0.469
541.001	333.947	80.004	20.010	100.325	19.759	93.931	0.468
541.500	334.207	80.004	20.010	100.333	19.757	94.618	0.506
542.000	334.468	80.005	20.010	100.335	19.755	95.346	0.528
542.500	334.715	80.005	20.010	100.327	19.753	95.794	0.514
543.000	334.952	80.003	20.011	100.319	19.751	96.273	0.496
543.500	335.188	80.005	20.011	100.310	19.746	97.827	0.478
544.000	335.427	80.005	20.010	100.304	19.745	98.348	0.474
544.500	335.664	80.003	20.010	100.307	19.741	99.421	0.476
545.000	335.932	80.005	20.010	100.315	19.737	100.622	0.490
545.500	336.223	80.004	20.010	100.319	19.732	102.159	0.532
546.000	336.455	80.005	20.010	100.321	19.728	103.335	0.541
546.500	336.628	80.005	20.010	100.319	19.726	104.020	0.464
547.000	336.947	80.005	20.010	100.313	19.724	104.605	0.449
547.500	337.129	80.004	20.010	100.310	19.721	105.557	0.496
548.000	337.439	80.005	20.010	100.310	19.719	106.412	0.496
548.500	337.648	80.005	20.010	100.316	19.716	107.295	0.506
549.000	337.919	80.004	20.010	100.323	19.712	108.570	0.500
549.500	338.165	80.004	20.010	100.323	19.710	109.103	0.498
550.000	338.415	80.005	20.010	100.319	19.703	111.076	0.507
550.500	338.626	80.005	20.010	100.314	19.700	112.134	0.479
551.000	338.854	80.004	20.010	100.307	19.696	113.394	0.450
551.500	339.190	80.004	20.010	100.302	19.694	113.863	0.501
552.000	339.434	80.005	20.010	100.306	19.691	114.912	0.572
552.500	339.679	80.004	20.010	100.313	19.689	115.523	0.534
553.000	339.952	80.005	20.010	100.321	19.685	116.737	0.503
553.500	340.180	80.004	20.010	100.325	19.684	117.127	0.509
554.000	340.430	80.004	20.011	100.323	19.676	119.371	0.490
554.500	340.656	80.005	20.011	100.314	19.677	118.994	0.478
555.000	340.905	80.004	20.010	100.300	19.674	119.983	0.476
555.500	341.151	80.004	20.011	100.292	19.668	121.910	0.485
556.000	341.393	80.005	20.010	100.290	19.667	122.279	0.491
556.500	341.592	80.005	20.010	100.297	19.665	122.840	0.464
557.000	341.865	80.003	20.010	100.306	19.662	123.801	0.456
557.501	342.123	80.005	20.010	100.312	19.656	125.703	0.502
558.001	342.397	80.004	20.011	100.311	19.656	125.531	0.532
558.500	342.625	80.005	20.011	100.307	19.651	127.041	0.517
559.000	342.896	80.005	20.010	100.300	19.649	127.737	0.500
559.500	343.102	80.004	20.010	100.296	19.648	127.900	0.488
560.000	343.382	80.004	20.010	100.302	19.645	128.966	0.481
560.500	343.634	80.004	20.010	100.312	19.646	128.611	0.509
561.000	343.885	80.005	20.010	100.321	19.641	130.321	0.518
561.500	344.093	80.005	20.010	100.326	19.638	131.180	0.481
562.000	344.337	80.004	20.010	100.327	19.633	132.480	0.455
562.500	344.554	80.005	20.011	100.320	19.634	132.416	0.457
563.000	344.837	80.003	20.010	100.312	19.631	133.243	0.481
563.500	345.122	80.005	20.011	100.304	19.626	134.791	0.534
564.000	345.339	80.005	20.010	100.303	19.622	136.123	0.535
564.500	345.579	80.004	20.010	100.310	19.620	136.772	0.480
565.000	345.823	80.004	20.010	100.312	19.617	137.428	0.470
565.500	346.085	80.005	20.010	100.312	19.614	138.588	0.495
566.000	346.314	80.004	20.010	100.311	19.614	138.579	0.499
566.500	346.569	80.005	20.011	100.305	19.608	140.416	0.487
567.000	346.823	80.006	20.011	100.296	19.607	140.518	0.496
567.500	347.067	80.003	20.010	100.295	19.603	141.743	0.503
568.000	347.355	80.005	20.010	100.302	19.599	143.108	0.515
568.500	347.556	80.003	20.010	100.309	19.595	144.400	0.511
569.000	347.789	80.004	20.010	100.314	19.596	143.978	0.461
569.500	348.089	80.004	20.010	100.315	19.591	145.506	0.484
570.000	348.290	80.004	20.011	100.309	19.591	145.610	0.517
570.500	348.556	80.004	20.011	100.297	19.589	146.178	0.484
571.000	348.831	80.004	20.010	100.289	19.585	147.550	0.505
571.500	349.083	80.004	20.010	100.286	19.583	148.093	0.534
572.000	349.297	80.004	20.010	100.286	19.579	149.163	0.496
572.500	349.607	80.004	20.011	100.291	19.575	150.437	0.495
573.000	349.815	80.005	20.010	100.297	19.573	150.936	0.521
573.500	350.041	80.005	20.011	100.299	19.573	151.071	0.476
574.000	350.293	80.003	20.010	100.299	19.571	151.707	0.456
574.500	350.586	80.005	20.011	100.300	19.567	152.887	0.512
575.000	350.756	80.003	20.010	100.300	19.565	153.566	0.504
575.500	351.082	80.005	20.010	100.305	19.562	154.616	0.479
576.000	351.299	80.004	20.010	100.307	19.561	154.830	0.519
576.500	351.578	80.004	20.010	100.308	19.556	156.264	0.519
577.001	351.817	80.005	20.011	100.307	19.556	156.448	0.507
577.500	352.014	80.005	20.010	100.306	19.552	157.456	0.477
578.000	352.326	80.005	20.010	100.301	19.549	158.372	0.473
578.500	352.551	80.004	20.010	100.303	19.546	159.511	0.523
579.000	352.807	80.003	20.010	100.311	19.544	159.955	0.509
579.500	353.026	80.005	20.010	100.319	19.541	160.890	0.478
580.000	353.263	80.003	20.010	100.326	19.538	161.691	0.466
580.500	353.491	80.005	20.010	100.332	19.535	162.644	0.460
581.000	353.725	80.004	20.011	100.332	19.535	162.735	0.463
581.500	353.968	80.005	20.011	100.331	19.532	163.534	0.470
582.000	354.222	80.004	20.011	100.331	19.530	164.274	0.487
582.500	354.511	80.006	20.010	100.331	19.527	165.254	0.520
583.000	354.733	80.003	20.011	100.336	19.524	166.256	0.527
583.500	354.916	80.003	20.010	100.342	19.520	167.493	0.458
584.000	355.173	80.004	20.010	100.342	19.518	168.071	0.423
584.500	355.427	80.004	20.011	100.340	19.514	169.282	0.475
585.000	355.675	80.003	20.010	100.338	19.514	169.348	0.506
585.500	355.918	80.005	20.010	100.333	19.511	170.169	0.497
586.000	356.177	80.003	20.010	100.332	19.507	171.274	0.496
586.500	356.419	80.005	20.010	100.335	19.505	171.933	0.501
587.000	356.704	80.003	20.010	100.343	19.501	173.282	0.514
587.500	356.918	80.004	20.010	100.345	19.496	174.828	0.513
588.000	357.164	80.003	20.010	100.347	19.495	174.918	0.479
588.500	357.398	80.004	20.010	100.341	19.491	176.380	0.470
589.000	357.634	80.005	20.011	100.336	19.487	177.486	0.475
589.500	357.901	80.004	20.010	100.330	19.485	178.134	0.487
590.000	358.165	80.003	20.010	100.331	19.484	178.257	0.517
590.500	358.364	80.004	20.010	100.335	19.479	179.855	0.496
591.000	358.642	80.004	20.010	100.343	19.477	180.465	0.470
591.500	358.882	80.004	20.010	100.344	19.477	180.618	0.498
592.000	359.131	80.003	20.011	100.341	19.475	181.146	0.504
592.500	359.377	80.004	20.010	100.331	19.469	183.013	0.491
593.000	359.600	80.004	20.010	100.321	19.469	182.985	0.482
593.500	359.848	80.004	20.010	100.319	19.464	184.632	0.470
594.000	360.115	80.004	20.010	100.327	19.462	185.064	0.493
594.500	360.358	80.004	20.010	100.334	19.458	186.175	0.512
595.000	360.592	80.005	20.010	100.342	19.456	186.860	0.494
595.500	360.856	80.004	20.010	100.348	19.455	187.156	0.488
596.000	361.050	80.005	20.010	100.348	19.454	187.377	0.478
596.500	361.329	80.004	20.011	100.338	19.453	187.968	0.465
597.000	361.620	80.003	20.011	100.333	19.451	188.432	0.522
597.500	361.860	80.004	20.010	100.334	19.450	188.771	0.551
598.000	362.156	80.006	20.010	100.335	19.446	190.003	0.533
598.500	362.382	80.002	20.010	100.336	19.445	190.423	0.529
599.000	362.621	80.005	20.010	100.340	19.442	191.342	0.493
599.501	362.848	80.004	20.010	100.333	19.441	191.680	0.466
600.000	363.100	80.005	20.010	100.327	19.439	192.081	0.473
600.500	363.374	80.005	20.011	100.323	19.438	192.461	0.502
601.000	363.610	80.004	20.010	100.323	19.436	193.057	0.518
601.500	363.856	80.004	20.010	100.322	19.435	193.399	0.496
602.000	364.116	80.004	20.010	100.330	19.437	192.816	0.494
602.500	364.387	80.004	20.010	100.336	19.435	193.546	0.519
603.000	364.600	80.003	20.010	100.336	19.437	192.867	0.508
603.500	364.826	80.004	20.010	100.324	19.438	192.726	0.461
604.000	365.097	80.004	20.011	100.316	19.439	192.174	0.468
604.500	365.375	80.005	20.010	100.307	19.442	191.260	0.523
605.000	365.620	80.004	20.010	100.301	19.444	190.684	0.536
605.500	365.830	80.004	20.010	100.301	19.447	189.876	0.488
606.000	366.126	80.004	20.010	100.308	19.450	189.081	0.480
606.500	366.373	80.005	20.010	100.309	19.450	189.019	0.525
607.000	366.604	80.004	20.010	100.303	19.453	188.097	0.511
607.500	366.884	80.004	20.010	100.296	19.451	188.656	0.494
608.000	367.145	80.004	20.010	100.287	19.455	187.448	0.526
608.500	367.386	80.004	20.010	100.285	19.458	186.601	0.522
609.000	367.653	80.004	20.010	100.286	19.458	186.533	0.505
609.500	367.879	80.004	20.010	100.292	19.459	186.223	0.500
610.001	368.138	80.003	20.010	100.297	19.457	186.762	0.489
610.500	368.365	80.003	20.010	100.294	19.459	186.197	0.486
611.000	368.643	80.004	20.011	100.289	19.462	185.258	0.495
611.500	368.954	80.004	20.010	100.291	19.463	184.981	0.547
612.000	369.183	80.004	20.010	100.299	19.464	184.800	0.565
612.500	369.456	80.005	20.010	100.313	19.466	183.987	0.521
613.000	369.648	80.004	20.010	100.336	19.467	183.683	0.483
613.500	369.912	80.003	20.010	100.354	19.470	182.868	0.460
614.000	370.139	80.005	20.010	100.360	19.467	183.747	0.473
614.500	370.395	80.004	20.010	100.358	19.471	182.637	0.487
615.000	370.627	80.003	20.010	100.356	19.470	182.927	0.486
615.500	370.905	80.005	20.010	100.357	19.468	183.364	0.499
616.000	371.158	80.005	20.010	100.359	19.470	182.686	0.520
616.500	371.415	80.003	20.010	100.373	19.471	182.516	0.520
617.000	371.702	80.005	20.010	100.388	19.474	181.399	0.527
617.500	371.949	80.005	20.010	100.393	19.475	181.198	0.539
618.000	372.196	80.004	20.010	100.391	19.476	180.987	0.514
618.500	372.417	80.004	20.010	100.390	19.478	180.506	0.481
619.000	372.687	80.004	20.010	100.386	19.481	179.576	0.479
619.500	372.904	80.004	20.010	100.388	19.480	179.708	0.489
620.000	373.162	80.004	20.010	100.396	19.484	178.452	0.481
620.500	373.444	80.004	20.010	100.406	19.485	178.069	0.507
621.000	373.718	80.004	20.010	100.414	19.487	177.653	0.548
621.500	373.938	80.004	20.009	100.417	19.489	177.007	0.525
622.000	374.191	80.005	20.009	100.412	19.490	176.638	0.484
622.500	374.424	80.004	20.010	100.410	19.489	176.918	0.479
623.000	374.699	80.006	20.009	100.409	19.491	176.403	0.497
623.500	374.952	80.004	20.010	100.409	19.495	175.114	0.518
624.000	375.170	80.004	20.009	100.412	19.496	174.682	0.500
624.500	375.455	80.004	20.009	100.417	19.496	174.865	0.487
625.000	375.689	80.005	20.010	100.411	19.498	174.220	0.511
625.500	375.954	80.004	20.009	100.404	19.500	173.613	0.509
626.001	376.177	80.005	20.010	100.398	19.501	173.262	0.494
626.500	376.423	80.003	20.010	100.397	19.502	173.032	0.479
627.000	376.692	80.004	20.010	100.397	19.506	171.814	0.492
627.500	376.972	80.005	20.009	100.406	19.512	170.104	0.532
628.000	377.197	80.005	20.009	100.408	19.512	169.868	0.527
628.500	377.468	80.004	20.010	100.405	19.512	169.966	0.500
629.000	377.744	80.006	20.010	100.393	19.513	169.523	0.522
629.500	378.010	80.005	20.010	100.382	19.514	169.348	0.545
630.001	378.215	80.006	20.010	100.376	19.516	168.755	0.506
630.500	378.491	80.004	20.009	100.380	19.518	168.179	0.476
631.000	378.687	80.004	20.009	100.393	19.520	167.607	0.477
631.500	378.981	80.005	20.009	100.404	19.522	167.018	0.481
632.000	379.235	80.004	20.009	100.412	19.524	166.282	0.519
632.500	379.496	80.005	20.009	100.409	19.528	165.052	0.531
633.001	379.742	80.004	20.009	100.401	19.531	164.018	0.511
633.500	380.037	80.005	20.009	100.394	19.534	163.243	0.524
634.000	380.278	80.003	20.009	100.395	19.537	162.205	0.539
634.500	380.497	80.006	20.009	100.397	19.542	160.846	0.498
635.000	380.818	80.005	20.011	100.406	19.542	160.672	0.501
635.500	381.108	80.006	20.009	100.410	19.543	160.603	0.575
636.000	381.263	80.004	20.010	100.405	19.548	158.841	0.527
636.500	381.545	80.006	20.009	100.398	19.550	158.435	0.441
637.000	381.810	80.004	20.009	100.396	19.555	156.876	0.493
637.500	382.054	80.004	20.009	100.396	19.559	155.619	0.528
638.000	382.340	80.005	20.009	100.403	19.563	154.255	0.519
638.500	382.553	80.005	20.009	100.414	19.566	153.551	0.514
639.000	382.829	80.004	20.009	100.422	19.568	152.941	0.494
639.500	383.049	80.005	20.009	100.424	19.572	151.736	0.492
640.000	383.316	80.005	20.009	100.424	19.576	150.335	0.492
640.500	383.475	80.005	20.009	100.420	19.578	149.733	0.457
641.000	383.788	80.005	20.009	100.420	19.584	148.000	0.449
641.500	384.028	80.004	20.009	100.428	19.586	147.316	0.513
642.000	384.252	80.005	20.009	100.435	19.593	145.058	0.508
642.500	384.497	80.005	20.009	100.435	19.592	145.419	0.467
643.000	384.790	80.005	20.009	100.435	19.595	144.373	0.504
643.500	385.042	80.004	20.009	100.433	19.602	142.351	0.541
644.000	385.340	80.006	20.009	100.425	19.603	142.157	0.547
644.500	385.542	80.004	20.009	100.420	19.608	140.477	0.525
645.000	385.787	80.005	20.009	100.427	19.613	139.120	0.474
645.500	386.001	80.004	20.009	100.435	19.620	136.825	0.453
646.000	386.231	80.005	20.009	100.436	19.621	136.448	0.451
646.500	386.446	80.005	20.009	100.435	19.622	136.129	0.445
647.000	386.706	80.005	20.009	100.433	19.631	133.509	0.460
647.500	386.985	80.005	20.009	100.426	19.636	132.050	0.507
648.000	387.235	80.005	20.009	100.427	19.633	132.770	0.534
648.500	387.493	80.005	20.009	100.441	19.642	130.276	0.518
649.000	387.720	80.006	20.009	100.450	19.645	129.127	0.496
649.500	387.981	80.005	20.010	100.457	19.652	126.931	0.486
650.000	388.225	80.005	20.009	100.460	19.657	125.596	0.496
650.500	388.464	80.005	20.009	100.459	19.659	124.990	0.494
651.000	388.712	80.004	20.010	100.453	19.664	123.197	0.485
651.500	388.965	80.005	20.009	100.452	19.670	121.371	0.493
652.000	389.197	80.005	20.009	100.457	19.671	121.156	0.493
652.500	389.456	80.004	20.008	100.461	19.677	119.469	0.489
653.000	389.729	80.004	20.009	100.460	19.678	119.059	0.511
653.500	390.039	80.006	20.009	100.458	19.682	117.712	0.557
654.000	390.262	80.004	20.009	100.449	19.685	116.746	0.558
654.501	390.525	80.005	20.009	100.440	19.690	115.366	0.510
655.000	390.743	80.005	20.009	100.440	19.695	113.810	0.484
655.500	391.001	80.005	20.009	100.446	19.699	112.692	0.478
656.000	391.246	80.004	20.009	100.457	19.701	111.915	0.489
656.500	391.489	80.004	20.009	100.472	19.706	110.317	0.495
657.000	391.744	80.005	20.009	100.478	19.713	108.180	0.493
657.500	392.013	80.005	20.009	100.473	19.718	106.839	0.511
658.000	392.263	80.004	20.009	100.467	19.722	105.603	0.522
658.500	392.483	80.004	20.009	100.460	19.728	103.846	0.495
659.000	392.771	80.005	20.009	100.460	19.732	102.463	0.488
659.500	392.998	80.005	20.008	100.470	19.734	101.831	0.511
660.000	393.238	80.005	20.009	100.487	19.736	101.276	0.491
660.500	393.528	80.005	20.009	100.497	19.739	100.252	0.499
661.000	393.765	80.004	20.009	100.504	19.745	98.391	0.529
661.500	394.020	80.006	20.009	100.500	19.750	96.842	0.509
662.000	394.278	80.005	20.009	100.493	19.752	96.439	0.502
662.500	394.481	80.004	20.009	100.482	19.755	95.502	0.487
663.000	394.738	80.004	20.009	100.482	19.759	94.127	0.461
663.500	394.974	80.005	20.009	100.481	19.764	92.757	0.477
664.000	395.224	80.005	20.009	100.484	19.768	91.397	0.489
664.500	395.480	80.004	20.009	100.488	19.773	89.972	0.496
665.000	395.714	80.005	20.009	100.488	19.777	88.584	0.498
665.500	395.971	80.004	20.009	100.482	19.777	88.720	0.491
666.000	396.278	80.004	20.009	100.482	19.781	87.444	0.528
666.500	396.493	80.006	20.009	100.482	19.785	86.115	0.543
667.000	396.744	80.005	20.009	100.481	19.787	85.544	0.494
667.500	397.002	80.004	20.009	100.487	19.793	83.624	0.487
668.000	397.214	80.005	20.009	100.487	19.799	81.870	0.489
668.500	397.481	80.005	20.010	100.483	19.801	81.131	0.474
669.000	397.771	80.005	20.009	100.481	19.807	79.384	0.518
669.500	397.973	80.006	20.009	100.485	19.811	78.060	0.525
670.000	398.221	80.004	20.009	100.490	19.813	77.559	0.471
670.500	398.489	80.005	20.009	100.503	19.818	76.061	0.483
671.000	398.719	80.005	20.009	100.516	19.821	75.010	0.507
671.500	398.998	80.005	20.009	100.518	19.824	74.159	0.504
672.000	399.193	80.005	20.009	100.510	19.825	73.703	0.492
672.500	399.451	80.004	20.009	100.497	19.832	71.749	0.464
673.000	399.747	80.006	20.009	100.482	19.834	71.021	0.503
673.500	399.961	80.005	20.009	100.468	19.835	70.763	0.531
674.000	400.223	80.004	20.009	100.468	19.840	69.254	0.493
674.500	400.490	80.004	20.009	100.476	19.843	68.154	0.502
675.001	400.763	80.005	20.009	100.483	19.845	67.730	0.535
675.500	400.982	80.005	20.009	100.484	19.849	66.362	0.517
676.000	401.194	80.006	20.009	100.483	19.853	65.338	0.462
676.500	401.425	80.005	20.009	100.480	19.852	65.505	0.437
677.000	401.698	80.005	20.009	100.481	19.858	63.622	0.473
677.500	401.953	80.004	20.009	100.483	19.859	63.464	0.516
678.000	402.177	80.005	20.009	100.489	19.861	62.740	0.504
678.500	402.452	80.005	20.009	100.495	19.865	61.491	0.489
679.000	402.721	80.005	20.009	100.488	19.868	60.568	0.522
679.500	402.957	80.005	20.009	100.472	19.869	60.244	0.525
680.000	403.193	80.005	20.009	100.460	19.873	59.088	0.488
680.500	403.424	80.004	20.009	100.452	19.875	58.628	0.470
681.000	403.639	80.005	20.009	100.448	19.880	56.893	0.457
681.500	403.868	80.005	20.009	100.453	19.881	56.494	0.445
682.000	404.093	80.004	20.009	100.458	19.885	55.524	0.449
682.500	404.297	80.004	20.009	100.455	19.886	55.049	0.441
683.000	404.552	80.004	20.009	100.447	19.891	53.504	0.444
683.500	404.811	80.005	20.009	100.437	19.894	52.692	0.486
684.000	405.058	80.005	20.009	100.432	19.893	53.016	0.510
684.500	405.302	80.005	20.009	100.435	19.895	52.306	0.499
685.000	405.538	80.004	20.009	100.443	19.898	51.368	0.486
685.500	405.815	80.004	20.009	100.450	19.903	49.942	0.496
686.000	406.046	80.005	20.009	100.451	19.904	49.512	0.510
686.500	406.301	80.006	20.009	100.446	19.907	48.563	0.497
687.000	406.592	80.003	20.009	100.439	19.911	47.284	0.516
687.500	406.789	80.004	20.009	100.438	19.915	46.316	0.517
688.000	407.069	80.005	20.009	100.438	19.917	45.652	0.482
688.500	407.307	80.004	20.009	100.444	19.921	44.177	0.497
689.001	407.557	80.005	20.009	100.452	19.925	43.146	0.504
689.500	407.770	80.003	20.009	100.458	19.924	43.414	0.476
690.000	408.043	80.006	20.009	100.457	19.925	42.993	0.474
690.500	408.290	80.004	20.009	100.453	19.928	42.065	0.503
691.000	408.581	80.005	20.009	100.451	19.932	41.086	0.530
691.500	408.767	80.004	20.009	100.453	19.934	40.224	0.508
692.000	409.035	80.006	20.009	100.455	19.937	39.252	0.465
692.500	409.279	80.004	20.009	100.458	19.937	39.369	0.483
693.000	409.543	80.005	20.009	100.461	19.940	38.381	0.510
693.500	409.792	80.005	20.009	100.455	19.944	37.218	0.510
694.000	410.050	80.005	20.009	100.449	19.946	36.707	0.510
694.500	410.257	80.005	20.009	100.445	19.943	37.611	0.487
695.000	410.512	80.005	20.009	100.446	19.945	36.821	0.464
695.500	410.717	80.004	20.008	100.446	19.950	35.264	0.461
696.000	411.036	80.004	20.009	100.453	19.952	34.737	0.492
696.500	411.255	80.006	20.009	100.457	19.953	34.561	0.531
697.001	411.513	80.004	20.009	100.454	19.954	34.283	0.508
697.500	411.738	80.005	20.009	100.452	19.955	33.809	0.480
698.000	411.980	80.005	20.009	100.451	19.958	32.852	0.475
698.500	412.252	80.004	20.009	100.450	19.960	32.242	0.490
699.000	412.523	80.003	20.009	100.450	19.963	31.322	0.528
699.500	412.756	80.004	20.009	100.453	19.962	31.567	0.524
700.000	412.976	80.005	20.009	100.446	19.965	30.846	0.479
700.500	413.216	80.003	20.009	100.436	19.967	30.277	0.457
701.000	413.457	80.005	20.009	100.421	19.969	29.714	0.471
701.500	413.766	80.004	20.009	100.413	19.969	29.467	0.516
702.000	413.972	80.004	20.009	100.407	19.971	28.807	0.533
702.500	414.203	80.004	20.009	100.409	19.970	29.299	0.476
703.000	414.507	80.005	20.009	100.413	19.975	27.840	0.486
703.500	414.722	80.003	20.009	100.418	19.973	28.334	0.527
704.000	414.972	80.004	20.009	100.412	19.976	27.367	0.492
704.500	415.242	80.005	20.009	100.404	19.978	26.896	0.493
705.000	415.509	80.004	20.009	100.399	19.979	26.655	0.529
705.500	415.703	80.005	20.009	100.397	19.980	26.192	0.499
706.000	415.919	80.005	20.009	100.399	19.984	25.097	0.435
706.500	416.192	80.003	20.009	100.405	19.983	25.186	0.449
707.000	416.426	80.005	20.009	100.414	19.982	25.491	0.498
707.500	416.682	80.005	20.009	100.411	19.985	24.665	0.499
708.000	416.916	80.004	20.009	100.404	19.987	24.140	0.490
708.500	417.167	80.004	20.009	100.398	19.986	24.219	0.488
709.000	417.441	80.004	20.009	100.398	19.986	24.408	0.505
709.500	417.677	80.005	20.009	100.397	19.986	24.381	0.517
710.000	417.939	80.003	20.009	100.403	19.986	24.419	0.504
710.500	418.102	80.004	20.009	100.406	19.988	23.618	0.462
711.000	418.403	80.005	20.009	100.403	19.987	23.917	0.445
711.500	418.626	80.004	20.009	100.389	19.991	22.805	0.494
712.001	418.908	80.005	20.009	100.381	19.990	23.248	0.514
712.500	419.120	80.004	20.009	100.374	19.988	23.729	0.499
713.000	419.369	80.004	20.008	100.378	19.993	22.310	0.478
713.500	419.591	80.005	20.009	100.387	19.994	22.022	0.466
714.000	419.846	80.004	20.009	100.397	19.996	21.417	0.474
714.500	420.114	80.005	20.009	100.398	19.996	21.424	0.499
715.000	420.339	80.004	20.009	100.389	19.999	20.507	0.508
715.500	420.582	80.004	20.009	100.381	19.997	20.847	0.481
716.000	420.819	80.004	20.009	100.373	19.997	20.952	0.474
716.500	421.056	80.004	20.009	100.372	19.996	21.340	0.477
717.001	421.340	80.005	20.009	100.380	19.999	20.364	0.498
717.500	421.585	80.004	20.009	100.394	19.999	20.397	0.525
718.000	421.850	80.004	20.009	100.395	19.998	20.527	0.520
718.500	422.059	80.005	20.009	100.391	20.001	19.878	0.492
719.000	422.320	80.005	20.009	100.382	20.000	20.193	0.472
719.500	422.543	80.003	20.009	100.374	19.999	20.395	0.477
720.000	422.883	80.006	20.009	100.369	19.999	20.219	0.523
720.500	423.061	80.003	20.009	100.372	19.999	20.393	0.540
721.000	423.308	80.005	20.009	100.379	20.000	20.002	0.471
721.500	423.560	80.005	20.009	100.384	20.000	20.157	0.462
722.000	423.813	80.003	20.009	100.385	20.000	19.916	0.502
722.500	424.067	80.005	20.009	100.381	20.003	19.097	0.506
723.001	424.328	80.004	20.009	100.375	20.003	19.209	0.511
723.500	424.527	80.004	20.009	100.372	20.004	18.761	0.488
724.000	424.792	80.003	20.009	100.373	20.003	19.255	0.462
724.500	424.986	80.004	20.009	100.373	20.005	18.559	0.461
725.000	425.227	80.004	20.009	100.376	20.004	18.735	0.447
725.500	425.502	80.005	20.009	100.375	20.006	18.183	0.476
726.000	425.727	80.004	20.009	100.368	20.007	17.916	0.508
726.500	426.011	80.005	20.009	100.361	20.006	18.203	0.504
727.000	426.268	80.005	20.009	100.360	20.008	17.656	0.525
727.500	426.489	80.003	20.008	100.361	20.011	16.530	0.510
728.000	426.742	80.006	20.009	100.366	20.013	16.125	0.476
728.500	426.947	80.003	20.009	100.372	20.013	15.930	0.466
729.000	427.230	80.003	20.009	100.374	20.009	17.382	0.473
729.500	427.495	80.004	20.009	100.368	20.011	16.649	0.518
730.000	427.813	80.004	20.009	100.365	20.010	17.098	0.566
730.500	428.020	80.005	20.009	100.365	20.012	16.245	0.554
731.000	428.288	80.003	20.009	100.367	20.011	16.613	0.500
731.500	428.513	80.005	20.009	100.374	20.013	15.921	0.484
732.000	428.783	80.004	20.009	100.386	20.012	16.473	0.494
732.500	429.029	80.005	20.009	100.388	20.015	15.400	0.505
733.000	429.243	80.005	20.009	100.386	20.015	15.454	0.488
733.500	429.504	80.004	20.009	100.380	20.013	16.178	0.467
734.000	429.741	80.003	20.009	100.375	20.013	15.913	0.486
734.500	430.000	80.005	20.009	100.369	20.012	16.407	0.497
735.000	430.251	80.004	20.009	100.369	20.016	15.118	0.503
735.500	430.432	80.005	20.009	100.372	20.016	15.149	0.471
736.000	430.699	80.004	20.009	100.377	20.018	14.413	0.440
736.500	430.974	80.004	20.009	100.381	20.017	14.921	0.495
737.000	431.186	80.005	20.009	100.381	20.017	14.902	0.514
737.500	431.460	80.005	20.009	100.381	20.016	15.155	0.487
738.000	431.706	80.004	20.010	100.382	20.018	14.640	0.503
738.500	431.952	80.004	20.009	100.386	20.017	14.912	0.506
739.000	432.183	80.004	20.008	100.388	20.017	14.963	0.485
739.500	432.435	80.004	20.009	100.389	20.015	15.334	0.480
740.000	432.645	80.004	20.009	100.386	20.017	14.977	0.472
740.500	432.956	80.005	20.009	100.381	20.017	14.692	0.492
741.000	433.190	80.005	20.010	100.376	20.016	15.096	0.533
741.500	433.450	80.005	20.009	100.377	20.016	15.278	0.519
742.000	433.677	80.005	20.009	100.386	20.016	15.173	0.491
742.500	433.937	80.003	20.009	100.394	20.018	14.509	0.487
743.000	434.169	80.004	20.009	100.397	20.015	15.438	0.489
743.500	434.449	80.004	20.009	100.390	20.016	15.027	0.502
744.000	434.733	80.004	20.009	100.378	20.015	15.379	0.538
744.500	434.979	80.004	20.009	100.360	20.016	15.106	0.547
745.000	435.160	80.004	20.009	100.353	20.013	16.139	0.478
745.500	435.450	80.004	20.009	100.354	20.015	15.313	0.449
746.000	435.657	80.005	20.008	100.369	20.015	15.396	0.484
746.500	435.956	80.003	20.009	100.382	20.015	15.330	0.502
747.000	436.179	80.004	20.009	100.389	20.017	14.673	0.514
747.500	436.439	80.005	20.009	100.386	20.017	14.933	0.502
748.000	436.687	80.004	20.009	100.381	20.017	14.700	0.496
748.500	436.970	80.004	20.009	100.372	20.018	14.617	0.520
749.000	437.202	80.004	20.009	100.367	20.016	15.098	0.523
749.500	437.412	80.005	20.009	100.367	20.018	14.395	0.479
750.000	437.661	80.003	20.009	100.372	20.018	14.616	0.450
750.500	437.942	80.004	20.009	100.369	20.020	14.044	0.494
751.000	438.207	80.003	20.009	100.363	20.018	14.584	0.538
751.500	438.451	80.004	20.009	100.355	20.018	14.631	0.528
752.000	438.731	80.003	20.009	100.348	20.017	14.904	0.517
752.500	438.959	80.004	20.009	100.345	20.019	14.241	0.516
753.000	439.202	80.004	20.009	100.350	20.015	15.444	0.489
753.501	439.484	80.004	20.009	100.358	20.015	15.287	0.498
754.000	439.720	80.003	20.009	100.365	20.016	15.111	0.522
754.500	439.956	80.005	20.009	100.365	20.015	15.541	0.496
755.000	440.213	80.003	20.009	100.360	20.014	15.684	0.483
755.500	440.504	80.005	20.009	100.353	20.015	15.392	0.520
756.000	440.711	80.004	20.009	100.346	20.016	15.059	0.523
756.500	440.969	80.005	20.009	100.340	20.016	15.246	0.482
757.000	441.203	80.004	20.009	100.342	20.017	14.888	0.478
757.500	441.502	80.004	20.009	100.343	20.016	15.037	0.512
758.000	441.715	80.004	20.009	100.343	20.015	15.375	0.523
758.500	442.000	80.004	20.009	100.335	20.015	15.422	0.506
759.000	442.235	80.005	20.009	100.325	20.016	15.247	0.509
759.500	442.480	80.004	20.009	100.320	20.016	15.090	0.500
760.000	442.741	80.003	20.009	100.320	20.014	15.784	0.493
760.500	442.951	80.004	20.009	100.321	20.015	15.427	0.489
761.000	443.254	80.004	20.009	100.328	20.015	15.518	0.492
761.500	443.497	80.005	20.009	100.334	20.013	16.123	0.530
762.000	443.710	80.004	20.009	100.332	20.013	16.099	0.501
762.501	443.990	80.003	20.009	100.330	20.015	15.495	0.474
763.001	444.240	80.004	20.009	100.330	20.016	15.026	0.512
763.500	444.513	80.004	20.009	100.329	20.018	14.544	0.527
764.000	444.759	80.004	20.009	100.336	20.019	14.180	0.521
764.500	445.003	80.004	20.008	100.340	20.015	15.571	0.505
765.000	445.232	80.004	20.009	100.343	20.017	14.961	0.482
765.500	445.509	80.004	20.009	100.342	20.019	14.332	0.489
766.000	445.768	80.004	20.009	100.342	20.018	14.606	0.520
766.500	446.025	80.003	20.009	100.338	20.019	14.359	0.526
767.000	446.276	80.004	20.009	100.338	20.017	14.845	0.512
767.500	446.536	80.003	20.009	100.341	20.018	14.610	0.509
768.000	446.767	80.004	20.009	100.343	20.018	14.663	0.501
768.500	447.075	80.003	20.009	100.343	20.017	14.781	0.515
769.000	447.294	80.004	20.009	100.335	20.015	15.588	0.533
769.500	447.488	80.004	20.009	100.327	20.014	15.725	0.470
770.000	447.780	80.004	20.009	100.322	20.015	15.296	0.450
770.500	448.027	80.003	20.009	100.321	20.016	15.120	0.513
771.000	448.251	80.005	20.009	100.321	20.019	14.072	0.505
771.500	448.488	80.003	20.009	100.328	20.019	14.190	0.466
772.000	448.725	80.003	20.009	100.331	20.019	14.223	0.468
772.500	448.960	80.004	20.009	100.325	20.018	14.504	0.473
773.000	449.281	80.004	20.009	100.318	20.018	14.497	0.514
773.500	449.533	80.005	20.009	100.317	20.019	14.354	0.565
774.000	449.750	80.004	20.009	100.318	20.017	14.952	0.521
774.500	450.021	80.005	20.009	100.322	20.017	14.872	0.478
775.000	450.251	80.004	20.009	100.331	20.017	14.930	0.494
775.500	450.552	80.004	20.009	100.337	20.018	14.462	0.516
776.000	450.732	80.004	20.010	100.331	20.017	14.885	0.506
776.500	451.050	80.003	20.009	100.325	20.017	14.853	0.490
777.000	451.233	80.003	20.009	100.324	20.018	14.664	0.500
777.500	451.450	80.003	20.009	100.326	20.021	13.623	0.450
778.000	451.753	80.004	20.009	100.335	20.017	14.701	0.460
778.500	452.005	80.004	20.009	100.345	20.021	13.583	0.538
779.000	452.248	80.004	20.009	100.350	20.022	13.421	0.525
779.500	452.529	80.004	20.009	100.348	20.018	14.534	0.510
780.000	452.804	80.004	20.009	100.341	20.019	14.314	0.540
780.500	453.009	80.004	20.009	100.333	20.018	14.438	0.518
781.000	453.290	80.004	20.008	100.337	20.018	14.379	0.482
781.500	453.536	80.004	20.009	100.345	20.020	13.774	0.506
782.000	453.799	80.003	20.009	100.351	20.021	13.630	0.518
782.500	454.019	80.004	20.009	100.356	20.019	14.267	0.496
783.000	454.281	80.005	20.009	100.356	20.021	13.461	0.483
783.500	454.524	80.004	20.009	100.350	20.021	13.638	0.494
784.000	454.749	80.004	20.009	100.344	20.020	13.891	0.487
784.500	455.004	80.003	20.010	100.348	20.020	14.034	0.474
785.000	455.259	80.003	20.009	100.355	20.022	13.441	0.495
785.500	455.458	80.004	20.009	100.362	20.021	13.505	0.482
786.000	455.764	80.004	20.009	100.364	20.022	13.238	0.479
786.500	456.043	80.005	20.009	100.363	20.020	13.765	0.545
787.000	456.240	80.003	20.008	100.357	20.021	13.571	0.531
787.500	456.520	80.003	20.009	100.349	20.021	13.610	0.476
788.000	456.767	80.004	20.009	100.343	20.020	14.006	0.502
788.500	457.009	80.003	20.009	100.346	20.021	13.582	0.508
789.000	457.242	80.005	20.009	100.348	20.017	14.720	0.482
789.500	457.494	80.004	20.009	100.348	20.019	14.317	0.480
790.000	457.710	80.003	20.009	100.348	20.018	14.382	0.476
790.500	457.976	80.003	20.009	100.342	20.018	14.585	0.476
791.000	458.208	80.003	20.009	100.335	20.018	14.625	0.490
791.500	458.465	80.005	20.009	100.334	20.017	14.697	0.493
792.000	458.701	80.005	20.009	100.337	20.016	15.145	0.491
792.500	458.942	80.003	20.009	100.344	20.018	14.618	0.485
793.000	459.226	80.003	20.009	100.353	20.020	14.014	0.501
793.500	459.443	80.005	20.008	100.356	20.020	13.761	0.513
794.001	459.746	80.004	20.009	100.354	20.020	13.797	0.511
794.500	459.956	80.003	20.009	100.351	20.019	14.158	0.516
795.000	460.210	80.005	20.009	100.343	20.019	14.195	0.488
795.501	460.420	80.003	20.009	100.342	20.019	14.278	0.464
796.000	460.716	80.004	20.009	100.350	20.017	14.848	0.485
796.500	460.920	80.005	20.009	100.354	20.020	14.026	0.503
797.001	461.164	80.003	20.009	100.353	20.019	14.166	0.474
797.500	461.415	80.005	20.009	100.350	20.017	14.814	0.471
798.000	461.698	80.002	20.009	100.343	20.017	14.682	0.514
798.500	461.886	80.004	20.009	100.335	20.017	14.684	0.503
799.000	462.172	80.004	20.009	100.331	20.016	15.219	0.473
799.500	462.406	80.004	20.009	100.333	20.017	14.887	0.497
800.000	462.661	80.004	20.008	100.339	20.020	13.968	0.504
800.500	462.931	80.004	20.009	100.343	20.018	14.556	0.507
801.000	463.157	80.003	20.009	100.337	20.019	14.171	0.510
801.500	463.459	80.004	20.009	100.331	20.019	14.208	0.512
802.000	463.669	80.004	20.009	100.328	20.017	14.812	0.520
802.500	463.932	80.004	20.009	100.327	20.016	15.149	0.493
803.000	464.163	80.003	20.009	100.331	20.017	14.740	0.483
803.500	464.361	80.004	20.008	100.339	20.016	15.098	0.461
804.000	464.620	80.003	20.009	100.346	20.013	15.957	0.443
804.500	464.847	80.004	20.009	100.347	20.017	14.833	0.472
805.000	465.109	80.003	20.009	100.346	20.015	15.503	0.487
805.500	465.335	80.004	20.010	100.343	20.014	15.782	0.488
806.000	465.621	80.002	20.007	100.347	20.014	15.768	0.500
806.500	465.900	80.003	20.008	100.352	20.014	15.702	0.539
807.000	466.095	80.005	20.010	100.331	20.013	16.061	0.520
807.500	466.347	80.003	20.008	100.312	20.017	14.872	0.460
808.000	466.591	80.004	20.010	100.298	20.017	14.965	0.471
808.500	466.848	80.005	20.008	100.284	20.018	14.420	0.499
809.000	467.070	80.003	20.008	100.275	20.021	13.489	0.490
809.500	467.401	80.004	20.009	100.296	20.021	13.722	0.516
810.000	467.650	80.004	20.010	100.320	20.019	14.144	0.566
810.500	467.889	80.004	20.009	100.347	20.023	13.109	0.533
811.000	468.110	80.005	20.008	100.378	20.016	14.981	0.474
811.500	468.395	80.003	20.009	100.396	20.021	13.609	0.483
812.000	468.614	80.004	20.009	100.405	20.019	14.260	0.505
812.500	468.914	80.005	20.009	100.400	20.020	13.934	0.512
813.000	469.120	80.004	20.009	100.389	20.020	13.902	0.513
813.500	469.376	80.004	20.009	100.367	20.017	14.709	0.484
814.000	469.637	80.004	20.009	100.352	20.020	13.825	0.490
814.500	469.829	80.005	20.008	100.342	20.021	13.702	0.485
815.000	470.089	80.003	20.009	100.338	20.018	14.399	0.453
815.500	470.338	80.006	20.009	100.330	20.020	13.893	0.480
816.000	470.644	80.004	20.009	100.330	20.020	13.808	0.531
816.500	470.870	80.004	20.009	100.332	20.019	14.315	0.543
817.000	471.122	80.005	20.008	100.339	20.019	14.177	0.505
817.500	471.354	80.003	20.009	100.346	20.021	13.714	0.482
818.000	471.592	80.005	20.008	100.349	20.021	13.513	0.478
818.500	471.847	80.005	20.009	100.343	20.021	13.579	0.482
819.000	472.064	80.004	20.009	100.334	20.021	13.449	0.483
819.500	472.314	80.006	20.009	100.332	20.019	14.294	0.469
820.000	472.521	80.004	20.008	100.338	20.021	13.740	0.462
820.500	472.833	80.005	20.009	100.346	20.023	13.063	0.488
821.000	473.025	80.003	20.009	100.359	20.020	13.887	0.512
821.500	473.323	80.006	20.009	100.366	20.021	13.647	0.497
822.000	473.564	80.005	20.009	100.362	20.022	13.316	0.514
822.500	473.793	80.003	20.009	100.353	20.019	14.318	0.504
823.000	474.070	80.003	20.009	100.346	20.020	13.961	0.488
823.500	474.337	80.005	20.008	100.339	20.020	13.993	0.525
824.000	474.566	80.005	20.009	100.334	20.021	13.453	0.521
824.500	474.816	80.003	20.009	100.334	20.023	12.925	0.488
825.000	475.078	80.005	20.008	100.338	20.026	11.944	0.496
825.500	475.306	80.005	20.009	100.338	20.025	12.263	0.501
826.000	475.556	80.002	20.009	100.337	20.023	12.849	0.484
826.500	475.808	80.005	20.009	100.342	20.024	12.831	0.490
827.000	476.020	80.003	20.009	100.348	20.019	14.275	0.483
827.500	476.306	80.005	20.009	100.351	20.021	13.585	0.481
828.000	476.552	80.003	20.009	100.360	20.023	12.920	0.515
828.500	476.835	80.004	20.008	100.366	20.025	12.399	0.530
829.000	477.061	80.004	20.009	100.365	20.025	12.431	0.519
829.500	477.260	80.005	20.009	100.359	20.025	12.268	0.467
830.000	477.557	80.004	20.010	100.352	20.024	12.679	0.461
830.500	477.800	80.005	20.009	100.346	20.024	12.687	0.518
831.000	478.080	80.005	20.008	100.344	20.023	12.946	0.531
831.500	478.341	80.005	20.009	100.350	20.026	12.152	0.532
832.000	478.566	80.002	20.008	100.351	20.021	13.491	0.513
832.500	478.826	80.006	20.009	100.352	20.023	12.866	0.486
833.000	479.045	80.003	20.009	100.345	20.021	13.537	0.482
833.500	479.295	80.004	20.009	100.334	20.023	12.986	0.474
834.000	479.571	80.004	20.009	100.327	20.021	13.735	0.498
834.500	479.765	80.005	20.009	100.326	20.022	13.281	0.498
835.000	480.027	80.004	20.009	100.329	20.022	13.397	0.463
835.500	480.292	80.004	20.008	100.334	20.020	13.806	0.491
836.000	480.564	80.004	20.008	100.341	20.019	14.067	0.531
836.500	480.806	80.004	20.009	100.339	20.019	14.288	0.525
837.000	480.999	80.004	20.009	100.332	20.019	14.367	0.475
837.500	481.277	80.004	20.009	100.329	20.020	13.892	0.453
838.000	481.580	80.005	20.009	100.328	20.018	14.471	0.526
838.500	481.737	80.005	20.008	100.331	20.020	13.936	0.521
839.000	482.059	80.003	20.008	100.341	20.021	13.556	0.469
839.500	482.275	80.003	20.008	100.355	20.022	13.276	0.508
840.000	482.551	80.004	20.009	100.358	20.020	13.906	0.515
840.500	482.820	80.006	20.009	100.351	20.016	15.025	0.519
841.000	483.060	80.004	20.009	100.340	20.020	13.811	0.527
841.500	483.331	80.004	20.009	100.331	20.020	13.975	0.510
842.000	483.566	80.004	20.008	100.325	20.021	13.638	0.509
842.500	483.807	80.004	20.009	100.326	20.019	14.210	0.491
843.000	484.069	80.003	20.008	100.334	20.020	14.033	0.490
843.500	484.293	80.005	20.008	100.342	20.020	13.857	0.495
844.000	484.557	80.004	20.009	100.340	20.020	13.765	0.487
844.500	484.812	80.004	20.009	100.331	20.020	13.818	0.503
845.000	485.087	80.003	20.009	100.325	20.021	13.683	0.525
845.500	485.271	80.004	20.009	100.325	20.020	14.003	0.494
846.000	485.530	80.004	20.008	100.334	20.022	13.358	0.451
846.500	485.782	80.004	20.009	100.346	20.021	13.604	0.477
847.000	486.067	80.006	20.008	100.356	20.023	12.887	0.524
847.500	486.353	80.002	20.009	100.360	20.021	13.666	0.554
848.000	486.521	80.006	20.009	100.358	20.023	12.880	0.513
848.500	486.794	80.004	20.009	100.352	20.021	13.622	0.448
849.000	487.002	80.004	20.009	100.352	20.021	13.618	0.461
849.500	487.262	80.004	20.008	100.357	20.023	12.923	0.474
850.000	487.499	80.004	20.009	100.361	20.021	13.534	0.482
850.501	487.765	80.003	20.008	100.362	20.023	12.921	0.500
851.001	487.988	80.003	20.009	100.360	20.025	12.361	0.496
851.500	488.240	80.004	20.009	100.347	20.023	12.899	0.483
852.000	488.482	80.003	20.008	100.331	20.023	13.095	0.484
852.500	488.750	80.005	20.009	100.323	20.023	12.862	0.501
853.000	489.006	80.005	20.009	100.320	20.024	12.727	0.517
853.500	489.205	80.004	20.009	100.323	20.023	12.858	0.490
854.000	489.507	80.004	20.008	100.337	20.025	12.435	0.478
854.500	489.748	80.004	20.009	100.352	20.022	13.227	0.522
855.000	490.017	80.003	20.008	100.356	20.022	13.304	0.527
855.500	490.265	80.005	20.009	100.352	20.025	12.484	0.513
856.000	490.496	80.003	20.009	100.348	20.022	13.253	0.497
856.500	490.694	80.004	20.009	100.340	20.021	13.709	0.454
857.000	490.968	80.004	20.008	100.336	20.020	13.762	0.451
857.500	491.229	80.004	20.009	100.342	20.019	14.120	0.504
858.000	491.509	80.004	20.009	100.356	20.022	13.182	0.538
858.500	491.747	80.004	20.008	100.361	20.020	13.812	0.530
859.000	491.974	80.003	20.009	100.358	20.025	12.218	0.492
859.500	492.240	80.005	20.009	100.348	20.024	12.705	0.479
860.000	492.490	80.003	20.009	100.334	20.022	13.414	0.504
860.500	492.724	80.004	20.009	100.326	20.020	13.785	0.500
861.000	492.962	80.004	20.009	100.326	20.019	14.065	0.478
861.500	493.231	80.003	20.008	100.336	20.020	13.758	0.490
862.000	493.494	80.005	20.008	100.351	20.020	13.848	0.519
862.500	493.736	80.004	20.008	100.358	20.021	13.471	0.518
863.000	494.002	80.003	20.009	100.358	20.018	14.413	0.506
863.500	494.238	80.005	20.009	100.348	20.020	13.776	0.505
864.000	494.509	80.003	20.009	100.335	20.021	13.497	0.505
864.500	494.748	80.004	20.008	100.327	20.024	12.763	0.509
865.000	494.961	80.003	20.009	100.333	20.021	13.621	0.481
865.500	495.187	80.004	20.009	100.343	20.023	12.996	0.445
866.000	495.464	80.004	20.008	100.355	20.021	13.470	0.471
866.500	495.742	80.004	20.008	100.360	20.023	12.904	0.529
867.000	496.010	80.003	20.009	100.359	20.021	13.574	0.550
867.500	496.248	80.006	20.009	100.347	20.021	13.667	0.526
868.000	496.483	80.004	20.009	100.339	20.021	13.565	0.490
868.500	496.734	80.004	20.008	100.337	20.020	13.781	0.479
869.000	496.967	80.004	20.009	100.344	20.022	13.443	0.485
869.500	497.218	80.004	20.007	100.353	20.021	13.527	0.484
870.000	497.463	80.004	20.009	100.361	20.019	14.326	0.490
870.500	497.706	80.006	20.008	100.360	20.021	13.558	0.492
871.000	497.955	80.003	20.009	100.353	20.023	12.895	0.490
871.500	498.204	80.005	20.009	100.344	20.019	14.203	0.495
872.000	498.453	80.003	20.008	100.337	20.022	13.281	0.497
872.500	498.693	80.004	20.009	100.335	20.024	12.826	0.494
873.000	498.956	80.004	20.008	100.335	20.020	13.775	0.496
873.500	499.195	80.003	20.008	100.339	20.018	14.379	0.502
874.000	499.462	80.005	20.009	100.338	20.022	13.298	0.504
874.500	499.728	80.004	20.008	100.333	20.018	14.631	0.520
875.000	499.969	80.005	20.009	100.326	20.018	14.567	0.520
875.500	500.210	80.003	20.009	100.322	20.020	13.911	0.494
876.000	500.427	80.005	20.009	100.320	20.017	14.699	0.470
876.500	500.629	80.002	20.008	100.320	20.017	14.751	0.438
877.000	500.882	80.003	20.008	100.325	20.019	14.360	0.437
877.500	501.166	80.004	20.008	100.332	20.017	14.906	0.496
878.000	501.379	80.006	20.009	100.329	20.020	14.002	0.517
878.500	501.648	80.003	20.009	100.320	20.018	14.602	0.490
879.000	501.879	80.004	20.009	100.317	20.016	15.143	0.492
879.501	502.158	80.005	20.010	100.316	20.013	16.009	0.505
880.000	502.400	80.005	20.009	100.319	20.016	15.248	0.515
880.500	502.636	80.004	20.008	100.333	20.018	14.603	0.500
881.000	502.908	80.005	20.008	100.349	20.018	14.647	0.493
881.500	503.167	80.003	20.008	100.358	20.017	14.749	0.519
882.000	503.374	80.006	20.009	100.358	20.019	14.138	0.498
882.500	503.611	80.002	20.009	100.355	20.019	14.262	0.455
883.000	503.846	80.004	20.008	100.348	20.021	13.697	0.458
883.500	504.078	80.003	20.009	100.341	20.021	13.652	0.470
884.000	504.329	80.004	20.009	100.344	20.024	12.820	0.476
884.500	504.616	80.005	20.008	100.352	20.024	12.825	0.510
885.000	504.838	80.003	20.008	100.360	20.022	13.195	0.523
885.500	505.047	80.005	20.008	100.362	20.022	13.408	0.470
886.000	505.293	80.003	20.009	100.361	20.025	12.277	0.444
886.500	505.575	80.005	20.008	100.354	20.026	12.206	0.492
887.000	505.830	80.005	20.009	100.346	20.022	13.351	0.532
887.500	506.043	80.003	20.008	100.343	20.020	13.917	0.502
888.001	506.326	80.004	20.008	100.350	20.025	12.389	0.482
888.500	506.587	80.004	20.009	100.358	20.024	12.577	0.520
889.000	506.773	80.003	20.008	100.361	20.024	12.823	0.496
889.500	507.084	80.004	20.008	100.363	20.024	12.647	0.473
890.000	507.283	80.004	20.009	100.361	20.025	12.231	0.504
890.500	507.569	80.005	20.009	100.358	20.023	13.071	0.498
891.000	507.825	80.003	20.009	100.357	20.025	12.304	0.514
891.500	507.989	80.005	20.008	100.365	20.025	12.317	0.481
892.000	508.281	80.004	20.009	100.374	20.025	12.401	0.438
892.500	508.518	80.004	20.008	100.380	20.022	13.383	0.492
893.000	508.793	80.003	20.008	100.379	20.022	13.408	0.520
893.500	509.012	80.004	20.009	100.372	20.022	13.409	0.503
894.000	509.263	80.003	20.009	100.361	20.022	13.404	0.482
894.500	509.529	80.004	20.008	100.351	20.024	12.663	0.493
895.000	509.771	80.005	20.009	100.350	20.024	12.553	0.512
895.500	509.964	80.004	20.009	100.353	20.021	13.574	0.472
896.000	510.258	80.003	20.008	100.361	20.022	13.437	0.461
896.500	510.543	80.005	20.011	100.366	20.024	12.694	0.532
897.000	510.773	80.005	20.010	100.365	20.021	13.565	0.547
897.500	511.035	80.004	20.008	100.358	20.022	13.325	0.503
898.000	511.350	80.005	20.009	100.350	20.020	13.768	0.535
898.500	511.607	80.006	20.009	100.342	20.024	12.663	0.575
899.000	511.839	80.004	20.009	100.341	20.025	12.507	0.531
899.500	512.068	80.003	20.008	100.348	20.024	12.585	0.475
900.000	512.322	80.004	20.009	100.353	20.023	13.065	0.472
900.500	512.617	80.006	20.009	100.354	20.020	14.040	0.516
901.000	512.822	80.005	20.009	100.355	20.023	13.019	0.524
901.500	513.092	80.005	20.009	100.352	20.021	13.566	0.487
902.000	513.356	80.005	20.009	100.345	20.019	14.068	0.505
902.500	513.596	80.005	20.009	100.340	20.019	14.106	0.520
903.000	513.837	80.005	20.009	100.342	20.019	14.203	0.492
903.500	514.005	80.004	20.008	100.347	20.022	13.246	0.444
904.000	514.318	80.004	20.008	100.349	20.021	13.642	0.445
904.500	514.613	80.004	20.009	100.348	20.025	12.387	0.545
905.000	514.814	80.005	20.008	100.347	20.021	13.649	0.552
905.500	515.098	80.006	20.009	100.344	20.021	13.584	0.491
906.000	515.344	80.005	20.009	100.339	20.021	13.708	0.507
906.500	515.593	80.004	20.009	100.346	20.023	13.103	0.512
907.000	515.844	80.005	20.009	100.355	20.022	13.174	0.498
907.500	516.118	80.004	20.009	100.364	20.020	13.804	0.513
908.000	516.330	80.004	20.008	100.368	20.020	13.935	0.506
908.500	516.588	80.004	20.009	100.368	20.020	13.851	0.478
909.000	516.830	80.004	20.008	100.360	20.020	13.800	0.485
909.500	517.085	80.004	20.009	100.353	20.021	13.579	0.498
910.000	517.318	80.005	20.009	100.347	20.020	13.852	0.492
910.500	517.634	80.005	20.008	100.350	20.021	13.689	0.519
911.001	517.885	80.005	20.008	100.358	20.021	13.526	0.558
911.501	518.083	80.004	20.008	100.364	20.024	12.758	0.508
912.000	518.341	80.006	20.009	100.363	20.023	13.071	0.453
912.500	518.610	80.005	20.009	100.361	20.018	14.458	0.492
913.000	518.816	80.004	20.009	100.353	20.020	13.905	0.501
913.500	519.089	80.005	20.008	100.346	20.017	14.744	0.477
914.000	519.336	80.004	20.009	100.348	20.019	14.132	0.500
914.500	519.611	80.004	20.008	100.354	20.019	14.268	0.521
915.000	519.895	80.005	20.009	100.360	20.019	14.111	0.540
915.500	520.090	80.005	20.009	100.359	20.018	14.423	0.519
916.000	520.354	80.005	20.009	100.355	20.019	14.209	0.469
916.500	520.574	80.004	20.008	100.346	20.020	13.768	0.472
917.000	520.880	80.006	20.009	100.340	20.018	14.503	0.505
917.500	521.071	80.004	20.009	100.338	20.018	14.379	0.511
918.000	521.314	80.004	20.008	100.341	20.019	14.183	0.465
918.500	521.649	80.005	20.008	100.346	20.019	14.150	0.506
919.000	521.813	80.005	20.008	100.345	20.019	14.351	0.539
919.500	522.100	80.004	20.009	100.342	20.021	13.702	0.475
920.000	522.301	80.005	20.009	100.339	20.018	14.431	0.470
920.500	522.610	80.002	20.009	100.337	20.018	14.620	0.499
921.000	522.857	80.005	20.009	100.341	20.018	14.600	0.532
921.500	523.086	80.005	20.008	100.348	20.018	14.507	0.516
922.001	523.315	80.004	20.008	100.355	20.023	13.050	0.467
922.501	523.545	80.004	20.008	100.355	20.019	14.083	0.458
923.001	523.838	80.005	20.009	100.355	20.020	13.849	0.491
923.500	524.073	80.005	20.008	100.350	20.018	14.578	0.526
924.000	524.259	80.004	20.009	100.344	20.018	14.520	0.475
924.500	524.549	80.004	20.009	100.343	20.019	14.364	0.448
925.000	524.805	80.005	20.009	100.351	20.020	13.785	0.511
925.500	525.074	80.004	20.008	100.358	20.017	14.916	0.536
926.000	525.315	80.004	20.008	100.361	20.018	14.461	0.518
926.500	525.552	80.004	20.009	100.361	20.019	14.358	0.494
927.000	525.790	80.006	20.008	100.358	20.021	13.658	0.476
927.500	526.048	80.003	20.009	100.350	20.017	14.712	0.486
928.000	526.331	80.005	20.009	100.343	20.016	15.018	0.519
928.500	526.563	80.004	20.008	100.344	20.017	14.855	0.528
929.000	526.774	80.005	20.008	100.351	20.017	14.873	0.479
929.500	527.023	80.003	20.008	100.356	20.019	14.137	0.452
930.000	527.311	80.006	20.008	100.356	20.019	14.143	0.499
930.500	527.538	80.003	20.009	100.356	20.017	14.892	0.526
931.000	527.803	80.005	20.009	100.351	20.017	14.711	0.503
931.500	528.060	80.005	20.009	100.344	20.017	14.959	0.507
932.000	528.340	80.005	20.008	100.342	20.016	15.180	0.530
932.500	528.570	80.003	20.009	100.350	20.016	15.114	0.523
933.000	528.829	80.005	20.008	100.357	20.019	14.222	0.499
933.500	529.075	80.004	20.009	100.356	20.018	14.481	0.497
934.000	529.316	80.004	20.009	100.351	20.017	14.806	0.496
934.500	529.566	80.004	20.008	100.342	20.019	14.247	0.489
935.000	529.819	80.005	20.009	100.334	20.017	14.676	0.497
935.500	530.039	80.005	20.009	100.327	20.017	14.773	0.488
936.000	530.266	80.005	20.008	100.330	20.019	14.233	0.460
936.500	530.546	80.003	20.009	100.336	20.019	14.337	0.477
937.000	530.784	80.005	20.008	100.342	20.019	14.213	0.513
937.500	531.015	80.006	20.009	100.338	20.017	14.838	0.493
938.000	531.301	80.005	20.009	100.336	20.022	13.364	0.493
938.500	531.530	80.005	20.009	100.333	20.021	13.748	0.516
939.000	531.780	80.004	20.010	100.339	20.018	14.418	0.497
939.500	532.033	80.005	20.008	100.347	20.017	14.678	0.491
940.000	532.238	80.006	20.008	100.358	20.017	14.703	0.481
940.500	532.528	80.005	20.008	100.367	20.017	14.820	0.476
941.000	532.810	80.005	20.009	100.368	20.016	15.263	0.533
941.500	533.039	80.004	20.009	100.360	20.021	13.665	0.541
942.000	533.266	80.004	20.009	100.351	20.017	14.739	0.483
942.500	533.511	80.004	20.009	100.343	20.016	15.026	0.464
943.000	533.793	80.005	20.008	100.341	20.018	14.537	0.500
943.500	533.994	80.005	20.009	100.348	20.017	14.978	0.505
944.000	534.254	80.004	20.008	100.356	20.017	14.899	0.472
944.500	534.499	80.005	20.008	100.360	20.016	15.257	0.483
945.000	534.732	80.005	20.009	100.359	20.014	15.648	0.492
945.500	535.015	80.004	20.008	100.352	20.015	15.343	0.497
946.000	535.256	80.004	20.009	100.346	20.015	15.507	0.520
946.500	535.514	80.005	20.008	100.338	20.015	15.447	0.512
947.000	535.760	80.003	20.008	100.337	20.017	14.809	0.502
947.500	536.001	80.004	20.008	100.337	20.016	14.997	0.495
948.000	536.246	80.004	20.009	100.340	20.016	15.256	0.487
948.500	536.506	80.004	20.008	100.338	20.015	15.302	0.496
949.000	536.737	80.004	20.008	100.333	20.016	15.211	0.498
949.500	537.031	80.005	20.008	100.331	20.015	15.289	0.508
950.000	537.198	80.004	20.009	100.331	20.017	14.964	0.493
950.500	537.490	80.004	20.008	100.338	20.018	14.411	0.460
951.000	537.710	80.005	20.008	100.348	20.016	15.165	0.485
951.500	537.988	80.003	20.008	100.355	20.020	13.865	0.505
952.000	538.202	80.005	20.009	100.356	20.020	13.977	0.495
952.500	538.451	80.004	20.009	100.356	20.019	14.147	0.477
953.000	538.730	80.005	20.009	100.349	20.019	14.180	0.495
953.500	538.954	80.004	20.008	100.347	20.019	14.296	0.515
954.000	539.248	80.004	20.008	100.353	20.020	13.996	0.511
954.500	539.506	80.006	20.009	100.362	20.022	13.229	0.535
955.000	539.710	80.003	20.008	100.370	20.020	13.906	0.507
955.500	539.938	80.004	20.008	100.374	20.019	14.310	0.447
956.000	540.197	80.006	20.009	100.368	20.022	13.193	0.459
956.500	540.475	80.005	20.009	100.360	20.019	14.110	0.512
957.000	540.702	80.005	20.009	100.355	20.020	13.836	0.521
957.500	540.946	80.005	20.008	100.355	20.022	13.230	0.488
958.000	541.171	80.004	20.009	100.358	20.016	14.986	0.471
958.500	541.448	80.005	20.009	100.366	20.019	14.336	0.486
959.000	541.658	80.006	20.008	100.370	20.017	14.980	0.494
959.500	541.887	80.004	20.009	100.367	20.018	14.487	0.463
960.000	542.118	80.004	20.008	100.359	20.018	14.440	0.449
960.500	542.386	80.005	20.009	100.352	20.019	14.140	0.479
961.000	542.580	80.005	20.009	100.349	20.021	13.730	0.480
961.500	542.832	80.003	20.008	100.351	20.021	13.723	0.454
962.000	543.106	80.005	20.009	100.354	20.020	13.939	0.486
962.500	543.352	80.004	20.009	100.354	20.018	14.552	0.523
963.000	543.577	80.004	20.008	100.354	20.015	15.457	0.496
963.500	543.846	80.005	20.009	100.351	20.016	15.236	0.482
964.000	544.063	80.004	20.009	100.349	20.015	15.366	0.490
964.500	544.314	80.004	20.009	100.353	20.018	14.670	0.477
965.000	544.589	80.004	20.009	100.361	20.017	14.696	0.497
965.500	544.805	80.004	20.009	100.369	20.018	14.600	0.508
966.000	545.040	80.005	20.009	100.372	20.020	13.826	0.471
966.500	545.282	80.005	20.008	100.368	20.020	13.989	0.464
967.000	545.537	80.004	20.009	100.361	20.021	13.702	0.487
967.500	545.777	80.005	20.009	100.361	20.022	13.342	0.496
968.000	546.050	80.004	20.009	100.364	20.022	13.249	0.504
968.500	546.260	80.004	20.009	100.373	20.022	13.157	0.498
969.000	546.512	80.003	20.008	100.382	20.022	13.183	0.472
969.500	546.710	80.005	20.009	100.384	20.019	14.302	0.456
970.000	547.016	80.004	20.009	100.376	20.021	13.723	0.477
970.500	547.232	80.005	20.009	100.372	20.021	13.664	0.513
971.000	547.486	80.004	20.009	100.367	20.019	14.294	0.496
971.500	547.709	80.003	20.008	100.370	20.021	13.707	0.474
972.000	547.996	80.005	20.008	100.375	20.020	13.967	0.494
972.500	548.185	80.005	20.009	100.381	20.023	13.110	0.493
973.000	548.430	80.003	20.009	100.375	20.020	13.911	0.454
973.500	548.699	80.004	20.009	100.369	20.019	14.199	0.474
974.000	548.867	80.004	20.009	100.363	20.018	14.590	0.476
974.500	549.105	80.004	20.009	100.363	20.019	14.115	0.422
975.000	549.376	80.002	20.009	100.368	20.021	13.743	0.458
975.500	549.620	80.005	20.008	100.379	20.021	13.606	0.512
976.000	549.878	80.004	20.009	100.385	20.020	13.808	0.508
976.500	550.146	80.004	20.009	100.387	20.020	14.029	0.514
977.000	550.409	80.003	20.009	100.386	20.019	14.113	0.528
977.500	550.616	80.006	20.008	100.385	20.023	12.845	0.501
978.000	550.881	80.003	20.009	100.389	20.020	13.833	0.472
978.500	551.080	80.005	20.009	100.398	20.019	14.314	0.468
979.000	551.327	80.004	20.008	100.401	20.017	14.783	0.455
979.500	551.560	80.004	20.009	100.402	20.020	13.816	0.463
980.000	551.811	80.006	20.008	100.394	20.020	13.798	0.482
980.500	552.031	80.004	20.009	100.379	20.018	14.593	0.478
981.000	552.288	80.005	20.009	100.363	20.018	14.645	0.474
981.500	552.509	80.003	20.009	100.358	20.020	13.980	0.478
982.000	552.751	80.005	20.009	100.357	20.018	14.407	0.470
982.500	553.021	80.004	20.008	100.359	20.017	14.959	0.487
983.000	553.250	80.004	20.009	100.357	20.018	14.646	0.506
983.500	553.555	80.006	20.009	100.356	20.020	13.788	0.517
984.000	553.790	80.005	20.009	100.349	20.021	13.476	0.537
984.500	554.025	80.004	20.009	100.342	20.021	13.691	0.505
985.000	554.274	80.003	20.008	100.340	20.020	14.028	0.477
985.500	554.498	80.005	20.009	100.349	20.020	13.832	0.479
986.000	554.752	80.005	20.008	100.357	20.019	14.079	0.476
986.500	555.055	80.004	20.009	100.366	20.021	13.676	0.517
987.000	555.219	80.003	20.009	100.374	20.019	14.139	0.512
987.500	555.472	80.005	20.009	100.372	20.019	14.094	0.442
988.000	555.762	80.005	20.009	100.366	20.018	14.419	0.480
988.500	555.985	80.004	20.009	100.363	20.020	13.879	0.528
989.000	556.229	80.005	20.008	100.363	20.021	13.638	0.490
989.500	556.455	80.004	20.008	100.361	20.019	14.178	0.468
990.000	556.773	80.004	20.009	100.360	20.021	13.651	0.507
990.500	557.008	80.005	20.009	100.359	20.022	13.229	0.549
991.000	557.238	80.004	20.009	100.354	20.019	14.362	0.509
991.500	557.492	80.003	20.009	100.354	20.020	13.861	0.474
992.000	557.713	80.004	20.009	100.359	20.019	14.323	0.479
992.500	557.963	80.005	20.009	100.374	20.021	13.568	0.474
993.000	558.205	80.004	20.009	100.389	20.021	13.601	0.482
993.500	558.503	80.004	20.009	100.398	20.019	14.129	0.516
994.000	558.717	80.004	20.009	100.396	20.019	14.195	0.526
994.500	558.945	80.004	20.009	100.386	20.019	14.112	0.477
995.000	559.211	80.005	20.009	100.371	20.017	14.933	0.468
995.500	559.474	80.005	20.009	100.362	20.020	13.846	0.512
996.000	559.718	80.005	20.009	100.359	20.019	14.248	0.518
996.500	559.930	80.004	20.009	100.361	20.017	14.755	0.481
997.000	560.212	80.004	20.009	100.362	20.016	15.124	0.475
997.500	560.481	80.004	20.009	100.361	20.015	15.391	0.523
998.000	560.710	80.005	20.009	100.356	20.016	15.065	0.524
998.501	560.968	80.005	20.009	100.349	20.016	15.266	0.492
999.000	561.242	80.005	20.009	100.345	20.016	15.128	0.509
999.500	561.508	80.004	20.009	100.351	20.018	14.659	0.535
1000.000	561.772	80.004	20.008	100.359	20.018	14.632	0.535
1000.500	562.010	80.004	20.009	100.365	20.019	14.132	0.516
1001.000	562.269	80.004	20.009	100.364	20.018	14.562	0.500
1001.500	562.522	80.005	20.010	100.360	20.018	14.413	0.504
1002.000	562.748	80.003	20.009	100.357	20.017	14.953	0.496
1002.500	563.029	80.005	20.009	100.356	20.018	14.399	0.494
1003.000	563.263	80.004	20.009	100.358	20.018	14.665	0.511
1003.500	563.489	80.005	20.008	100.366	20.020	13.852	0.487
1004.000	563.766	80.004	20.009	100.373	20.019	14.307	0.482
1004.500	564.008	80.003	20.009	100.374	20.021	13.710	0.511
1005.000	564.236	80.005	20.009	100.369	20.021	13.464	0.495
1005.500	564.519	80.005	20.009	100.368	20.021	13.568	0.490
1006.000	564.698	80.005	20.009	100.371	20.022	13.247	0.486
1006.500	565.000	80.004	20.009	100.378	20.019	14.116	0.471
1007.000	565.196	80.004	20.008	100.390	20.021	13.491	0.490
1007.500	565.498	80.003	20.009	100.402	20.018	14.394	0.499
1008.000	565.719	80.003	20.009	100.405	20.019	14.063	0.511
1008.500	565.983	80.005	20.009	100.403	20.020	13.862	0.504
1009.000	566.239	80.004	20.009	100.396	20.018	14.435	0.502
1009.500	566.474	80.004	20.009	100.388	20.022	13.323	0.505
1010.000	566.725	80.003	20.008	100.380	20.021	13.660	0.488
1010.500	566.997	80.004	20.009	100.379	20.024	12.646	0.504
1011.000	567.238	80.005	20.009	100.376	20.023	12.939	0.518
1011.500	567.509	80.003	20.009	100.369	20.026	12.043	0.513
1012.000	567.760	80.005	20.009	100.362	20.023	13.065	0.517
1012.500	568.005	80.003	20.009	100.354	20.021	13.475	0.509
1013.000	568.285	80.005	20.009	100.353	20.020	13.754	0.511
1013.501	568.492	80.003	20.009	100.356	20.020	13.865	0.506
1014.001	568.797	80.005	20.008	100.363	20.020	13.897	0.500
1014.500	569.013	80.005	20.009	100.368	20.018	14.451	0.517
1015.000	569.266	80.005	20.009	100.368	20.018	14.614	0.495
1015.500	569.526	80.004	20.009	100.361	20.021	13.580	0.490
1016.000	569.795	80.004	20.009	100.352	20.018	14.627	0.521
1016.500	570.060	80.005	20.009	100.351	20.015	15.576	0.531
1017.000	570.260	80.004	20.008	100.354	20.015	15.516	0.499
1017.500	570.542	80.004	20.009	100.362	20.014	15.659	0.474
1018.000	570.816	80.003	20.009	100.367	20.016	15.172	0.519
1018.500	571.053	80.005	20.009	100.366	20.020	14.028	0.534
1019.000	571.329	80.005	20.009	100.352	20.016	15.064	0.512
1019.500	571.548	80.003	20.009	100.336	20.018	14.642	0.504
1020.000	571.788	80.005	20.009	100.329	20.017	14.882	0.477
1020.500	572.021	80.003	20.009	100.324	20.018	14.464	0.466
1021.000	572.327	80.003	20.008	100.325	20.019	14.302	0.506
1021.500	572.538	80.004	20.008	100.332	20.017	14.835	0.528
1022.000	572.763	80.005	20.009	100.337	20.019	14.270	0.477
1022.500	573.039	80.005	20.009	100.332	20.018	14.661	0.469
1023.000	573.273	80.004	20.009	100.331	20.017	14.960	0.505
1023.500	573.503	80.003	20.009	100.331	20.015	15.585	0.486
1024.000	573.792	80.004	20.009	100.336	20.017	14.752	0.491
1024.500	574.033	80.004	20.009	100.345	20.016	15.227	0.525
1025.000	574.252	80.004	20.009	100.351	20.015	15.365	0.495
1025.500	574.510	80.004	20.009	100.352	20.018	14.598	0.468
1026.000	574.753	80.005	20.009	100.352	20.016	15.072	0.489
1026.500	575.080	80.005	20.009	100.349	20.015	15.578	0.536
1027.000	575.297	80.005	20.009	100.348	20.015	15.363	0.557
1027.500	575.550	80.004	20.008	100.355	20.017	14.738	0.507
1028.001	575.780	80.004	20.009	100.361	20.016	15.174	0.476
1028.501	576.018	80.004	20.009	100.364	20.017	14.868	0.476
1029.000	576.281	80.005	20.009	100.361	20.019	14.264	0.484
1029.500	576.534	80.005	20.009	100.355	20.018	14.629	0.508
1030.000	576.703	80.004	20.009	100.347	20.017	14.940	0.469
1030.500	577.007	80.004	20.009	100.345	20.019	14.354	0.447
1031.001	577.216	80.004	20.009	100.350	20.014	15.720	0.492
1031.501	577.502	80.004	20.008	100.359	20.017	14.836	0.504
1032.000	577.736	80.003	20.009	100.367	20.016	15.155	0.508
1032.501	577.954	80.003	20.009	100.372	20.016	15.014	0.486
1033.001	578.167	80.005	20.009	100.366	20.017	14.831	0.441
1033.500	578.477	80.003	20.009	100.360	20.018	14.492	0.477
1034.001	578.739	80.003	20.009	100.360	20.018	14.406	0.548
1034.501	578.964	80.004	20.008	100.359	20.016	15.075	0.530
1035.000	579.230	80.003	20.009	100.363	20.020	13.768	0.489
1035.500	579.492	80.004	20.009	100.368	20.016	15.167	0.509
1036.000	579.756	80.004	20.009	100.372	20.014	15.682	0.527
1036.500	580.009	80.004	20.009	100.372	20.014	15.631	0.522
1037.001	580.215	80.004	20.008	100.373	20.016	15.032	0.488
1037.501	580.457	80.004	20.009	100.374	20.016	15.194	0.454
1038.001	580.719	80.004	20.009	100.378	20.013	15.993	0.476
1038.501	580.961	80.004	20.009	100.381	20.014	15.798	0.504
1039.000	581.199	80.004	20.009	100.380	20.014	15.629	0.491
1039.500	581.401	80.004	20.009	100.373	20.013	16.157	0.460
1040.001	581.719	80.004	20.009	100.365	20.013	15.936	0.480
1040.501	581.901	80.004	20.009	100.364	20.014	15.735	0.510
1041.000	582.228	80.004	20.009	100.365	20.013	16.086	0.505
1041.500	582.456	80.005	20.009	100.365	20.014	15.611	0.532
1042.000	582.725	80.004	20.009	100.372	20.019	14.349	0.526
1042.500	582.950	80.004	20.009	100.375	20.016	15.136	0.496
1043.000	583.195	80.005	20.009	100.368	20.018	14.460	0.482
1043.500	583.476	80.003	20.009	100.363	20.014	15.670	0.498
1044.000	583.693	80.005	20.009	100.364	20.015	15.435	0.512
1044.500	583.951	80.003	20.008	100.367	20.017	14.726	0.486
1045.001	584.237	80.005	20.009	100.372	20.020	13.861	0.509
1045.501	584.489	80.004	20.009	100.379	20.019	14.134	0.541
1046.000	584.745	80.004	20.009	100.377	20.019	14.257	0.523
1046.500	584.987	80.004	20.009	100.368	20.017	14.759	0.503
1047.000	585.210	80.005	20.009	100.358	20.017	14.786	0.482
1047.500	585.457	80.004	20.010	100.354	20.019	14.103	0.468
1048.000	585.732	80.004	20.009	100.354	20.016	15.175	0.496
1048.500	585.978	80.004	20.009	100.360	20.019	14.329	0.521
1049.000	586.212	80.004	20.009	100.367	20.018	14.504	0.501
1049.500	586.511	80.004	20.009	100.374	20.019	14.212	0.507
1050.000	586.743	80.005	20.009	100.373	20.019	14.179	0.532
1050.500	586.985	80.004	20.010	100.365	20.016	15.064	0.502
1051.000	587.210	80.004	20.009	100.363	20.019	14.290	0.471
1051.500	587.425	80.005	20.009	100.363	20.019	14.082	0.454
1052.000	587.739	80.004	20.009	100.364	20.019	14.270	0.485
1052.500	587.962	80.004	20.009	100.367	20.020	13.822	0.533
1053.000	588.188	80.004	20.009	100.374	20.019	14.128	0.493
1053.501	588.432	80.004	20.009	100.374	20.017	14.844	0.459
1054.001	588.707	80.004	20.009	100.373	20.018	14.623	0.495
1054.501	588.951	80.004	20.009	100.373	20.016	15.220	0.519
1055.001	589.170	80.004	20.009	100.372	20.014	15.700	0.491
1055.500	589.447	80.004	20.009	100.374	20.015	15.401	0.479
1056.000	589.702	80.004	20.008	100.377	20.016	15.232	0.514
1056.500	589.934	80.004	20.009	100.377	20.014	15.824	0.509
1057.000	590.210	80.005	20.009	100.372	20.016	15.057	0.497
1057.500	590.472	80.005	20.009	100.369	20.014	15.696	0.523
1058.001	590.719	80.005	20.009	100.367	20.016	15.006	0.524
1058.501	590.973	80.004	20.009	100.368	20.018	14.387	0.505
1059.000	591.197	80.004	20.008	100.368	20.018	14.503	0.490
1059.500	591.478	80.004	20.008	100.375	20.019	14.079	0.491
1060.000	591.719	80.004	20.009	100.379	20.016	15.022	0.513
1060.500	591.976	80.005	20.008	100.379	20.017	14.828	0.509
1061.000	592.284	80.004	20.009	100.371	20.017	14.810	0.531
1061.500	592.492	80.004	20.009	100.369	20.018	14.460	0.541
1062.000	592.746	80.004	20.008	100.368	20.018	14.628	0.490
1062.501	592.980	80.005	20.009	100.367	20.020	13.996	0.475
1063.001	593.228	80.004	20.008	100.366	20.018	14.548	0.485
1063.500	593.457	80.004	20.009	100.371	20.016	15.114	0.479
1064.000	593.696	80.006	20.008	100.372	20.015	15.426	0.472
1064.500	593.954	80.005	20.009	100.369	20.016	15.135	0.483
1065.000	594.226	80.004	20.009	100.369	20.015	15.292	0.513
1065.500	594.435	80.005	20.009	100.370	20.015	15.473	0.505
1066.000	594.716	80.003	20.009	100.373	20.016	15.206	0.485
1066.500	594.975	80.005	20.009	100.374	20.018	14.587	0.515
1067.000	595.182	80.004	20.008	100.375	20.014	15.620	0.503
1067.500	595.464	80.005	20.009	100.369	20.014	15.659	0.478
1068.000	595.714	80.003	20.009	100.362	20.014	15.778	0.511
1068.500	595.975	80.004	20.009	100.359	20.015	15.480	0.522
1069.001	596.233	80.005	20.009	100.359	20.014	15.656	0.515
1069.501	596.483	80.004	20.009	100.361	20.014	15.688	0.513
1070.000	596.696	80.004	20.009	100.367	20.015	15.342	0.485
1070.500	596.932	80.005	20.008	100.374	20.015	15.362	0.456
1071.000	597.148	80.005	20.009	100.370	20.014	15.830	0.450
1071.500	597.425	80.003	20.009	100.362	20.015	15.518	0.472
1072.000	597.681	80.004	20.010	100.355	20.017	14.752	0.513
1072.500	597.928	80.005	20.009	100.351	20.015	15.579	0.518
1073.000	598.195	80.004	20.009	100.351	20.015	15.579	0.509
1073.500	598.433	80.003	20.009	100.357	20.015	15.435	0.510
1074.000	598.758	80.005	20.008	100.367	20.015	15.324	0.534
1074.500	598.946	80.004	20.009	100.373	20.014	15.772	0.538
1075.001	599.239	80.004	20.009	100.370	20.013	16.209	0.497
1075.501	599.489	80.004	20.009	100.362	20.011	16.555	0.512
1076.001	599.737	80.005	20.009	100.356	20.010	16.927	0.521
1076.500	599.998	80.004	20.009	100.355	20.012	16.276	0.504
1077.000	600.257	80.004	20.009	100.357	20.013	15.957	0.515
1077.500	600.503	80.004	20.008	100.363	20.015	15.415	0.512
1078.000	600.742	80.003	20.009	100.368	20.014	15.753	0.495
1078.500	600.990	80.005	20.009	100.366	20.015	15.357	0.486
1079.000	601.262	80.005	20.009	100.359	20.014	15.808	0.504
1079.501	601.516	80.004	20.009	100.351	20.013	15.999	0.523
1080.001	601.742	80.006	20.009	100.346	20.013	16.215	0.503
1080.500	601.992	80.003	20.009	100.348	20.012	16.280	0.478
1081.000	602.247	80.005	20.008	100.356	20.013	16.064	0.491
1081.500	602.518	80.003	20.008	100.364	20.014	15.763	0.515
1082.000	602.774	80.005	20.008	100.369	20.014	15.710	0.526
1082.500	603.035	80.004	20.009	100.367	20.011	16.816	0.522
1083.000	603.305	80.004	20.009	100.361	20.013	16.087	0.524
1083.500	603.568	80.005	20.009	100.358	20.012	16.308	0.532
1084.001	603.774	80.005	20.009	100.359	20.012	16.430	0.501
1084.501	604.072	80.005	20.009	100.361	20.013	16.025	0.486
1085.001	604.299	80.004	20.008	100.370	20.013	15.933	0.514
1085.501	604.565	80.005	20.008	100.378	20.014	15.860	0.509
1086.000	604.788	80.005	20.009	100.377	20.015	15.490	0.491
1086.500	605.082	80.004	20.009	100.369	20.014	15.867	0.503
1087.000	605.354	80.005	20.009	100.365	20.015	15.334	0.541
1087.500	605.610	80.004	20.009	100.364	20.013	16.029	0.547
1088.000	605.849	80.004	20.008	100.370	20.015	15.548	0.512
1088.500	606.126	80.005	20.009	100.379	20.015	15.450	0.506
1089.000	606.368	80.005	20.008	100.386	20.014	15.599	0.517
1089.501	606.632	80.004	20.009	100.385	20.018	14.573	0.512
1090.001	606.883	80.005	20.010	100.378	20.017	14.841	0.510
1090.501	607.089	80.004	20.009	100.366	20.019	14.172	0.486
1091.000	607.324	80.004	20.009	100.363	20.015	15.552	0.449
1091.500	607.592	80.004	20.009	100.371	20.018	14.660	0.472
1092.000	607.832	80.004	20.008	100.385	20.018	14.582	0.505
1092.500	608.084	80.004	20.009	100.399	20.018	14.400	0.500
1093.000	608.380	80.005	20.009	100.407	20.019	14.179	0.521
1093.500	608.634	80.004	20.009	100.405	20.016	15.040	0.549
1094.001	608.881	80.005	20.009	100.397	20.017	14.697	0.525
1094.501	609.106	80.004	20.009	100.389	20.019	14.138	0.486
1095.000	609.340	80.004	20.009	100.382	20.017	14.736	0.466
1095.500	609.640	80.004	20.009	100.381	20.015	15.301	0.496
1096.000	609.892	80.005	20.008	100.381	20.015	15.521	0.542
1096.500	610.138	80.004	20.009	100.377	20.015	15.305	0.525
1097.000	610.401	80.005	20.009	100.369	20.015	15.442	0.504
1097.500	610.636	80.005	20.009	100.361	20.014	15.677	0.504
1098.000	610.915	80.004	20.009	100.353	20.013	15.950	0.506
1098.501	611.117	80.004	20.009	100.345	20.014	15.762	0.498
1099.001	611.392	80.004	20.009	100.347	20.016	15.020	0.479
1099.501	611.608	80.004	20.009	100.349	20.015	15.592	0.484
1100.001	611.868	80.005	20.009	100.349	20.013	15.951	0.483
1100.500	612.105	80.005	20.009	100.345	20.014	15.848	0.486
1101.000	612.409	80.005	20.009	100.344	20.015	15.309	0.519
1101.500	612.658	80.005	20.009	100.338	20.013	15.960	0.547
1102.000	612.871	80.005	20.009	100.338	20.015	15.576	0.508
1102.501	613.196	80.003	20.009	100.346	20.015	15.510	0.501
1103.001	613.402	80.005	20.009	100.358	20.014	15.711	0.534
1103.501	613.641	80.004	20.009	100.365	20.014	15.645	0.488
1104.001	613.909	80.005	20.009	100.369	20.013	16.009	0.476
1104.500	614.127	80.004	20.009	100.367	20.012	16.308	0.496
1105.000	614.427	80.004	20.009	100.364	20.013	15.911	0.502
1105.501	614.634	80.006	20.009	100.364	20.015	15.508	0.513
1106.001	614.954	80.003	20.009	100.368	20.016	15.129	0.517
1106.501	615.177	80.005	20.008	100.380	20.015	15.590	0.535
1107.001	615.429	80.004	20.009	100.392	20.011	16.715	0.509
1107.500	615.655	80.003	20.009	100.394	20.014	15.759	0.477
1108.000	615.940	80.006	20.009	100.393	20.012	16.494	0.494
1108.500	616.202	80.006	20.009	100.386	20.013	16.021	0.529
1109.000	616.474	80.004	20.009	100.378	20.013	16.126	0.541
1109.500	616.690	80.005	20.009	100.374	20.016	15.248	0.511
1110.000	617.001	80.005	20.009	100.374	20.016	15.065	0.507
1110.500	617.229	80.004	20.008	100.376	20.018	14.505	0.533
1111.000	617.493	80.004	20.009	100.379	20.016	14.986	0.516
1111.500	617.698	80.005	20.009	100.379	20.018	14.395	0.481
1112.000	617.958	80.004	20.009	100.377	20.016	15.137	0.467
1112.500	618.227	80.004	20.009	100.379	20.018	14.545	0.497
1113.001	618.490	80.003	20.009	100.384	20.016	15.066	0.531
1113.501	618.727	80.005	20.009	100.391	20.019	14.181	0.516
1114.000	618.955	80.004	20.009	100.399	20.020	14.044	0.482
1114.500	619.253	80.006	20.009	100.402	20.020	13.889	0.496
1115.000	619.445	80.003	20.009	100.401	20.018	14.592	0.508
1115.500	619.749	80.005	20.009	100.395	20.020	13.962	0.493
1116.000	619.963	80.004	20.009	100.388	20.016	15.083	0.507
1116.500	620.203	80.003	20.009	100.381	20.018	14.510	0.486
1117.000	620.522	80.004	20.009	100.378	20.016	15.180	0.506
1117.500	620.726	80.005	20.008	100.380	20.017	14.821	0.541
1118.000	620.971	80.004	20.009	100.380	20.016	15.054	0.486
1118.500	621.229	80.004	20.009	100.378	20.017	14.975	0.476
1119.000	621.507	80.004	20.009	100.369	20.018	14.658	0.520
1119.501	621.715	80.005	20.009	100.363	20.016	15.244	0.511
1120.001	621.953	80.004	20.009	100.361	20.015	15.460	0.466
1120.500	622.195	80.005	20.009	100.361	20.013	15.948	0.463
1121.001	622.428	80.003	20.009	100.364	20.013	15.992	0.478
1121.501	622.746	80.005	20.008	100.374	20.014	15.822	0.514
1122.001	622.993	80.004	20.009	100.381	20.015	15.548	0.558
1122.500	623.171	80.004	20.009	100.379	20.016	15.105	0.495
1123.000	623.416	80.004	20.009	100.375	20.016	15.137	0.425
1123.501	623.667	80.006	20.009	100.373	20.014	15.664	0.460
1124.001	623.929	80.003	20.009	100.371	20.015	15.572	0.504
1124.501	624.141	80.005	20.009	100.373	20.015	15.298	0.493
1125.001	624.423	80.004	20.009	100.377	20.016	15.283	0.484
1125.501	624.666	80.004	20.009	100.380	20.017	14.977	0.510
1126.001	624.947	80.004	20.009	100.381	20.015	15.576	0.525
1126.501	625.204	80.004	20.009	100.382	20.014	15.830	0.531
1127.001	625.441	80.003	20.009	100.380	20.012	16.261	0.516
1127.500	625.704	80.005	20.009	100.382	20.014	15.852	0.497
1128.001	625.931	80.005	20.009	100.390	20.012	16.300	0.495
1128.501	626.214	80.004	20.009	100.399	20.013	16.090	0.500
1129.001	626.432	80.004	20.009	100.406	20.012	16.272	0.505
1129.501	626.707	80.004	20.009	100.407	20.016	15.284	0.497
1130.000	626.950	80.003	20.009	100.402	20.014	15.701	0.506
1130.500	627.187	80.005	20.009	100.394	20.014	15.760	0.499
1131.000	627.458	80.004	20.009	100.387	20.013	16.035	0.494
1131.500	627.699	80.003	20.009	100.385	20.014	15.879	0.510
1132.000	627.913	80.005	20.009	100.392	20.013	16.094	0.483
1132.501	628.198	80.004	20.009	100.399	20.012	16.321	0.477
1133.001	628.444	80.004	20.009	100.406	20.012	16.426	0.515
1133.500	628.691	80.004	20.009	100.404	20.012	16.330	0.512
1134.000	628.936	80.005	20.009	100.399	20.011	16.540	0.493
1134.500	629.209	80.005	20.009	100.392	20.010	16.957	0.505
1135.001	629.466	80.004	20.009	100.385	20.009	17.367	0.524
1135.501	629.655	80.005	20.009	100.380	20.009	17.358	0.488
1136.001	629.891	80.005	20.009	100.380	20.011	16.713	0.436
1136.500	630.103	80.005	20.009	100.380	20.006	18.085	0.437
1137.000	630.352	80.003	20.009	100.374	20.006	18.242	0.455
1137.500	630.611	80.005	20.009	100.366	20.008	17.660	0.485
1138.000	630.872	80.004	20.009	100.357	20.006	18.286	0.514
1138.501	631.088	80.005	20.009	100.356	20.007	17.976	0.498
1139.001	631.341	80.005	20.009	100.356	20.008	17.545	0.473
1139.501	631.590	80.005	20.009	100.362	20.008	17.562	0.486
1140.001	631.823	80.004	20.009	100.370	20.009	17.384	0.492
1140.500	632.045	80.005	20.009	100.374	20.006	18.074	0.468
1141.000	632.296	80.005	20.009	100.368	20.007	17.794	0.464
1141.500	632.579	80.005	20.009	100.361	20.008	17.664	0.504
1142.000	632.789	80.004	20.009	100.360	20.008	17.663	0.514
1142.500	632.981	80.005	20.010	100.359	20.007	17.882	0.447
1143.000	633.269	80.004	20.008	100.364	20.010	16.989	0.441
1143.500	633.524	80.005	20.008	100.371	20.010	17.073	0.511
1144.001	633.760	80.005	20.009	100.379	20.010	16.898	0.517
1144.501	634.010	80.005	20.010	100.380	20.009	17.402	0.489
1145.000	634.249	80.004	20.009	100.380	20.012	16.436	0.488
1145.500	634.564	80.005	20.010	100.380	20.011	16.574	0.521
1146.000	634.796	80.005	20.009	100.386	20.012	16.333	0.551
1146.500	635.011	80.004	20.008	100.394	20.012	16.273	0.498
1147.000	635.271	80.005	20.009	100.403	20.012	16.219	0.461
1147.501	635.522	80.004	20.009	100.409	20.013	16.115	0.493
1148.001	635.721	80.005	20.009	100.408	20.015	15.504	0.480
1148.500	636.017	80.004	20.010	100.397	20.011	16.690	0.472
1149.000	636.228	80.006	20.009	100.387	20.012	16.300	0.501
1149.501	636.485	80.005	20.009	100.384	20.011	16.613	0.488
1150.001	636.777	80.004	20.009	100.393	20.013	16.098	0.508
1150.500	637.002	80.005	20.009	100.408	20.014	15.850	0.533
1151.000	637.278	80.004	20.010	100.420	20.012	16.390	0.509
1151.501	637.523	80.004	20.009	100.428	20.005	18.407	0.511
1152.001	637.749	80.005	20.009	100.422	20.009	17.255	0.497
1152.500	637.983	80.005	20.009	100.407	20.008	17.723	0.466
1153.000	638.237	80.005	20.009	100.395	20.009	17.390	0.473
1153.501	638.496	80.004	20.008	100.396	20.010	17.082	0.500
1154.001	638.773	80.004	20.009	100.396	20.008	17.672	0.525
1154.500	638.970	80.005	20.008	100.397	20.010	17.119	0.505
1155.000	639.289	80.004	20.009	100.391	20.009	17.146	0.495
1155.500	639.534	80.005	20.009	100.380	20.009	17.155	0.540
1156.000	639.788	80.004	20.009	100.367	20.008	17.579	0.532
1156.500	640.000	80.004	20.009	100.362	20.009	17.417	0.482
1157.001	640.235	80.004	20.009	100.370	20.009	17.286	0.456
1157.501	640.490	80.004	20.008	100.388	20.011	16.653	0.469
1158.000	640.755	80.005	20.009	100.404	20.010	16.828	0.505
1158.500	640.962	80.003	20.009	100.412	20.010	16.978	0.496
1159.000	641.261	80.005	20.009	100.412	20.010	17.000	0.489
1159.500	641.479	80.005	20.009	100.404	20.008	17.697	0.511
1160.001	641.756	80.003	20.009	100.395	20.011	16.669	0.506
1160.501	641.970	80.005	20.009	100.394	20.012	16.460	0.493
1161.001	642.241	80.004	20.009	100.399	20.013	16.173	0.488
1161.501	642.495	80.006	20.009	100.405	20.011	16.707	0.505
1162.000	642.774	80.005	20.009	100.413	20.010	16.962	0.529
1162.501	643.042	80.004	20.009	100.412	20.009	17.288	0.540
1163.001	643.303	80.004	20.009	100.405	20.008	17.730	0.538
1163.501	643.553	80.003	20.009	100.401	20.011	16.740	0.520
1164.000	643.781	80.004	20.009	100.401	20.011	16.652	0.495
1164.500	644.041	80.005	20.008	100.401	20.009	17.353	0.483
1165.000	644.276	80.005	20.009	100.402	20.012	16.428	0.491
1165.500	644.510	80.004	20.009	100.401	20.012	16.318	0.482
1166.001	644.787	80.005	20.009	100.393	20.010	17.047	0.490
1166.501	645.002	80.004	20.009	100.378	20.009	17.165	0.501
1167.000	645.244	80.004	20.009	100.367	20.011	16.787	0.474
1167.500	645.491	80.004	20.009	100.367	20.008	17.630	0.473
1168.000	645.741	80.004	20.009	100.374	20.008	17.570	0.493
1168.501	645.991	80.004	20.009	100.384	20.010	17.031	0.498
1169.001	646.288	80.005	20.009	100.396	20.010	17.000	0.523
1169.500	646.536	80.005	20.009	100.396	20.010	17.008	0.546
1170.000	646.729	80.005	20.009	100.389	20.010	17.043	0.494
1170.500	646.981	80.003	20.009	100.382	20.014	15.827	0.443
1171.000	647.241	80.005	20.009	100.378	20.014	15.898	0.479
1171.500	647.480	80.005	20.009	100.381	20.011	16.625	0.505
1172.000	647.746	80.003	20.009	100.392	20.014	15.735	0.502
1172.500	648.003	80.004	20.009	100.398	20.015	15.442	0.514
1173.000	648.231	80.005	20.009	100.398	20.014	15.776	0.504
1173.500	648.486	80.004	20.009	100.395	20.014	15.886	0.484
1174.000	648.721	80.005	20.010	100.388	20.015	15.400	0.486
1174.501	648.983	80.004	20.009	100.391	20.015	15.552	0.493
1175.001	649.260	80.004	20.009	100.400	20.013	15.967	0.518
1175.500	649.480	80.004	20.009	100.404	20.013	16.102	0.518
1176.001	649.754	80.005	20.009	100.404	20.010	16.838	0.495
1176.501	650.010	80.004	20.009	100.395	20.010	17.039	0.512
1177.000	650.259	80.004	20.009	100.377	20.010	16.997	0.517
1177.500	650.518	80.003	20.009	100.364	20.008	17.590	0.506
1178.000	650.767	80.004	20.009	100.358	20.006	18.163	0.508
1178.500	650.980	80.005	20.009	100.359	20.006	18.148	0.485
1179.001	651.197	80.004	20.009	100.367	20.005	18.374	0.446
1179.501	651.485	80.004	20.008	100.369	20.005	18.464	0.467
1180.000	651.734	80.005	20.009	100.363	20.006	18.182	0.521
1180.500	651.944	80.003	20.010	100.349	20.008	17.605	0.498
1181.000	652.246	80.005	20.009	100.342	20.004	18.725	0.486
1181.500	652.462	80.004	20.009	100.344	20.004	18.806	0.515
1182.000	652.714	80.003	20.008	100.357	20.006	18.202	0.493
1182.500	652.944	80.005	20.009	100.366	20.005	18.368	0.475
1183.000	653.195	80.004	20.009	100.381	20.004	18.952	0.482
1183.500	653.439	80.003	20.009	100.382	19.998	20.532	0.488
1184.000	653.736	80.005	20.009	100.378	20.000	20.062	0.518
1184.500	654.001	80.005	20.009	100.370	20.001	19.747	0.552
1185.000	654.290	80.004	20.009	100.373	20.000	20.124	0.558
1185.500	654.482	80.005	20.010	100.375	20.001	19.617	0.517
1186.000	654.755	80.003	20.007	100.388	20.003	19.203	0.473
1186.501	655.046	80.005	20.009	100.386	20.001	19.771	0.515
1187.001	655.217	80.005	20.010	100.356	20.001	19.636	0.513
1187.500	655.502	80.004	20.009	100.329	20.001	19.844	0.459
1188.000	655.760	80.004	20.009	100.319	20.002	19.434	0.500
1188.500	656.019	80.004	20.009	100.312	20.003	18.985	0.530
1189.000	656.275	80.005	20.008	100.322	20.006	18.133	0.516
1189.501	656.504	80.005	20.009	100.353	20.008	17.626	0.500
1190.001	656.782	80.005	20.009	100.376	20.007	17.978	0.496
1190.500	657.004	80.005	20.008	100.384	20.011	16.741	0.503
1191.000	657.266	80.004	20.009	100.385	20.009	17.363	0.492
1191.500	657.496	80.006	20.011	100.376	20.011	16.749	0.488
1192.000	657.763	80.004	20.009	100.399	20.012	16.514	0.495
1192.500	658.063	80.003	20.008	100.431	20.011	16.781	0.532
1193.000	658.295	80.005	20.008	100.454	20.009	17.198	0.550
1193.500	658.536	80.005	20.009	100.465	20.012	16.392	0.502
1194.001	658.741	80.005	20.009	100.469	20.010	17.011	0.459
1194.501	659.032	80.005	20.009	100.448	20.008	17.465	0.471
1195.000	659.201	80.005	20.009	100.423	20.011	16.671	0.479
1195.500	659.492	80.005	20.009	100.404	20.011	16.580	0.460
1196.000	659.743	80.005	20.009	100.393	20.010	16.840	0.500
1196.500	660.009	80.005	20.009	100.388	20.012	16.300	0.530
1197.001	660.212	80.005	20.009	100.380	20.013	15.982	0.493
1197.501	660.482	80.005	20.009	100.368	20.011	16.704	0.471
1198.001	660.741	80.005	20.009	100.366	20.010	16.858	0.501
1198.500	661.025	80.004	20.009	100.369	20.011	16.818	0.536
1199.000	661.258	80.004	20.009	100.379	20.012	16.317	0.530
1199.500	661.477	80.004	20.008	100.393	20.013	16.115	0.484
1200.000	661.728	80.005	20.009	100.398	20.007	17.924	0.461
1200.501	661.976	80.005	20.009	100.397	20.010	17.022	0.484
1201.001	662.226	80.004	20.009	100.395	20.009	17.165	0.498
1201.501	662.459	80.006	20.009	100.397	20.010	17.030	0.491
1202.000	662.744	80.004	20.008	100.397	20.010	16.913	0.501
1202.500	662.961	80.005	20.008	100.403	20.009	17.180	0.510
1203.000	663.268	80.004	20.009	100.404	20.010	17.071	0.513
1203.500	663.542	80.005	20.008	100.399	20.010	16.949	0.552
1204.000	663.781	80.005	20.009	100.384	20.007	18.035	0.547
1204.500	664.040	80.006	20.009	100.372	20.005	18.393	0.506
1205.001	664.287	80.004	20.009	100.366	20.007	18.001	0.502
1205.501	664.554	80.005	20.009	100.366	20.005	18.364	0.510
1206.000	664.848	80.004	20.008	100.371	20.008	17.602	0.537
1206.501	665.136	80.004	20.008	100.377	20.007	17.921	0.572
1207.001	665.364	80.006	20.008	100.381	20.005	18.409	0.550
1207.500	665.587	80.005	20.009	100.374	20.008	17.531	0.484
1208.000	665.859	80.005	20.009	100.371	20.009	17.237	0.473
1208.500	666.087	80.005	20.009	100.370	20.009	17.133	0.497
1209.000	666.352	80.004	20.008	100.370	20.008	17.725	0.496
1209.500	666.642	80.005	20.009	100.370	20.006	18.284	0.524
1210.000	666.868	80.006	20.009	100.377	20.004	18.811	0.536
1210.500	667.146	80.005	20.009	100.372	20.004	18.910	0.510
1211.000	667.434	80.005	20.009	100.364	20.005	18.389	0.535
1211.500	667.683	80.005	20.009	100.356	20.005	18.493	0.552
1212.001	667.948	80.005	20.009	100.353	20.006	18.175	0.525
1212.501	668.161	80.004	20.009	100.352	20.007	17.888	0.496
1213.001	668.407	80.004	20.009	100.360	20.005	18.526	0.469
1213.500	668.661	80.005	20.009	100.368	20.003	19.275	0.480
1214.000	668.899	80.004	20.009	100.372	20.001	19.633	0.496
1214.500	669.131	80.005	20.009	100.376	20.005	18.567	0.481
1215.000	669.392	80.006	20.009	100.378	20.002	19.525	0.481
1215.500	669.685	80.005	20.009	100.383	20.003	19.188	0.523
1216.000	669.895	80.005	20.008	100.391	20.003	19.189	0.529
1216.500	670.146	80.004	20.009	100.398	20.004	18.781	0.482
1217.000	670.402	80.005	20.009	100.398	20.005	18.671	0.484
1217.500	670.684	80.005	20.009	100.397	20.007	17.792	0.522
1218.000	670.914	80.005	20.009	100.389	20.006	18.248	0.526
1218.501	671.148	80.004	20.009	100.382	20.006	18.130	0.488
1219.001	671.467	80.007	20.009	100.378	20.007	17.921	0.508
1219.500	671.665	80.005	20.008	100.377	20.005	18.423	0.535
1220.000	671.860	80.005	20.009	100.376	20.004	18.691	0.455
1220.500	672.131	80.005	20.009	100.378	20.005	18.425	0.430
1221.000	672.396	80.005	20.009	100.372	20.005	18.542	0.502
1221.500	672.601	80.005	20.009	100.371	20.008	17.486	0.503
1222.000	672.915	80.004	20.009	100.371	20.007	17.908	0.494
1222.500	673.190	80.005	20.009	100.372	20.009	17.445	0.554
1223.000	673.429	80.006	20.008	100.372	20.006	18.141	0.551
1223.500	673.687	80.005	20.009	100.377	20.008	17.692	0.505
1224.001	673.953	80.004	20.009	100.378	20.005	18.416	0.510
1224.501	674.199	80.005	20.009	100.378	20.006	18.174	0.518
1225.000	674.455	80.007	20.009	100.377	20.005	18.537	0.508
1225.500	674.691	80.005	20.009	100.378	20.006	18.223	0.497
1226.000	674.940	80.005	20.008	100.378	20.008	17.696	0.489
1226.500	675.184	80.004	20.009	100.381	20.008	17.539	0.489
1227.001	675.449	80.005	20.009	100.384	20.008	17.519	0.501
1227.501	675.730	80.004	20.009	100.390	20.009	17.252	0.527
1228.001	675.952	80.006	20.009	100.396	20.010	16.977	0.525
1228.500	676.216	80.005	20.009	100.402	20.011	16.643	0.495
1229.000	676.432	80.006	20.009	100.408	20.010	17.014	0.483
1229.501	676.696	80.005	20.009	100.419	20.012	16.501	0.480
1230.001	676.903	80.004	20.008	100.421	20.012	16.268	0.475
1230.501	677.185	80.004	20.009	100.422	20.015	15.306	0.480
1231.001	677.438	80.005	20.009	100.423	20.014	15.613	0.512
1231.501	677.659	80.004	20.009	100.421	20.015	15.346	0.504
1232.001	677.947	80.004	20.009	100.415	20.015	15.313	0.491
1232.500	678.202	80.006	20.008	100.421	20.017	14.909	0.526
1233.000	678.513	80.006	20.009	100.428	20.017	14.870	0.555
1233.501	678.753	80.004	20.009	100.429	20.016	15.208	0.558
1234.001	678.962	80.006	20.009	100.430	20.012	16.229	0.500
1234.500	679.253	80.005	20.009	100.422	20.012	16.489	0.474
1235.000	679.502	80.005	20.009	100.412	20.012	16.384	0.520
1235.500	679.750	80.003	20.009	100.406	20.010	16.839	0.519
1236.000	679.961	80.006	20.009	100.408	20.010	16.924	0.478
1236.500	680.253	80.005	20.008	100.409	20.008	17.464	0.481
1237.000	680.488	80.004	20.009	100.415	20.008	17.471	0.515
1237.500	680.725	80.006	20.008	100.410	20.007	17.915	0.500
1238.000	680.964	80.005	20.010	100.402	20.004	18.682	0.475
1238.500	681.270	80.004	20.009	100.394	20.004	18.825	0.510
1239.000	681.488	80.004	20.009	100.392	20.004	18.917	0.534
1239.500	681.711	80.005	20.008	100.388	20.004	18.828	0.482
1240.001	681.952	80.005	20.009	100.388	20.006	18.165	0.453
1240.501	682.259	80.006	20.009	100.384	20.003	18.993	0.506
1241.000	682.474	80.004	20.009	100.374	20.002	19.332	0.535
1241.500	682.745	80.005	20.009	100.362	20.004	18.856	0.504
1242.000	683.024	80.005	20.009	100.360	20.007	17.826	0.518
1242.500	683.217	80.004	20.009	100.363	20.004	18.847	0.511
1243.000	683.483	80.005	20.009	100.370	20.003	19.075	0.466
1243.500	683.743	80.006	20.009	100.378	20.004	18.874	0.493
1244.000	684.000	80.003	20.009	100.383	20.003	19.135	0.521
1244.500	684.248	80.004	20.009	100.383	20.003	19.128	0.511
1245.000	684.542	80.005	20.009	100.379	20.004	18.958	0.524
1245.500	684.707	80.005	20.009	100.377	20.003	19.205	0.501
1246.000	685.022	80.004	20.009	100.375	20.003	19.225	0.469
1246.500	685.301	80.004	20.009	100.376	20.001	19.721	0.537
1247.000	685.494	80.004	20.009	100.376	20.000	20.100	0.533
1247.500	685.771	80.005	20.009	100.371	20.001	19.756	0.471
1248.000	686.088	80.005	20.009	100.366	20.002	19.326	0.532
1248.500	686.321	80.005	20.009	100.366	20.005	18.504	0.572
1249.000	686.615	80.006	20.009	100.366	20.000	19.974	0.539
1249.500	686.806	80.004	20.009	100.367	20.003	19.271	0.506
1250.000	687.040	80.006	20.009	100.373	20.001	19.727	0.455
1250.500	687.315	80.005	20.008	100.378	20.000	20.178	0.467
1251.000	687.550	80.005	20.009	100.378	20.001	19.677	0.509
1251.500	687.811	80.005	20.009	100.379	20.002	19.593	0.503
1252.000	688.044	80.005	20.009	100.384	20.004	18.876	0.495
1252.500	688.278	80.004	20.009	100.391	20.001	19.603	0.481
1253.000	688.568	80.005	20.008	100.399	20.002	19.337	0.496
1253.500	688.791	80.005	20.009	100.405	20.001	19.689	0.519
1254.000	689.057	80.005	20.009	100.407	20.002	19.552	0.500
1254.500	689.334	80.005	20.009	100.401	20.002	19.500	0.516
1255.001	689.514	80.005	20.009	100.394	20.003	19.083	0.500
1255.501	689.834	80.005	20.009	100.392	20.000	19.914	0.478
1256.001	690.134	80.006	20.009	100.393	20.003	19.242	0.560
1256.501	690.326	80.005	20.008	100.396	20.002	19.406	0.557
1257.001	690.622	80.006	20.009	100.398	20.002	19.498	0.490
1257.501	690.859	80.005	20.009	100.398	20.005	18.634	0.510
1258.000	691.124	80.005	20.009	100.393	20.005	18.478	0.517
1258.500	691.395	80.006	20.009	100.391	20.005	18.524	0.519
1259.001	691.594	80.004	20.009	100.394	20.005	18.477	0.503
1259.501	691.844	80.006	20.008	100.400	20.007	17.780	0.459
1260.000	692.142	80.005	20.009	100.408	20.005	18.587	0.499
1260.500	692.412	80.006	20.009	100.413	20.006	18.088	0.558
1261.000	692.678	80.005	20.009	100.410	20.008	17.602	0.552
1261.500	692.874	80.005	20.009	100.402	20.006	18.097	0.499
1262.000	693.102	80.006	20.009	100.397	20.006	18.364	0.443
1262.500	693.366	80.005	20.008	100.398	20.004	18.819	0.458
1263.000	693.604	80.004	20.009	100.401	20.004	18.936	0.497
1263.500	693.909	80.005	20.009	100.407	20.005	18.624	0.522
1264.000	694.118	80.005	20.009	100.410	20.004	18.845	0.528
1264.500	694.394	80.005	20.009	100.412	20.006	18.083	0.499
1265.000	694.620	80.005	20.009	100.405	20.004	18.875	0.494
1265.501	694.902	80.004	20.009	100.399	20.005	18.503	0.506
1266.001	695.100	80.004	20.009	100.399	20.003	19.178	0.494
1266.501	695.387	80.005	20.009	100.405	20.001	19.634	0.482
1267.001	695.611	80.005	20.009	100.403	20.002	19.289	0.498
1267.501	695.853	80.003	20.009	100.403	20.003	19.042	0.488
1268.000	696.123	80.005	20.008	100.399	20.003	18.983	0.489
1268.500	696.378	80.005	20.009	100.390	20.005	18.546	0.519
1269.000	696.625	80.005	20.009	100.382	20.002	19.449	0.513
1269.500	696.897	80.004	20.009	100.385	20.005	18.448	0.510
1270.000	697.137	80.005	20.008	100.393	20.005	18.378	0.515
1270.500	697.385	80.004	20.009	100.400	20.004	18.953	0.500
1271.000	697.605	80.005	20.009	100.402	20.003	18.993	0.479
1271.501	697.857	80.004	20.009	100.401	20.002	19.436	0.470
1272.001	698.154	80.005	20.009	100.394	20.001	19.651	0.510
1272.500	698.387	80.005	20.009	100.392	20.004	18.857	0.539
1273.000	698.646	80.004	20.008	100.394	20.003	19.008	0.511
1273.500	698.920	80.005	20.009	100.403	20.001	19.861	0.513
1274.001	699.180	80.003	20.009	100.411	20.002	19.581	0.533
1274.501	699.454	80.006	20.009	100.416	20.004	18.869	0.534
1275.000	699.710	80.005	20.010	100.416	20.004	18.756	0.532
1275.500	699.958	80.005	20.010	100.414	20.006	18.199	0.517
1276.000	700.190	80.004	20.009	100.413	20.007	17.800	0.492
1276.501	700.443	80.005	20.009	100.414	20.005	18.594	0.483
1277.001	700.687	80.004	20.009	100.416	20.003	18.984	0.491
1277.500	700.933	80.004	20.009	100.409	20.004	18.724	0.493
1278.001	701.210	80.005	20.009	100.401	20.003	19.251	0.506
1278.501	701.401	80.003	20.009	100.393	20.003	19.250	0.495
1279.001	701.665	80.004	20.010	100.387	20.005	18.658	0.461
1279.501	701.964	80.005	20.009	100.388	20.000	19.998	0.509
1280.000	702.214	80.004	20.009	100.390	20.000	19.967	0.556
1280.500	702.473	80.005	20.009	100.391	20.000	20.020	0.529
1281.001	702.683	80.004	20.010	100.384	20.000	20.003	0.489
1281.501	702.932	80.005	20.009	100.381	20.003	19.151	0.464
1282.000	703.148	80.005	20.009	100.377	20.004	18.969	0.462
1282.500	703.439	80.005	20.010	100.380	20.002	19.432	0.486
1283.001	703.681	80.004	20.009	100.387	20.004	18.958	0.520
1283.501	703.958	80.005	20.009	100.400	20.003	19.063	0.526
1284.001	704.210	80.005	20.009	100.404	20.006	18.114	0.524
1284.500	704.468	80.005	20.009	100.406	20.004	18.706	0.519
1285.000	704.696	80.005	20.010	100.410	20.003	19.056	0.498
1285.501	705.015	80.005	20.009	100.411	20.003	19.003	0.517
1286.001	705.225	80.004	20.009	100.414	20.006	18.164	0.538
1286.501	705.457	80.005	20.009	100.420	20.002	19.558	0.486
1287.000	705.690	80.005	20.009	100.415	20.003	19.052	0.454
1287.500	705.951	80.004	20.009	100.405	20.001	19.613	0.479
1288.000	706.166	80.004	20.009	100.388	19.999	20.470	0.485
1288.500	706.401	80.005	20.010	100.370	20.002	19.467	0.463
1289.000	706.721	80.004	20.009	100.358	20.002	19.407	0.503
1289.500	706.918	80.005	20.009	100.356	20.002	19.477	0.536
1290.000	707.206	80.004	20.009	100.358	19.999	20.375	0.501
1290.500	707.453	80.004	20.009	100.360	19.999	20.427	0.510
1291.000	707.674	80.005	20.009	100.361	20.001	19.860	0.502
1291.501	707.994	80.004	20.009	100.356	20.001	19.670	0.505
1292.001	708.295	80.005	20.009	100.356	19.999	20.508	0.581
1292.500	708.487	80.004	20.009	100.356	20.000	19.903	0.556
1293.000	708.745	80.005	20.009	100.362	20.000	20.033	0.471
1293.500	708.934	80.005	20.009	100.370	19.999	20.404	0.449
1294.001	709.215	80.004	20.009	100.379	19.998	20.633	0.459
1294.501	709.464	80.004	20.009	100.379	20.002	19.474	0.500
1295.001	709.730	80.005	20.009	100.379	20.001	19.628	0.522
1295.501	709.979	80.004	20.009	100.386	20.005	18.483	0.514
1296.000	710.246	80.004	20.009	100.394	20.004	18.906	0.515
1296.500	710.441	80.005	20.009	100.399	20.007	17.939	0.489
1297.000	710.694	80.004	20.009	100.401	20.006	18.325	0.455
1297.501	710.928	80.005	20.009	100.401	20.009	17.247	0.468
1298.001	711.214	80.004	20.010	100.393	20.007	18.053	0.504
1298.500	711.426	80.005	20.009	100.391	20.004	18.818	0.509
1299.000	711.667	80.005	20.009	100.393	20.005	18.406	0.475
1299.500	711.964	80.005	20.009	100.401	20.006	18.255	0.496
1300.000	712.242	80.005	20.009	100.408	20.006	18.255	0.556
1300.500	712.463	80.004	20.009	100.413	20.003	19.101	0.537
1301.001	712.753	80.004	20.009	100.407	20.002	19.309	0.505
1301.501	712.954	80.005	20.009	100.399	20.004	18.737	0.501
1302.001	713.254	80.005	20.009	100.390	20.002	19.412	0.496
1302.501	713.499	80.004	20.009	100.383	20.004	18.956	0.523
1303.000	713.695	80.004	20.010	100.384	20.001	19.665	0.493
1303.500	714.032	80.004	20.009	100.384	20.000	20.005	0.487
1304.000	714.204	80.005	20.009	100.379	19.998	20.514	0.521
1304.500	714.423	80.005	20.009	100.371	20.001	19.624	0.450
1305.001	714.705	80.003	20.009	100.370	20.001	19.638	0.446
1305.501	714.950	80.004	20.009	100.365	20.001	19.848	0.514
1306.001	715.168	80.004	20.009	100.365	20.000	19.973	0.496
1306.500	715.425	80.004	20.009	100.369	19.999	20.326	0.469
1307.001	715.700	80.005	20.009	100.374	20.001	19.872	0.503
1307.501	715.942	80.004	20.010	100.367	20.001	19.802	0.524
1308.000	716.143	80.004	20.010	100.359	19.998	20.545	0.480
1308.500	716.391	80.004	20.009	100.357	19.997	21.013	0.446
1309.000	716.654	80.003	20.009	100.360	19.998	20.759	0.480
1309.501	716.870	80.005	20.009	100.369	19.998	20.746	0.495
1310.001	717.112	80.004	20.009	100.382	19.997	21.044	0.468
1310.500	717.410	80.005	20.009	100.390	19.997	20.848	0.499
1311.001	717.603	80.004	20.009	100.386	19.998	20.625	0.515
1311.501	717.880	80.003	20.009	100.375	19.998	20.736	0.480
1312.000	718.105	80.005	20.009	100.362	19.995	21.459	0.486
1312.500	718.354	80.004	20.009	100.352	19.994	21.772	0.488
1313.001	718.580	80.003	20.009	100.353	19.994	21.936	0.475
1313.501	718.800	80.004	20.010	100.355	19.998	20.800	0.460
1314.000	718.987	80.006	20.011	100.357	19.998	20.543	0.426
1314.500	719.225	80.005	20.009	100.356	19.998	20.599	0.416
1315.000	719.407	80.004	20.009	100.353	19.999	20.476	0.422
1315.501	719.662	80.004	20.009	100.348	19.997	20.870	0.429
1316.001	719.903	80.003	20.010	100.350	19.999	20.346	0.467
1316.500	720.134	80.005	20.009	100.356	19.995	21.473	0.484
1317.000	720.333	80.004	20.009	100.365	19.999	20.531	0.452
1317.500	720.560	80.005	20.009	100.373	19.995	21.534	0.428
1318.000	720.766	80.005	20.009	100.377	20.000	20.097	0.429
1318.500	721.031	80.006	20.009	100.384	19.998	20.620	0.452
1319.001	721.232	80.004	20.009	100.393	19.999	20.340	0.469
1319.501	721.449	80.004	20.009	100.402	19.996	21.225	0.442
1320.001	721.690	80.005	20.009	100.410	19.998	20.829	0.438
1320.500	721.915	80.005	20.010	100.418	19.999	20.472	0.462
1321.000	722.126	80.004	20.009	100.420	20.001	19.809	0.451
1321.500	722.403	80.004	20.009	100.420	19.997	20.918	0.462
1322.000	722.630	80.004	20.009	100.418	19.998	20.670	0.496
1322.500	722.854	80.004	20.009	100.418	19.999	20.370	0.478
1323.000	723.103	80.004	20.009	100.413	19.997	20.948	0.462
1323.501	723.352	80.004	20.009	100.406	19.999	20.320	0.485
1324.001	723.528	80.001	20.012	100.400	19.996	21.371	0.461
1324.501	723.793	80.006	20.004	100.435	19.996	21.253	0.433
1325.001	724.002	80.004	20.011	100.407	19.998	20.784	0.458
1325.500	724.226	80.005	20.010	100.376	19.998	20.566	0.454
1326.000	724.499	80.004	20.008	100.356	20.000	20.217	0.465
1326.500	724.716	80.006	20.010	100.336	19.999	20.411	0.493
1327.000	724.924	80.006	20.012	100.253	20.000	19.924	0.458
1327.500	725.178	80.004	20.008	100.303	20.000	20.187	0.444
1328.000	725.407	80.006	20.009	100.370	20.001	19.905	0.472
1328.500	725.686	80.003	20.009	100.420	20.003	19.170	0.495
1329.000	725.918	80.004	20.008	100.469	20.003	19.028	0.510
1329.500	726.153	80.005	20.008	100.530	20.002	19.536	0.489
1330.000	726.432	80.005	20.009	100.512	20.003	19.053	0.491
1330.500	726.654	80.005	20.009	100.481	20.002	19.359	0.508
1331.000	726.871	80.004	20.009	100.459	20.002	19.320	0.470
1331.500	727.141	80.004	20.009	100.441	20.002	19.373	0.463
1332.000	727.408	80.005	20.009	100.436	20.001	19.809	0.512
1332.501	727.626	80.004	20.008	100.436	20.000	19.959	0.511
1333.001	727.851	80.004	20.008	100.441	20.002	19.501	0.464
1333.500	728.077	80.007	20.010	100.414	20.002	19.578	0.447
1334.000	728.340	80.004	20.010	100.387	20.002	19.589	0.470
1334.500	728.555	80.004	20.008	100.371	20.003	19.256	0.483
1335.000	728.814	80.006	20.009	100.366	20.006	18.343	0.476
1335.500	729.042	80.005	20.009	100.362	20.003	19.090	0.481
1336.000	729.327	80.005	20.008	100.387	20.003	19.037	0.500
1336.500	729.542	80.006	20.011	100.402	20.004	18.724	0.506
1337.000	729.814	80.005	20.010	100.418	20.004	18.938	0.493
1337.501	730.049	80.004	20.008	100.448	20.005	18.392	0.497
1338.001	730.331	80.004	20.008	100.475	20.005	18.556	0.512
1338.501	730.598	80.005	20.009	100.492	20.009	17.262	0.532
1339.001	730.816	80.006	20.009	100.506	20.009	17.139	0.517
1339.500	731.107	80.004	20.009	100.499	20.007	17.997	0.497
1340.000	731.332	80.004	20.009	100.471	20.009	17.359	0.513
1340.500	731.583	80.005	20.009	100.453	20.009	17.333	0.496
1341.000	731.841	80.005	20.009	100.446	20.007	17.828	0.493
1341.500	732.061	80.004	20.008	100.447	20.006	18.355	0.493
1342.000	732.370	80.004	20.008	100.451	20.010	16.918	0.504
1342.500	732.550	80.005	20.009	100.454	20.009	17.301	0.509
1343.000	732.855	80.005	20.009	100.449	20.007	17.801	0.487
1343.501	733.078	80.004	20.008	100.448	20.005	18.542	0.506
1344.001	733.339	80.004	20.009	100.448	20.005	18.639	0.506
1344.501	733.618	80.004	20.008	100.451	20.006	18.236	0.512
1345.001	733.863	80.005	20.009	100.452	20.003	19.174	0.532
1345.501	734.125	80.004	20.009	100.452	20.003	19.063	0.515
1346.000	734.372	80.004	20.009	100.443	20.003	19.128	0.508
1346.500	734.629	80.006	20.009	100.434	20.001	19.595	0.506
1347.000	734.886	80.004	20.009	100.424	19.997	20.838	0.509
1347.500	735.213	80.006	20.009	100.417	19.998	20.657	0.550
1348.000	735.450	80.004	20.009	100.411	19.998	20.730	0.574
1348.500	735.685	80.005	20.009	100.403	19.996	21.218	0.518
1349.000	735.992	80.006	20.009	100.396	19.995	21.640	0.507
1349.500	736.262	80.003	20.009	100.391	19.995	21.521	0.560
1350.000	736.552	80.006	20.009	100.389	19.996	21.403	0.568
1350.501	736.764	80.004	20.009	100.391	19.995	21.669	0.531
1351.001	736.989	80.004	20.009	100.399	19.992	22.491	0.470
1351.500	737.289	80.004	20.009	100.407	19.993	22.232	0.481
1352.000	737.582	80.004	20.009	100.410	19.991	22.895	0.559
1352.500	737.863	80.005	20.009	100.405	19.989	23.442	0.584
1353.000	738.083	80.003	20.009	100.402	19.991	22.810	0.538
1353.500	738.363	80.006	20.009	100.402	19.992	22.544	0.500
1354.000	738.635	80.004	20.009	100.402	19.991	22.889	0.526
1354.500	738.920	80.004	20.009	100.406	19.993	22.213	0.554
1355.000	739.179	80.005	20.009	100.410	19.989	23.378	0.550
1355.500	739.440	80.005	20.009	100.405	19.988	23.637	0.532
1356.000	739.753	80.005	20.009	100.397	19.988	23.654	0.547
1356.500	740.006	80.005	20.009	100.392	19.987	24.024	0.570
1357.000	740.250	80.004	20.009	100.390	19.990	23.056	0.532
1357.500	740.505	80.004	20.009	100.394	19.990	23.032	0.497
1358.000	740.764	80.005	20.009	100.397	19.990	23.274	0.506
1358.500	741.056	80.004	20.009	100.396	19.990	23.007	0.533
1359.001	741.288	80.003	20.009	100.394	19.986	24.223	0.538
1359.501	741.574	80.006	20.009	100.391	19.989	23.577	0.521
1360.001	741.853	80.005	20.009	100.392	19.990	23.159	0.541
1360.501	742.128	80.005	20.009	100.397	19.989	23.302	0.559
