Sample Weight (mg):	2.99
Heating Rate (C/s):	0.5
Combustor Temp (C):	900
N2 Flow Rate (cc/min):	80
O2 Flow Rate (cc/min):	20
Time (s)	Temperature (C)	N2 flow rate (cc/min)	O2 flow rate (cc/min)	Flow Rate (cc/min)	Oxygen (%)	HRR (W/g)	Heating rate (C/s)
-0.001	90.283	79.998	20.008	99.985	20.233	0.042	-0.020
0.500	90.257	79.998	20.008	99.984	20.232	0.184	-0.031
1.000	90.207	79.999	20.008	99.981	20.227	0.634	-0.062
1.500	90.147	79.999	20.008	99.980	20.227	0.634	-0.093
2.000	90.078	80.005	20.011	99.979	20.223	1.103	-0.120
2.500	90.063	80.000	20.008	99.982	20.219	1.553	-0.106
3.000	90.056	80.000	20.008	99.992	20.217	1.680	-0.053
3.500	89.972	80.002	20.007	100.012	20.213	2.112	-0.057
4.000	89.947	80.002	20.008	100.040	20.209	2.549	-0.100
4.500	89.855	80.001	20.007	100.079	20.206	2.853	-0.113
5.000	89.866	80.000	20.008	100.128	20.200	3.511	-0.099
5.500	89.807	80.001	20.008	100.183	20.194	4.142	-0.065
6.000	89.789	80.001	20.008	100.236	20.193	4.282	-0.063
6.500	89.803	80.002	20.008	100.292	20.187	4.865	-0.041
7.000	89.689	80.003	20.008	100.344	20.181	5.504	-0.052
7.500	89.657	80.001	20.008	100.391	20.180	5.564	-0.122
8.000	89.669	80.001	20.008	100.430	20.176	5.982	-0.083
8.500	89.633	80.001	20.008	100.459	20.175	6.138	-0.022
9.000	89.561	80.001	20.008	100.470	20.172	6.461	-0.066
9.500	89.574	80.003	20.008	100.474	20.171	6.539	-0.083
10.000	89.506	80.001	20.008	100.469	20.172	6.444	-0.057
10.500	89.515	80.002	20.008	100.466	20.168	6.846	-0.057
11.000	89.443	80.000	20.008	100.468	20.163	7.394	-0.061
11.500	89.423	80.002	20.007	100.474	20.159	7.802	-0.077
12.000	89.397	80.002	20.008	100.481	20.159	7.790	-0.069
12.500	89.338	80.001	20.008	100.489	20.156	8.105	-0.066
13.000	89.293	80.001	20.008	100.490	20.154	8.371	-0.095
13.500	89.260	80.001	20.008	100.486	20.153	8.504	-0.091
14.000	89.297	80.002	20.008	100.478	20.151	8.621	-0.037
14.500	89.228	80.002	20.008	100.477	20.151	8.628	-0.014
15.000	89.126	80.001	20.008	100.481	20.150	8.750	-0.102
15.500	89.187	80.002	20.008	100.490	20.148	8.975	-0.105
16.000	89.147	80.002	20.007	100.508	20.144	9.371	-0.010
16.500	89.132	80.000	20.008	100.524	20.145	9.267	-0.018
17.000	89.133	80.002	20.008	100.534	20.142	9.635	-0.035
17.500	89.075	80.002	20.008	100.533	20.143	9.518	-0.036
18.000	89.100	80.001	20.008	100.524	20.143	9.495	-0.045
18.500	89.048	80.001	20.008	100.515	20.141	9.686	-0.030
19.000	89.076	80.001	20.008	100.513	20.139	9.945	-0.025
19.500	89.044	80.001	20.008	100.512	20.138	10.082	-0.014
20.000	89.092	80.000	20.007	100.523	20.136	10.230	0.006
20.500	89.055	80.002	20.008	100.539	20.136	10.194	0.013
21.000	89.030	80.002	20.008	100.556	20.133	10.587	-0.026
21.500	89.010	80.001	20.008	100.571	20.132	10.666	-0.054
22.000	89.021	80.002	20.008	100.584	20.130	10.910	-0.027
22.500	89.069	80.001	20.008	100.590	20.130	10.841	0.025
23.000	89.007	80.002	20.008	100.596	20.131	10.820	0.023
23.500	89.039	80.001	20.008	100.600	20.133	10.542	-0.022
24.000	89.052	80.002	20.008	100.602	20.131	10.747	0.007
24.500	89.058	80.001	20.008	100.607	20.129	10.939	0.032
25.000	89.053	80.001	20.007	100.617	20.129	11.010	0.010
25.500	89.083	80.001	20.008	100.619	20.130	10.897	0.013
26.000	89.106	80.002	20.008	100.617	20.131	10.753	0.039
26.500	89.126	80.001	20.008	100.616	20.129	10.985	0.048
27.000	89.119	80.001	20.008	100.614	20.130	10.870	0.028
27.500	89.101	80.001	20.008	100.609	20.130	10.899	-0.006
28.000	89.118	80.001	20.008	100.617	20.128	11.059	-0.013
28.500	89.176	80.002	20.008	100.628	20.130	10.879	0.037
29.000	89.176	80.001	20.008	100.635	20.127	11.150	0.067
29.500	89.176	80.001	20.008	100.635	20.129	10.936	0.029
30.000	89.223	80.000	20.008	100.630	20.128	11.044	0.024
30.500	89.257	80.002	20.008	100.621	20.125	11.392	0.064
31.000	89.290	80.001	20.008	100.612	20.125	11.434	0.074
31.500	89.250	80.002	20.008	100.612	20.124	11.498	0.030
32.000	89.350	80.001	20.008	100.624	20.123	11.610	0.026
32.499	89.418	80.001	20.008	100.642	20.121	11.779	0.114
32.999	89.450	80.001	20.007	100.659	20.120	11.969	0.134
33.499	89.466	80.001	20.008	100.675	20.119	12.013	0.073
33.999	89.524	80.000	20.008	100.682	20.119	12.017	0.061
34.499	89.567	80.002	20.008	100.685	20.118	12.182	0.088
34.999	89.588	80.001	20.008	100.684	20.117	12.249	0.083
35.499	89.670	80.002	20.008	100.690	20.117	12.241	0.083
35.999	89.722	80.000	20.008	100.699	20.114	12.605	0.119
36.499	89.782	80.001	20.008	100.709	20.115	12.485	0.123
36.999	89.862	80.001	20.008	100.722	20.113	12.717	0.126
37.499	89.916	80.003	20.008	100.732	20.113	12.642	0.137
37.999	89.944	80.000	20.008	100.733	20.114	12.515	0.108
38.499	90.026	80.001	20.008	100.732	20.113	12.696	0.096
38.999	90.082	80.001	20.008	100.731	20.110	12.935	0.124
39.499	90.201	80.001	20.008	100.725	20.112	12.756	0.156
39.999	90.243	80.001	20.008	100.725	20.107	13.282	0.168
40.499	90.340	80.000	20.008	100.726	20.108	13.166	0.150
40.999	90.406	80.002	20.008	100.727	20.107	13.278	0.151
41.499	90.497	80.002	20.008	100.727	20.108	13.230	0.160
41.999	90.611	80.002	20.008	100.728	20.107	13.268	0.181
42.499	90.643	80.001	20.008	100.726	20.108	13.149	0.175
42.999	90.727	80.002	20.008	100.718	20.109	13.099	0.130
43.499	90.863	80.001	20.009	100.710	20.107	13.278	0.168
43.999	90.905	80.001	20.009	100.704	20.110	13.027	0.199
44.499	90.995	80.002	20.008	100.706	20.107	13.270	0.155
44.999	91.114	80.001	20.008	100.715	20.108	13.227	0.171
45.500	91.201	80.000	20.009	100.730	20.107	13.271	0.208
46.000	91.292	80.000	20.008	100.746	20.107	13.343	0.192
46.500	91.382	80.002	20.008	100.755	20.108	13.204	0.179
47.000	91.540	80.001	20.008	100.753	20.107	13.296	0.214
47.499	91.603	80.002	20.008	100.740	20.107	13.317	0.235
47.999	91.716	80.000	20.008	100.725	20.107	13.327	0.199
48.500	91.817	80.002	20.008	100.714	20.107	13.264	0.195
49.001	91.907	80.001	20.008	100.711	20.107	13.247	0.202
49.500	92.016	80.000	20.008	100.713	20.106	13.443	0.195
49.999	92.147	80.002	20.008	100.718	20.106	13.446	0.220
50.499	92.250	80.000	20.008	100.726	20.106	13.371	0.237
51.000	92.369	80.002	20.008	100.721	20.108	13.195	0.228
51.500	92.527	80.002	20.008	100.712	20.107	13.298	0.250
51.999	92.638	80.003	20.008	100.704	20.110	13.000	0.273
52.500	92.785	80.001	20.008	100.696	20.109	13.051	0.263
53.001	92.875	80.000	20.008	100.696	20.110	12.952	0.248
53.500	93.022	80.002	20.007	100.705	20.113	12.692	0.237
53.999	93.187	80.002	20.008	100.714	20.111	12.858	0.275
54.499	93.289	80.000	20.008	100.720	20.112	12.823	0.290
55.000	93.410	80.002	20.008	100.720	20.108	13.156	0.244
55.500	93.515	80.003	20.008	100.713	20.108	13.153	0.224
55.999	93.637	80.001	20.008	100.703	20.110	12.983	0.227
56.499	93.795	80.001	20.008	100.695	20.109	13.116	0.253
56.999	93.897	80.002	20.008	100.695	20.109	13.114	0.270
57.500	94.050	80.000	20.008	100.703	20.109	13.071	0.258
58.000	94.225	80.001	20.008	100.712	20.111	12.832	0.291
58.499	94.367	80.001	20.008	100.728	20.111	12.932	0.323
58.999	94.509	80.001	20.008	100.738	20.108	13.178	0.301
59.499	94.633	80.001	20.008	100.740	20.113	12.688	0.275
59.999	94.845	80.002	20.008	100.733	20.111	12.862	0.301
60.500	94.982	80.001	20.008	100.724	20.111	12.854	0.342
61.000	95.141	80.000	20.008	100.715	20.112	12.780	0.322
61.499	95.269	80.002	20.007	100.713	20.111	12.912	0.291
61.999	95.449	80.000	20.008	100.713	20.112	12.791	0.297
62.499	95.529	80.001	20.008	100.722	20.111	12.873	0.284
62.999	95.742	80.001	20.008	100.728	20.113	12.718	0.277
63.499	95.869	80.002	20.008	100.730	20.113	12.697	0.316
63.999	95.997	80.001	20.008	100.723	20.110	13.011	0.297
64.499	96.138	80.002	20.008	100.716	20.113	12.677	0.262
64.999	96.301	80.001	20.008	100.710	20.112	12.725	0.287
65.499	96.507	80.000	20.008	100.712	20.109	13.059	0.337
65.999	96.651	80.002	20.008	100.719	20.110	13.025	0.359
66.500	96.834	80.001	20.008	100.734	20.112	12.769	0.338
67.001	96.993	80.001	20.008	100.747	20.110	13.019	0.335
67.500	97.149	80.000	20.008	100.751	20.109	13.068	0.328
67.999	97.363	80.001	20.008	100.749	20.110	12.947	0.342
68.499	97.517	80.001	20.008	100.743	20.111	12.909	0.369
68.999	97.706	80.000	20.008	100.734	20.111	12.891	0.356
69.499	97.896	80.003	20.008	100.728	20.110	12.989	0.362
69.999	98.101	80.002	20.008	100.734	20.111	12.860	0.387
70.499	98.248	80.001	20.008	100.741	20.111	12.846	0.373
70.999	98.386	80.001	20.008	100.749	20.112	12.814	0.319
71.499	98.557	80.003	20.008	100.750	20.111	12.847	0.297
71.999	98.763	80.001	20.008	100.750	20.109	13.055	0.342
72.500	98.964	80.002	20.008	100.738	20.109	13.125	0.392
73.000	99.133	80.001	20.008	100.727	20.111	12.924	0.389
73.499	99.351	80.001	20.008	100.719	20.109	13.089	0.379
73.999	99.534	80.001	20.008	100.724	20.110	12.967	0.394
74.499	99.742	80.000	20.008	100.732	20.110	12.980	0.396
74.999	99.931	80.003	20.008	100.748	20.109	13.124	0.394
75.499	100.126	80.002	20.008	100.760	20.109	13.056	0.390
75.999	100.310	80.001	20.008	100.764	20.107	13.264	0.382
76.499	100.515	80.002	20.008	100.758	20.110	12.952	0.384
76.999	100.722	80.001	20.009	100.748	20.110	13.028	0.400
77.499	100.900	80.002	20.008	100.738	20.111	12.925	0.398
77.999	101.113	80.002	20.008	100.732	20.110	12.940	0.388
78.499	101.353	80.003	20.008	100.737	20.108	13.147	0.422
78.999	101.571	80.000	20.008	100.753	20.110	13.028	0.455
79.499	101.746	80.002	20.008	100.764	20.109	13.065	0.426
79.999	101.969	80.002	20.008	100.772	20.110	13.021	0.396
80.499	102.124	80.001	20.008	100.774	20.106	13.366	0.388
81.000	102.359	80.002	20.008	100.765	20.108	13.156	0.384
81.500	102.582	80.001	20.009	100.749	20.108	13.202	0.424
81.999	102.721	80.001	20.008	100.744	20.110	12.995	0.410
82.499	102.971	80.001	20.008	100.744	20.108	13.231	0.376
82.999	103.216	80.001	20.008	100.749	20.108	13.246	0.442
83.499	103.422	80.002	20.008	100.756	20.108	13.166	0.473
84.000	103.608	80.002	20.009	100.764	20.108	13.236	0.422
84.500	103.825	80.001	20.008	100.767	20.106	13.439	0.398
84.999	104.082	80.002	20.008	100.760	20.109	13.132	0.438
85.499	104.286	80.002	20.008	100.752	20.105	13.470	0.468
85.999	104.529	80.003	20.008	100.745	20.107	13.344	0.454
86.499	104.727	80.001	20.008	100.744	20.107	13.259	0.444
86.999	104.956	80.001	20.008	100.745	20.103	13.748	0.434
87.499	105.176	80.002	20.008	100.759	20.105	13.477	0.438
87.999	105.383	80.001	20.008	100.775	20.105	13.476	0.438
88.499	105.653	80.002	20.008	100.782	20.108	13.248	0.452
88.999	105.799	80.001	20.008	100.780	20.105	13.550	0.447
89.499	106.092	80.002	20.008	100.773	20.102	13.796	0.428
90.000	106.307	80.002	20.008	100.757	20.103	13.740	0.473
90.500	106.493	80.001	20.008	100.748	20.105	13.481	0.454
90.999	106.766	80.002	20.008	100.747	20.104	13.633	0.430
91.499	107.004	80.001	20.008	100.750	20.106	13.412	0.485
91.999	107.191	80.002	20.008	100.759	20.102	13.775	0.468
92.499	107.491	80.001	20.008	100.767	20.103	13.718	0.456
92.999	107.730	80.002	20.008	100.768	20.103	13.743	0.513
93.499	107.986	80.002	20.008	100.761	20.103	13.694	0.517
94.000	108.194	80.001	20.008	100.752	20.103	13.715	0.479
94.500	108.411	80.003	20.008	100.743	20.105	13.473	0.444
94.999	108.699	80.002	20.008	100.740	20.105	13.513	0.465
95.499	108.888	80.001	20.008	100.742	20.106	13.426	0.491
95.999	109.227	80.001	20.008	100.757	20.102	13.800	0.502
96.499	109.437	80.002	20.008	100.773	20.102	13.868	0.538
97.000	109.690	80.000	20.008	100.784	20.103	13.760	0.506
97.500	109.965	80.002	20.008	100.788	20.102	13.849	0.496
97.999	110.198	80.002	20.008	100.784	20.102	13.790	0.518
98.499	110.539	80.002	20.008	100.772	20.102	13.865	0.541
98.999	110.777	80.000	20.008	100.759	20.106	13.384	0.576
99.499	110.996	80.002	20.008	100.756	20.104	13.635	0.518
99.999	111.247	80.000	20.008	100.760	20.103	13.673	0.463
100.499	111.502	80.002	20.008	100.770	20.108	13.225	0.488
100.999	111.741	80.001	20.008	100.783	20.107	13.304	0.500
101.499	112.018	80.001	20.008	100.792	20.108	13.193	0.505
101.999	112.305	80.002	20.008	100.792	20.106	13.452	0.540
102.499	112.553	80.001	20.007	100.783	20.108	13.162	0.550
102.999	112.825	80.002	20.008	100.767	20.109	13.054	0.527
103.500	113.089	80.003	20.008	100.753	20.109	13.106	0.528
104.000	113.349	80.000	20.008	100.748	20.108	13.215	0.530
104.499	113.609	80.002	20.008	100.750	20.109	13.066	0.522
105.000	113.866	80.001	20.007	100.758	20.109	13.035	0.519
105.501	114.123	80.002	20.008	100.766	20.110	12.989	0.515
106.000	114.434	80.001	20.007	100.773	20.110	12.971	0.541
106.499	114.620	80.001	20.008	100.767	20.109	13.049	0.532
106.999	114.961	80.001	20.008	100.758	20.109	13.035	0.512
107.500	115.271	80.003	20.008	100.747	20.110	13.029	0.589
108.000	115.504	80.000	20.008	100.742	20.109	13.066	0.597
108.499	115.778	80.002	20.008	100.741	20.111	12.882	0.525
108.999	116.094	80.001	20.008	100.747	20.109	13.122	0.549
109.500	116.367	80.001	20.007	100.756	20.112	12.796	0.589
110.000	116.661	80.001	20.008	100.763	20.110	12.987	0.578
110.499	116.902	80.002	20.008	100.765	20.112	12.788	0.551
110.999	117.192	80.004	20.008	100.757	20.111	12.891	0.533
111.499	117.491	80.002	20.008	100.749	20.115	12.403	0.559
111.999	117.761	80.002	20.008	100.741	20.113	12.687	0.579
112.499	118.006	80.001	20.008	100.740	20.112	12.721	0.542
113.000	118.273	80.002	20.008	100.744	20.115	12.491	0.513
113.500	118.592	80.003	20.008	100.751	20.113	12.664	0.549
113.999	118.884	80.002	20.007	100.759	20.113	12.626	0.599
114.499	119.165	80.001	20.007	100.763	20.114	12.576	0.593
114.999	119.445	80.001	20.008	100.757	20.113	12.655	0.567
115.499	119.699	80.002	20.008	100.745	20.111	12.821	0.547
115.999	120.025	80.001	20.008	100.733	20.115	12.499	0.557
116.499	120.301	80.000	20.008	100.726	20.113	12.707	0.591
116.999	120.645	80.002	20.008	100.722	20.114	12.586	0.611
117.500	120.964	80.002	20.008	100.723	20.113	12.637	0.641
118.000	121.228	80.001	20.007	100.727	20.115	12.449	0.623
118.499	121.509	80.001	20.008	100.730	20.113	12.664	0.564
118.999	121.807	80.002	20.008	100.731	20.113	12.685	0.563
119.499	122.083	80.001	20.008	100.728	20.114	12.564	0.577
119.999	122.388	80.001	20.008	100.724	20.114	12.558	0.577
120.499	122.686	80.001	20.008	100.725	20.113	12.619	0.592
120.999	122.952	80.002	20.008	100.726	20.115	12.465	0.584
121.499	123.259	80.002	20.008	100.727	20.115	12.444	0.569
121.999	123.588	80.000	20.008	100.730	20.116	12.301	0.604
122.499	123.867	80.002	20.008	100.732	20.116	12.358	0.622
122.999	124.223	80.001	20.008	100.728	20.118	12.179	0.622
123.499	124.435	80.001	20.008	100.720	20.116	12.387	0.602
123.999	124.757	80.002	20.008	100.713	20.117	12.243	0.551
124.499	125.039	80.000	20.008	100.711	20.118	12.108	0.569
124.999	125.358	80.002	20.008	100.711	20.118	12.120	0.603
125.499	125.624	80.001	20.008	100.714	20.116	12.378	0.593
126.000	125.922	80.002	20.007	100.721	20.118	12.161	0.574
126.500	126.258	80.002	20.008	100.725	20.117	12.259	0.599
126.999	126.566	80.001	20.008	100.719	20.119	12.053	0.639
127.499	126.848	80.003	20.008	100.710	20.118	12.135	0.617
127.999	127.117	80.001	20.008	100.702	20.120	11.886	0.570
128.500	127.449	80.002	20.008	100.700	20.119	12.019	0.576
129.000	127.733	80.001	20.008	100.703	20.120	11.960	0.609
129.500	128.012	80.002	20.008	100.710	20.120	11.943	0.589
130.000	128.321	80.002	20.008	100.718	20.121	11.782	0.576
130.500	128.615	80.001	20.007	100.718	20.120	11.903	0.596
131.000	128.940	80.002	20.008	100.712	20.120	11.938	0.611
131.500	129.209	80.000	20.008	100.703	20.120	11.921	0.606
132.000	129.487	80.002	20.008	100.695	20.122	11.750	0.571
132.501	129.807	80.001	20.008	100.688	20.123	11.652	0.572
133.001	130.104	80.000	20.007	100.695	20.123	11.611	0.607
133.500	130.376	80.001	20.008	100.703	20.124	11.468	0.593
134.000	130.663	80.002	20.007	100.712	20.122	11.686	0.564
134.500	130.972	80.002	20.008	100.719	20.122	11.668	0.578
135.000	131.269	80.002	20.008	100.718	20.124	11.483	0.601
135.500	131.583	80.001	20.008	100.710	20.123	11.573	0.608
136.000	131.914	80.000	20.008	100.702	20.123	11.612	0.628
136.500	132.178	80.001	20.008	100.695	20.123	11.644	0.620
137.000	132.478	80.001	20.008	100.694	20.122	11.751	0.579
137.500	132.798	80.001	20.008	100.702	20.124	11.512	0.592
138.000	133.108	80.002	20.007	100.709	20.123	11.607	0.625
138.500	133.398	80.002	20.008	100.713	20.120	11.895	0.615
139.000	133.706	80.001	20.008	100.711	20.122	11.674	0.599
139.500	134.052	80.002	20.008	100.697	20.124	11.511	0.625
140.000	134.302	80.000	20.008	100.683	20.121	11.812	0.625
140.500	134.641	80.001	20.008	100.667	20.123	11.623	0.593
141.000	134.906	80.001	20.008	100.662	20.123	11.573	0.596
141.500	135.208	80.001	20.008	100.663	20.124	11.536	0.586
142.000	135.547	80.002	20.008	100.671	20.123	11.628	0.604
142.500	135.808	80.002	20.008	100.678	20.122	11.719	0.620
143.000	136.139	80.002	20.008	100.683	20.123	11.656	0.597
143.500	136.396	80.001	20.008	100.677	20.122	11.688	0.590
144.000	136.714	80.001	20.008	100.668	20.123	11.607	0.581
144.500	137.049	80.001	20.008	100.660	20.124	11.534	0.614
145.000	137.303	80.001	20.008	100.653	20.126	11.315	0.621
145.500	137.595	80.002	20.008	100.653	20.123	11.645	0.568
146.000	137.924	80.002	20.008	100.661	20.124	11.543	0.583
146.500	138.166	80.001	20.007	100.670	20.123	11.605	0.596
147.000	138.533	80.002	20.008	100.674	20.127	11.215	0.591
147.500	138.812	80.001	20.008	100.675	20.124	11.531	0.628
148.000	139.143	80.002	20.008	100.670	20.127	11.227	0.628
148.500	139.449	80.001	20.008	100.661	20.126	11.321	0.623
149.000	139.757	80.002	20.008	100.656	20.127	11.168	0.626
149.500	140.032	80.001	20.008	100.659	20.126	11.266	0.598
150.000	140.343	80.000	20.007	100.667	20.128	11.061	0.584
150.500	140.648	80.003	20.007	100.675	20.127	11.154	0.601
151.000	141.002	80.002	20.007	100.683	20.127	11.188	0.638
151.500	141.264	80.002	20.007	100.682	20.127	11.145	0.637
152.000	141.551	80.001	20.008	100.674	20.127	11.202	0.582
152.500	141.807	80.003	20.008	100.667	20.128	11.129	0.546
153.000	142.163	80.000	20.008	100.659	20.128	11.121	0.578
153.500	142.486	80.002	20.008	100.654	20.127	11.237	0.646
154.000	142.778	80.001	20.008	100.660	20.127	11.140	0.647
154.500	143.011	80.003	20.008	100.667	20.129	11.022	0.570
155.000	143.322	80.002	20.008	100.673	20.128	11.055	0.534
155.500	143.675	80.001	20.007	100.674	20.129	11.019	0.604
156.000	143.937	80.002	20.007	100.667	20.131	10.727	0.639
156.500	144.235	80.001	20.008	100.656	20.128	11.029	0.587
157.000	144.506	80.001	20.008	100.648	20.129	10.944	0.565
157.500	144.831	80.003	20.008	100.647	20.131	10.738	0.583
158.000	145.144	80.001	20.008	100.654	20.129	11.002	0.617
158.500	145.412	80.002	20.007	100.666	20.129	10.924	0.609
159.000	145.675	80.002	20.008	100.670	20.129	10.932	0.555
159.500	145.979	80.002	20.008	100.667	20.131	10.716	0.549
160.000	146.330	80.002	20.008	100.655	20.131	10.776	0.611
160.500	146.574	80.000	20.009	100.639	20.128	11.059	0.625
161.000	146.864	80.002	20.008	100.627	20.133	10.512	0.564
161.500	147.197	80.002	20.008	100.627	20.132	10.657	0.579
162.000	147.474	80.001	20.008	100.631	20.132	10.634	0.617
162.500	147.720	80.001	20.008	100.639	20.133	10.542	0.567
163.000	148.045	80.001	20.007	100.646	20.132	10.641	0.547
163.500	148.325	80.002	20.008	100.643	20.133	10.591	0.587
164.000	148.615	80.002	20.008	100.636	20.131	10.808	0.588
164.500	148.933	80.002	20.008	100.627	20.133	10.529	0.589
165.000	149.242	80.001	20.008	100.621	20.133	10.526	0.618
165.500	149.496	80.001	20.008	100.622	20.136	10.236	0.595
166.000	149.806	80.002	20.008	100.629	20.134	10.442	0.563
166.500	150.114	80.002	20.008	100.637	20.133	10.572	0.591
167.000	150.378	80.002	20.008	100.641	20.135	10.329	0.596
167.500	150.648	80.003	20.008	100.639	20.131	10.716	0.553
168.000	150.942	80.000	20.008	100.632	20.132	10.636	0.548
168.500	151.243	80.001	20.008	100.625	20.132	10.641	0.579
169.000	151.554	80.001	20.008	100.619	20.131	10.806	0.603
169.500	151.776	80.001	20.007	100.622	20.130	10.847	0.573
170.000	152.072	80.002	20.007	100.631	20.130	10.824	0.526
170.500	152.393	80.001	20.008	100.637	20.131	10.741	0.568
171.000	152.662	80.001	20.008	100.636	20.133	10.522	0.604
171.500	152.952	80.000	20.008	100.632	20.134	10.394	0.575
172.000	153.276	80.001	20.008	100.625	20.132	10.651	0.587
172.500	153.550	80.002	20.008	100.617	20.134	10.470	0.606
173.000	153.815	80.000	20.008	100.619	20.134	10.413	0.568
173.500	154.118	80.002	20.008	100.627	20.131	10.752	0.553
174.000	154.410	80.001	20.007	100.636	20.135	10.301	0.582
174.500	154.661	80.002	20.007	100.644	20.133	10.513	0.569
175.000	154.964	80.001	20.007	100.643	20.134	10.410	0.549
175.500	155.219	80.000	20.008	100.631	20.133	10.497	0.556
176.000	155.508	80.001	20.008	100.619	20.136	10.223	0.551
176.500	155.822	80.001	20.008	100.608	20.137	10.124	0.573
177.000	156.117	80.001	20.008	100.604	20.135	10.318	0.606
177.500	156.418	80.001	20.008	100.611	20.135	10.291	0.603
178.000	156.693	80.002	20.008	100.624	20.136	10.251	0.586
178.500	156.995	80.000	20.008	100.630	20.136	10.233	0.576
179.000	157.296	80.001	20.008	100.630	20.136	10.289	0.590
179.500	157.536	80.001	20.008	100.620	20.133	10.507	0.572
180.000	157.829	80.002	20.008	100.605	20.133	10.523	0.537
180.500	158.121	80.001	20.008	100.594	20.134	10.440	0.560
181.000	158.424	80.000	20.008	100.592	20.132	10.609	0.591
181.500	158.694	80.002	20.008	100.599	20.133	10.551	0.584
182.000	158.962	80.001	20.007	100.607	20.132	10.620	0.555
182.500	159.255	80.002	20.008	100.614	20.130	10.892	0.549
183.000	159.502	80.000	20.008	100.610	20.133	10.598	0.550
183.500	159.777	80.001	20.008	100.602	20.134	10.493	0.531
184.000	160.079	80.001	20.008	100.590	20.132	10.691	0.550
184.500	160.349	80.001	20.008	100.589	20.130	10.867	0.575
185.000	160.600	80.002	20.008	100.590	20.134	10.400	0.547
185.500	160.888	80.001	20.007	100.598	20.133	10.530	0.530
186.000	161.185	80.002	20.008	100.602	20.131	10.771	0.562
186.500	161.465	80.002	20.008	100.601	20.131	10.735	0.581
187.000	161.716	80.001	20.008	100.593	20.130	10.826	0.554
187.500	162.002	80.002	20.008	100.584	20.132	10.614	0.534
188.000	162.294	80.001	20.008	100.580	20.132	10.648	0.558
188.500	162.575	80.002	20.008	100.584	20.131	10.739	0.575
189.000	162.838	80.002	20.007	100.592	20.131	10.796	0.559
189.500	163.116	80.001	20.008	100.600	20.130	10.820	0.543
190.000	163.420	80.002	20.008	100.605	20.130	10.815	0.561
190.500	163.649	80.001	20.008	100.608	20.131	10.797	0.557
191.000	163.941	80.001	20.008	100.606	20.131	10.770	0.527
191.500	164.217	80.001	20.008	100.605	20.133	10.560	0.545
192.000	164.466	80.002	20.008	100.606	20.132	10.688	0.546
192.500	164.803	80.002	20.008	100.609	20.132	10.661	0.555
193.000	165.058	80.001	20.008	100.618	20.132	10.642	0.589
193.500	165.314	80.002	20.008	100.627	20.131	10.773	0.552
194.000	165.591	80.001	20.008	100.631	20.132	10.688	0.522
194.500	165.854	80.001	20.008	100.630	20.130	10.917	0.536
195.000	166.165	80.002	20.008	100.628	20.128	11.080	0.557
195.500	166.409	80.001	20.008	100.620	20.127	11.203	0.565
196.000	166.652	80.002	20.008	100.612	20.128	11.066	0.521
196.500	166.966	80.001	20.008	100.610	20.127	11.142	0.522
197.000	167.209	80.002	20.007	100.615	20.129	10.935	0.557
197.500	167.501	80.002	20.008	100.615	20.126	11.287	0.546
198.000	167.748	80.000	20.007	100.611	20.129	10.969	0.537
198.500	168.067	80.002	20.008	100.603	20.129	10.960	0.552
199.000	168.315	80.000	20.008	100.594	20.126	11.262	0.567
199.500	168.633	80.002	20.008	100.587	20.127	11.225	0.567
200.000	168.831	80.001	20.008	100.588	20.127	11.208	0.541
200.500	169.112	80.002	20.008	100.592	20.127	11.128	0.497
201.000	169.412	80.001	20.008	100.600	20.128	11.106	0.531
201.500	169.702	80.002	20.008	100.607	20.125	11.350	0.586
202.000	169.956	80.001	20.008	100.600	20.128	11.117	0.567
202.500	170.194	80.001	20.008	100.593	20.124	11.494	0.517
203.000	170.487	80.002	20.008	100.586	20.127	11.173	0.511
203.500	170.763	80.002	20.008	100.585	20.125	11.358	0.550
204.000	170.989	80.000	20.008	100.586	20.127	11.213	0.535
204.500	171.263	80.001	20.008	100.594	20.127	11.212	0.501
205.000	171.559	80.001	20.008	100.600	20.128	11.116	0.535
205.500	171.814	80.001	20.007	100.599	20.123	11.577	0.561
206.000	172.086	80.001	20.008	100.592	20.125	11.431	0.540
206.500	172.347	80.003	20.008	100.589	20.126	11.259	0.530
207.000	172.641	80.001	20.008	100.588	20.127	11.217	0.544
207.500	172.842	80.001	20.008	100.590	20.127	11.198	0.525
208.000	173.143	80.003	20.008	100.599	20.123	11.633	0.499
208.500	173.385	80.002	20.007	100.608	20.125	11.425	0.522
209.000	173.683	80.001	20.008	100.608	20.125	11.407	0.542
209.500	173.938	80.002	20.008	100.602	20.121	11.818	0.547
210.000	174.218	80.001	20.008	100.593	20.123	11.552	0.544
210.500	174.474	80.004	20.008	100.584	20.122	11.714	0.536
211.000	174.709	80.001	20.009	100.575	20.124	11.546	0.513
211.500	174.984	80.001	20.007	100.572	20.123	11.590	0.500
212.000	175.283	80.001	20.008	100.577	20.123	11.568	0.542
212.500	175.563	80.002	20.008	100.585	20.124	11.523	0.577
213.000	175.783	80.001	20.007	100.591	20.122	11.730	0.539
213.500	176.059	80.002	20.008	100.591	20.121	11.777	0.498
214.000	176.349	80.001	20.008	100.589	20.123	11.616	0.531
214.500	176.632	80.003	20.008	100.589	20.122	11.750	0.569
215.000	176.888	80.002	20.008	100.589	20.125	11.378	0.555
215.500	177.125	80.001	20.008	100.591	20.121	11.808	0.516
216.000	177.384	80.000	20.008	100.598	20.121	11.793	0.495
216.500	177.651	80.002	20.008	100.601	20.121	11.794	0.511
217.000	177.904	80.002	20.008	100.597	20.122	11.740	0.523
217.500	178.139	80.001	20.008	100.589	20.123	11.582	0.505
218.000	178.428	80.002	20.008	100.582	20.123	11.608	0.506
218.500	178.714	80.002	20.008	100.579	20.120	11.884	0.549
219.000	178.965	80.001	20.008	100.583	20.122	11.735	0.556
219.500	179.205	80.002	20.008	100.589	20.122	11.724	0.514
220.000	179.490	80.001	20.008	100.598	20.119	12.052	0.508
220.500	179.765	80.003	20.008	100.604	20.122	11.715	0.543
221.000	179.996	80.001	20.008	100.601	20.123	11.583	0.533
221.500	180.240	80.001	20.008	100.593	20.121	11.802	0.491
222.000	180.566	80.001	20.008	100.586	20.122	11.667	0.522
222.500	180.838	80.002	20.008	100.578	20.121	11.764	0.584
223.000	181.089	80.001	20.008	100.573	20.122	11.708	0.560
223.500	181.347	80.001	20.008	100.578	20.120	11.901	0.516
224.000	181.568	80.002	20.008	100.580	20.122	11.731	0.494
224.500	181.831	80.003	20.008	100.580	20.122	11.748	0.481
225.000	182.130	80.003	20.008	100.577	20.122	11.657	0.523
225.500	182.344	80.001	20.008	100.571	20.123	11.565	0.537
226.000	182.609	80.001	20.008	100.564	20.123	11.649	0.496
226.500	182.895	80.001	20.008	100.563	20.123	11.605	0.515
227.000	183.166	80.002	20.008	100.568	20.123	11.567	0.555
227.500	183.372	80.002	20.007	100.578	20.123	11.633	0.517
228.000	183.688	80.002	20.008	100.585	20.123	11.635	0.499
228.500	183.948	80.001	20.008	100.587	20.122	11.703	0.549
229.000	184.208	80.002	20.008	100.584	20.123	11.636	0.549
229.500	184.428	80.001	20.009	100.575	20.121	11.798	0.500
230.000	184.711	80.002	20.008	100.568	20.124	11.517	0.491
230.500	184.986	80.001	20.008	100.568	20.121	11.797	0.530
231.000	185.205	80.001	20.008	100.576	20.121	11.762	0.526
231.500	185.476	80.002	20.008	100.584	20.122	11.733	0.492
232.000	185.805	80.001	20.008	100.588	20.125	11.389	0.545
232.500	185.993	80.001	20.008	100.588	20.126	11.315	0.558
233.000	186.249	80.001	20.008	100.580	20.126	11.301	0.480
233.500	186.513	80.002	20.008	100.565	20.126	11.276	0.482
234.000	186.781	80.002	20.008	100.559	20.126	11.239	0.526
234.500	187.018	80.002	20.008	100.567	20.126	11.253	0.518
235.000	187.254	80.000	20.008	100.575	20.126	11.255	0.489
235.500	187.520	80.001	20.008	100.588	20.126	11.257	0.488
236.000	187.768	80.001	20.008	100.600	20.126	11.243	0.508
236.500	188.039	80.003	20.008	100.600	20.127	11.138	0.517
237.000	188.320	80.001	20.008	100.592	20.124	11.452	0.536
237.500	188.561	80.001	20.008	100.585	20.124	11.532	0.537
238.000	188.824	80.001	20.008	100.578	20.122	11.674	0.513
238.500	189.062	80.001	20.008	100.572	20.125	11.411	0.503
239.000	189.320	80.002	20.008	100.572	20.123	11.589	0.498
239.500	189.593	80.002	20.008	100.572	20.122	11.695	0.513
240.000	189.846	80.002	20.008	100.571	20.122	11.689	0.529
240.500	190.079	80.001	20.008	100.567	20.121	11.759	0.506
241.000	190.364	80.002	20.008	100.560	20.122	11.674	0.502
241.500	190.646	80.002	20.008	100.553	20.123	11.571	0.543
242.000	190.916	80.001	20.008	100.551	20.121	11.765	0.560
242.500	191.163	80.001	20.008	100.553	20.121	11.766	0.535
243.000	191.428	80.002	20.008	100.556	20.120	11.885	0.515
243.500	191.645	80.002	20.008	100.564	20.120	11.949	0.497
244.000	191.903	80.002	20.008	100.571	20.122	11.656	0.478
244.500	192.154	80.002	20.008	100.570	20.119	12.018	0.491
245.000	192.394	80.001	20.008	100.562	20.120	11.917	0.500
245.500	192.656	80.001	20.008	100.555	20.125	11.376	0.497
246.000	192.883	80.001	20.009	100.549	20.121	11.774	0.496
246.500	193.117	80.003	20.008	100.548	20.119	12.040	0.475
247.000	193.373	80.002	20.008	100.550	20.118	12.086	0.476
247.500	193.675	80.002	20.008	100.558	20.119	11.974	0.524
248.000	193.914	80.000	20.008	100.560	20.122	11.749	0.550
248.500	194.181	80.001	20.008	100.557	20.122	11.717	0.523
249.000	194.432	80.002	20.008	100.549	20.121	11.783	0.512
249.500	194.691	80.001	20.008	100.541	20.121	11.805	0.514
250.000	195.005	80.002	20.008	100.534	20.121	11.776	0.542
250.500	195.269	80.001	20.008	100.532	20.121	11.852	0.576
251.000	195.472	80.002	20.008	100.539	20.122	11.684	0.522
251.500	195.720	80.002	20.008	100.546	20.122	11.696	0.459
252.000	195.987	79.999	20.008	100.548	20.121	11.830	0.483
252.500	196.245	80.001	20.008	100.548	20.121	11.800	0.520
253.000	196.521	80.002	20.008	100.548	20.122	11.678	0.530
253.500	196.753	80.002	20.008	100.542	20.123	11.612	0.521
254.000	196.983	80.001	20.008	100.536	20.124	11.544	0.485
254.500	197.268	80.002	20.009	100.543	20.125	11.408	0.488
255.000	197.488	80.003	20.008	100.556	20.125	11.399	0.510
255.500	197.717	80.001	20.008	100.569	20.125	11.407	0.477
256.000	197.995	80.002	20.008	100.575	20.126	11.238	0.478
256.500	198.252	80.001	20.008	100.578	20.123	11.607	0.520
257.000	198.503	80.002	20.008	100.570	20.125	11.412	0.522
257.500	198.705	80.002	20.008	100.558	20.123	11.547	0.481
258.000	199.011	80.003	20.008	100.549	20.123	11.604	0.480
258.500	199.262	80.001	20.008	100.550	20.124	11.538	0.532
259.000	199.563	80.001	20.008	100.560	20.123	11.589	0.555
259.500	199.671	80.002	20.008	100.576	20.124	11.447	0.481
260.000	200.016	80.001	20.008	100.591	20.125	11.340	0.431
260.500	200.216	80.003	20.008	100.595	20.125	11.344	0.499
261.000	200.515	80.002	20.008	100.593	20.126	11.329	0.522
261.500	200.771	80.002	20.008	100.582	20.127	11.141	0.527
262.000	200.992	80.001	20.008	100.574	20.126	11.312	0.516
262.500	201.256	80.001	20.008	100.572	20.126	11.301	0.481
263.000	201.523	80.003	20.008	100.578	20.125	11.363	0.508
263.500	201.784	80.002	20.008	100.579	20.127	11.187	0.530
264.000	201.972	80.003	20.008	100.581	20.128	11.064	0.489
264.500	202.250	80.001	20.008	100.576	20.128	11.084	0.458
265.000	202.490	80.002	20.008	100.562	20.126	11.230	0.492
265.500	202.782	80.002	20.008	100.552	20.127	11.156	0.525
266.000	203.047	80.002	20.008	100.550	20.126	11.236	0.544
266.500	203.258	80.002	20.008	100.554	20.126	11.254	0.516
267.000	203.552	80.001	20.007	100.563	20.126	11.333	0.491
267.500	203.757	80.001	20.008	100.573	20.126	11.270	0.502
268.000	204.038	80.002	20.008	100.576	20.124	11.442	0.493
268.500	204.239	80.001	20.008	100.569	20.126	11.314	0.484
269.000	204.535	80.001	20.008	100.560	20.125	11.374	0.490
269.500	204.787	80.003	20.008	100.553	20.126	11.268	0.522
270.000	205.014	80.002	20.008	100.551	20.125	11.364	0.514
270.500	205.323	80.002	20.008	100.553	20.127	11.193	0.507
271.000	205.580	80.002	20.008	100.560	20.125	11.418	0.551
271.500	205.837	80.003	20.008	100.567	20.124	11.497	0.540
272.000	206.029	80.002	20.008	100.569	20.125	11.357	0.482
272.500	206.278	80.002	20.008	100.565	20.125	11.371	0.445
273.000	206.582	80.003	20.008	100.563	20.127	11.186	0.497
273.500	206.800	80.001	20.008	100.563	20.124	11.471	0.538
274.000	206.972	80.002	20.008	100.563	20.125	11.378	0.456
274.500	207.335	80.003	20.008	100.566	20.123	11.622	0.462
275.000	207.527	80.002	20.008	100.570	20.125	11.415	0.545
275.500	207.768	80.000	20.008	100.571	20.122	11.689	0.494
276.000	208.044	80.002	20.008	100.567	20.124	11.447	0.475
276.500	208.298	80.002	20.008	100.559	20.122	11.684	0.524
277.000	208.575	80.002	20.008	100.557	20.121	11.812	0.530
277.500	208.820	80.001	20.008	100.555	20.121	11.792	0.526
278.000	209.071	80.002	20.008	100.555	20.123	11.593	0.510
278.500	209.363	80.002	20.008	100.560	20.123	11.647	0.520
279.000	209.595	80.002	20.008	100.568	20.121	11.844	0.533
279.500	209.859	80.003	20.008	100.564	20.121	11.841	0.510
280.000	210.118	80.001	20.008	100.557	20.122	11.702	0.509
280.500	210.412	80.003	20.008	100.549	20.120	11.913	0.538
281.000	210.633	80.001	20.008	100.544	20.120	11.872	0.534
281.500	210.833	80.002	20.008	100.545	20.120	11.915	0.468
282.000	211.092	80.002	20.008	100.550	20.120	11.899	0.440
282.500	211.372	80.000	20.007	100.558	20.119	11.987	0.499
283.000	211.613	80.003	20.007	100.558	20.119	11.966	0.530
283.500	211.821	80.001	20.008	100.555	20.122	11.741	0.485
284.000	212.074	80.001	20.009	100.548	20.122	11.653	0.455
284.500	212.297	80.003	20.008	100.539	20.122	11.749	0.469
285.000	212.564	80.002	20.008	100.537	20.121	11.807	0.483
285.500	212.829	80.001	20.008	100.545	20.121	11.784	0.511
286.000	213.099	80.002	20.008	100.555	20.123	11.626	0.534
286.500	213.337	80.002	20.008	100.563	20.124	11.466	0.521
287.000	213.558	80.003	20.008	100.569	20.123	11.617	0.483
287.500	213.820	80.001	20.008	100.564	20.124	11.484	0.471
288.000	214.063	80.003	20.008	100.557	20.122	11.684	0.494
288.500	214.321	80.001	20.008	100.549	20.122	11.694	0.503
289.000	214.582	80.002	20.008	100.548	20.123	11.599	0.510
289.500	214.850	80.001	20.008	100.550	20.122	11.675	0.525
290.000	215.058	80.005	20.008	100.558	20.123	11.644	0.502
290.500	215.309	80.001	20.008	100.564	20.125	11.381	0.467
291.000	215.544	80.002	20.008	100.562	20.123	11.608	0.472
291.500	215.825	80.002	20.008	100.555	20.123	11.585	0.501
292.000	216.032	80.002	20.008	100.549	20.123	11.632	0.502
292.500	216.325	80.000	20.008	100.546	20.125	11.341	0.494
293.000	216.525	80.003	20.008	100.547	20.122	11.743	0.497
293.500	216.792	80.001	20.007	100.555	20.122	11.668	0.480
294.000	217.060	80.002	20.008	100.563	20.125	11.406	0.501
294.500	217.320	80.002	20.008	100.570	20.122	11.653	0.531
295.000	217.552	80.003	20.008	100.567	20.123	11.568	0.510
295.500	217.812	80.002	20.008	100.560	20.123	11.623	0.492
296.000	218.062	80.003	20.008	100.551	20.125	11.433	0.501
296.500	218.306	80.001	20.008	100.545	20.124	11.438	0.502
297.000	218.519	80.002	20.008	100.544	20.122	11.728	0.476
297.500	218.822	80.000	20.008	100.550	20.124	11.463	0.487
298.000	219.045	80.001	20.008	100.558	20.121	11.808	0.521
298.500	219.288	80.002	20.008	100.563	20.123	11.635	0.496
299.000	219.562	80.002	20.008	100.563	20.123	11.552	0.491
299.500	219.808	80.001	20.008	100.556	20.123	11.582	0.518
300.000	220.041	80.002	20.008	100.546	20.122	11.657	0.499
300.500	220.307	80.002	20.008	100.543	20.121	11.827	0.489
301.000	220.535	80.002	20.008	100.545	20.121	11.817	0.497
301.500	220.832	80.002	20.008	100.552	20.122	11.709	0.510
302.000	221.068	80.001	20.008	100.561	20.118	12.111	0.529
302.500	221.345	80.001	20.008	100.566	20.123	11.620	0.523
303.000	221.578	80.002	20.008	100.562	20.120	11.911	0.512
303.500	221.815	80.002	20.008	100.552	20.118	12.110	0.490
304.000	222.060	80.002	20.008	100.543	20.121	11.821	0.476
304.500	222.299	80.001	20.008	100.538	20.121	11.855	0.483
305.000	222.543	80.002	20.008	100.541	20.120	11.938	0.483
305.500	222.831	80.002	20.008	100.548	20.122	11.752	0.507
306.000	223.095	80.002	20.008	100.559	20.120	11.904	0.542
306.500	223.327	80.000	20.008	100.560	20.122	11.706	0.524
307.000	223.554	80.002	20.008	100.557	20.123	11.566	0.477
307.500	223.780	80.002	20.008	100.550	20.122	11.665	0.456
308.000	224.082	80.001	20.008	100.542	20.123	11.584	0.491
308.500	224.325	80.003	20.008	100.538	20.124	11.438	0.537
309.000	224.528	80.002	20.008	100.544	20.124	11.494	0.496
309.500	224.815	80.002	20.008	100.552	20.127	11.191	0.468
310.000	225.065	80.002	20.008	100.562	20.124	11.540	0.513
310.500	225.294	80.002	20.008	100.570	20.124	11.488	0.508
311.000	225.586	80.001	20.008	100.568	20.124	11.522	0.500
311.500	225.807	80.002	20.008	100.560	20.123	11.619	0.517
312.000	226.084	80.001	20.008	100.552	20.126	11.328	0.506
312.500	226.352	80.002	20.008	100.546	20.125	11.358	0.521
313.000	226.584	80.002	20.008	100.545	20.126	11.260	0.522
313.500	226.856	80.001	20.008	100.554	20.125	11.380	0.502
314.000	227.099	80.002	20.008	100.566	20.126	11.297	0.510
314.500	227.357	80.002	20.008	100.575	20.125	11.346	0.508
315.000	227.625	80.002	20.008	100.576	20.124	11.464	0.513
315.500	227.854	80.003	20.008	100.569	20.124	11.485	0.511
316.000	228.118	80.001	20.008	100.557	20.122	11.682	0.495
316.500	228.335	80.002	20.008	100.545	20.124	11.533	0.487
317.000	228.609	80.001	20.008	100.544	20.122	11.652	0.486
317.500	228.819	80.002	20.008	100.548	20.121	11.767	0.488
318.000	229.047	80.002	20.008	100.554	20.122	11.746	0.461
318.500	229.317	80.002	20.008	100.562	20.121	11.821	0.468
319.000	229.612	80.002	20.008	100.570	20.124	11.517	0.532
319.500	229.844	80.002	20.008	100.565	20.121	11.854	0.546
320.000	230.077	80.003	20.008	100.558	20.121	11.760	0.496
320.500	230.350	80.001	20.008	100.551	20.122	11.654	0.486
321.000	230.601	80.002	20.008	100.545	20.120	11.860	0.515
321.500	230.848	80.002	20.008	100.544	20.123	11.648	0.511
322.000	231.106	80.002	20.008	100.549	20.120	11.960	0.502
322.500	231.370	80.002	20.008	100.559	20.119	11.993	0.513
323.000	231.611	80.001	20.008	100.568	20.120	11.879	0.513
323.500	231.883	80.002	20.008	100.573	20.123	11.568	0.509
324.000	232.130	80.002	20.008	100.569	20.121	11.818	0.516
324.500	232.420	80.002	20.008	100.562	20.122	11.648	0.528
325.000	232.653	80.001	20.008	100.551	20.123	11.587	0.530
325.500	232.905	80.003	20.008	100.545	20.124	11.526	0.504
326.000	233.150	80.002	20.008	100.542	20.121	11.859	0.491
326.500	233.415	80.001	20.008	100.548	20.121	11.757	0.504
327.000	233.668	80.002	20.008	100.555	20.124	11.452	0.514
327.500	233.873	80.002	20.008	100.559	20.120	11.912	0.488
328.000	234.132	80.003	20.008	100.558	20.124	11.541	0.461
328.500	234.406	80.003	20.008	100.553	20.123	11.628	0.498
329.000	234.711	80.002	20.008	100.548	20.123	11.606	0.556
329.500	234.958	80.001	20.008	100.548	20.122	11.745	0.566
330.000	235.184	80.002	20.008	100.559	20.122	11.718	0.513
330.500	235.420	80.002	20.008	100.572	20.123	11.641	0.467
331.000	235.696	80.003	20.008	100.581	20.121	11.813	0.487
331.500	235.931	80.003	20.008	100.584	20.122	11.652	0.512
332.000	236.144	80.002	20.008	100.576	20.125	11.356	0.480
332.500	236.450	80.000	20.008	100.563	20.121	11.782	0.484
333.000	236.689	80.004	20.008	100.554	20.121	11.823	0.532
333.500	236.933	80.002	20.008	100.551	20.121	11.763	0.513
334.000	237.189	80.002	20.008	100.553	20.122	11.745	0.491
334.500	237.428	80.002	20.008	100.559	20.125	11.409	0.498
335.000	237.683	80.002	20.008	100.559	20.121	11.761	0.495
335.500	237.972	80.002	20.008	100.553	20.122	11.689	0.519
336.000	238.168	80.002	20.008	100.547	20.122	11.747	0.514
336.500	238.415	80.002	20.008	100.540	20.121	11.854	0.464
337.000	238.682	80.001	20.008	100.537	20.121	11.833	0.479
337.500	238.991	80.002	20.008	100.543	20.119	11.975	0.545
338.000	239.190	80.003	20.008	100.552	20.119	12.019	0.542
338.500	239.455	80.002	20.007	100.559	20.120	11.883	0.486
339.000	239.705	80.002	20.008	100.565	20.120	11.924	0.490
339.500	239.963	80.003	20.008	100.562	20.118	12.133	0.512
340.000	240.242	80.003	20.008	100.554	20.118	12.083	0.523
340.500	240.484	80.002	20.008	100.547	20.119	12.033	0.529
341.000	240.781	80.002	20.009	100.540	20.118	12.067	0.530
341.500	241.013	80.002	20.008	100.539	20.120	11.913	0.534
342.000	241.262	80.002	20.008	100.546	20.119	12.039	0.505
342.500	241.508	80.002	20.008	100.554	20.119	12.064	0.488
343.000	241.730	80.004	20.008	100.554	20.116	12.307	0.481
343.500	241.978	80.001	20.008	100.554	20.115	12.419	0.469
344.000	242.220	80.003	20.008	100.547	20.116	12.297	0.480
344.500	242.513	80.002	20.008	100.540	20.117	12.185	0.512
345.000	242.809	80.002	20.008	100.532	20.115	12.421	0.562
345.500	243.049	80.002	20.008	100.534	20.115	12.459	0.563
346.000	243.353	80.002	20.008	100.538	20.113	12.605	0.540
346.500	243.568	80.003	20.008	100.540	20.116	12.296	0.531
347.000	243.838	80.002	20.008	100.541	20.117	12.267	0.502
347.500	244.102	80.002	20.008	100.541	20.116	12.344	0.510
348.000	244.367	80.001	20.008	100.539	20.114	12.521	0.532
348.500	244.631	80.002	20.008	100.535	20.117	12.261	0.529
349.000	244.879	80.002	20.008	100.535	20.114	12.515	0.520
349.500	245.121	80.001	20.008	100.542	20.111	12.865	0.501
350.000	245.384	80.002	20.008	100.549	20.115	12.420	0.498
350.500	245.632	80.003	20.008	100.552	20.115	12.472	0.508
351.000	245.876	80.002	20.008	100.551	20.117	12.227	0.501
351.500	246.126	80.001	20.008	100.545	20.115	12.400	0.493
352.000	246.361	80.003	20.008	100.531	20.116	12.278	0.490
352.500	246.616	80.002	20.009	100.523	20.116	12.339	0.487
353.000	246.903	80.002	20.008	100.527	20.115	12.484	0.516
353.500	247.108	80.003	20.008	100.536	20.116	12.325	0.517
354.000	247.369	80.001	20.008	100.546	20.116	12.332	0.479
354.500	247.617	80.003	20.008	100.552	20.121	11.843	0.487
355.000	247.850	80.002	20.008	100.550	20.119	11.995	0.495
355.500	248.132	80.002	20.008	100.536	20.117	12.258	0.498
356.000	248.388	80.003	20.008	100.527	20.118	12.098	0.526
356.500	248.612	80.002	20.008	100.522	20.115	12.426	0.509
357.000	248.901	80.002	20.008	100.521	20.117	12.247	0.497
357.500	249.130	80.001	20.007	100.527	20.116	12.307	0.516
358.000	249.408	80.003	20.008	100.540	20.115	12.422	0.513
358.500	249.633	80.001	20.008	100.542	20.118	12.159	0.505
359.000	249.859	80.002	20.008	100.540	20.116	12.374	0.477
359.500	250.162	80.002	20.008	100.532	20.117	12.255	0.490
360.000	250.446	80.002	20.008	100.527	20.117	12.176	0.558
360.500	250.659	80.003	20.008	100.521	20.116	12.324	0.541
361.000	250.899	80.002	20.008	100.524	20.117	12.205	0.475
361.500	251.170	80.003	20.008	100.533	20.115	12.464	0.482
362.000	251.397	80.002	20.008	100.543	20.114	12.576	0.505
362.500	251.657	80.003	20.008	100.545	20.113	12.681	0.493
363.000	251.933	80.002	20.008	100.545	20.116	12.319	0.512
363.500	252.177	80.001	20.008	100.539	20.115	12.381	0.528
364.000	252.399	80.002	20.008	100.530	20.112	12.783	0.493
364.500	252.658	80.002	20.008	100.527	20.113	12.613	0.473
365.000	252.907	80.002	20.008	100.531	20.114	12.530	0.494
365.500	253.124	80.003	20.008	100.538	20.112	12.711	0.487
366.000	253.389	80.001	20.008	100.547	20.112	12.769	0.474
366.500	253.637	80.002	20.008	100.552	20.112	12.797	0.498
367.000	253.913	80.002	20.008	100.552	20.113	12.619	0.518
367.500	254.179	80.001	20.008	100.543	20.112	12.797	0.533
368.000	254.412	80.002	20.008	100.533	20.114	12.561	0.520
368.500	254.638	80.001	20.008	100.526	20.111	12.848	0.479
369.000	254.925	80.001	20.008	100.524	20.113	12.662	0.486
369.500	255.189	80.002	20.008	100.525	20.111	12.848	0.532
370.000	255.459	80.002	20.008	100.530	20.112	12.757	0.542
370.500	255.723	80.003	20.008	100.530	20.110	12.953	0.534
371.000	256.013	80.001	20.008	100.524	20.112	12.732	0.544
371.500	256.211	80.002	20.008	100.515	20.114	12.542	0.521
372.000	256.491	80.002	20.008	100.513	20.112	12.761	0.483
372.500	256.694	80.001	20.008	100.517	20.111	12.829	0.480
373.000	256.900	80.001	20.008	100.524	20.112	12.787	0.446
373.500	257.185	80.003	20.008	100.538	20.113	12.693	0.450
374.000	257.461	80.001	20.007	100.546	20.113	12.628	0.526
374.500	257.715	80.003	20.008	100.546	20.112	12.716	0.545
375.000	257.955	80.000	20.008	100.534	20.110	12.977	0.512
375.500	258.243	80.002	20.008	100.522	20.109	13.093	0.511
376.000	258.475	80.002	20.008	100.515	20.110	12.998	0.524
376.500	258.734	80.003	20.008	100.514	20.111	12.858	0.505
377.000	258.935	80.001	20.007	100.521	20.110	12.998	0.475
377.500	259.171	80.002	20.008	100.530	20.107	13.235	0.449
378.000	259.452	80.001	20.008	100.536	20.106	13.405	0.477
378.500	259.671	80.002	20.008	100.536	20.105	13.480	0.509
379.000	259.959	80.001	20.008	100.533	20.107	13.276	0.504
379.500	260.156	80.001	20.008	100.528	20.103	13.645	0.496
380.000	260.400	80.003	20.008	100.527	20.107	13.325	0.462
380.500	260.671	80.002	20.008	100.532	20.105	13.462	0.478
381.000	260.947	80.003	20.008	100.540	20.106	13.423	0.532
381.500	261.144	80.002	20.008	100.546	20.104	13.593	0.510
382.000	261.416	80.001	20.007	100.546	20.104	13.603	0.471
382.500	261.698	80.003	20.008	100.544	20.102	13.778	0.511
383.000	261.925	80.001	20.008	100.532	20.102	13.787	0.531
383.500	262.194	80.000	20.008	100.521	20.104	13.602	0.502
384.000	262.459	80.003	20.008	100.523	20.102	13.787	0.515
384.500	262.726	80.001	20.008	100.531	20.102	13.822	0.533
385.000	262.969	80.001	20.008	100.541	20.102	13.828	0.521
385.500	263.236	80.001	20.008	100.553	20.102	13.765	0.510
386.000	263.422	80.002	20.008	100.556	20.102	13.802	0.482
386.500	263.680	80.003	20.008	100.551	20.101	13.949	0.448
387.000	263.955	80.001	20.008	100.544	20.101	13.939	0.488
387.500	264.243	80.001	20.009	100.535	20.097	14.312	0.548
388.000	264.442	80.001	20.008	100.530	20.099	14.096	0.525
388.500	264.710	80.002	20.008	100.535	20.097	14.355	0.477
389.000	264.928	80.002	20.008	100.540	20.097	14.366	0.477
389.500	265.222	80.002	20.008	100.539	20.098	14.183	0.499
390.000	265.463	80.002	20.008	100.539	20.097	14.295	0.523
390.500	265.705	80.002	20.008	100.538	20.099	14.124	0.509
391.000	265.921	80.000	20.008	100.533	20.097	14.344	0.470
391.500	266.202	80.002	20.008	100.528	20.095	14.494	0.477
392.000	266.492	80.001	20.008	100.531	20.094	14.597	0.534
392.500	266.798	80.002	20.008	100.539	20.096	14.394	0.584
393.000	266.995	80.001	20.008	100.547	20.096	14.423	0.550
393.500	267.221	80.001	20.008	100.548	20.096	14.404	0.463
394.000	267.526	80.001	20.008	100.549	20.096	14.389	0.477
394.500	267.723	80.003	20.008	100.545	20.095	14.498	0.517
395.000	267.966	80.000	20.008	100.538	20.093	14.699	0.471
395.500	268.212	80.003	20.008	100.536	20.091	14.964	0.464
396.000	268.449	80.001	20.008	100.543	20.092	14.876	0.487
396.500	268.722	80.002	20.008	100.550	20.092	14.853	0.497
397.000	268.995	80.001	20.008	100.554	20.094	14.638	0.528
397.500	269.208	80.002	20.008	100.555	20.092	14.830	0.516
398.000	269.508	80.002	20.008	100.550	20.092	14.850	0.500
398.500	269.702	80.002	20.008	100.542	20.087	15.320	0.504
399.000	269.955	80.001	20.008	100.535	20.088	15.241	0.470
399.500	270.253	80.001	20.008	100.538	20.087	15.342	0.499
400.000	270.480	80.002	20.008	100.546	20.088	15.272	0.538
400.500	270.721	80.002	20.008	100.554	20.087	15.411	0.497
401.000	270.982	80.001	20.008	100.558	20.082	15.865	0.485
401.500	271.223	80.001	20.008	100.558	20.084	15.687	0.502
402.000	271.470	80.001	20.008	100.544	20.082	15.857	0.495
402.500	271.743	80.002	20.008	100.532	20.082	15.845	0.504
403.000	271.993	80.002	20.008	100.524	20.081	16.030	0.521
403.500	272.250	80.001	20.008	100.524	20.081	16.042	0.515
404.000	272.463	80.002	20.008	100.530	20.080	16.153	0.489
404.500	272.738	80.001	20.008	100.538	20.081	16.046	0.479
405.000	272.980	80.002	20.008	100.543	20.082	15.863	0.502
405.500	273.220	80.003	20.008	100.536	20.082	15.922	0.499
406.000	273.449	79.999	20.008	100.525	20.081	15.980	0.476
406.500	273.745	80.002	20.008	100.515	20.079	16.203	0.497
407.000	273.980	80.001	20.008	100.515	20.076	16.473	0.528
407.500	274.247	80.002	20.008	100.520	20.075	16.583	0.516
408.000	274.498	80.001	20.008	100.532	20.077	16.418	0.510
408.500	274.727	80.002	20.007	100.540	20.074	16.694	0.499
409.000	275.008	80.001	20.007	100.543	20.076	16.520	0.496
409.500	275.286	80.001	20.008	100.536	20.077	16.442	0.535
410.000	275.498	80.001	20.008	100.524	20.074	16.722	0.525
410.500	275.764	80.001	20.008	100.516	20.076	16.552	0.484
411.000	275.972	80.002	20.008	100.516	20.075	16.665	0.476
411.500	276.234	80.001	20.008	100.518	20.073	16.878	0.472
412.000	276.477	80.002	20.008	100.525	20.073	16.791	0.487
412.500	276.793	80.002	20.008	100.529	20.071	17.069	0.532
413.000	277.010	80.001	20.008	100.525	20.071	17.067	0.547
413.500	277.289	80.003	20.008	100.516	20.068	17.337	0.515
414.000	277.493	80.002	20.008	100.505	20.068	17.342	0.489
414.500	277.794	80.002	20.008	100.496	20.070	17.175	0.494
415.000	278.030	80.001	20.008	100.495	20.068	17.372	0.521
415.500	278.298	80.002	20.008	100.501	20.069	17.307	0.520
416.000	278.532	80.001	20.008	100.510	20.067	17.503	0.503
416.500	278.771	80.002	20.008	100.515	20.066	17.535	0.487
417.000	278.999	80.002	20.008	100.516	20.065	17.631	0.470
417.500	279.265	80.002	20.008	100.512	20.066	17.547	0.481
418.000	279.522	80.001	20.008	100.504	20.068	17.386	0.509
418.500	279.723	80.001	20.008	100.498	20.066	17.613	0.490
419.000	279.971	80.002	20.008	100.502	20.063	17.903	0.453
419.500	280.219	80.000	20.007	100.512	20.064	17.782	0.472
420.000	280.503	80.001	20.008	100.521	20.061	18.087	0.514
420.500	280.770	80.002	20.008	100.527	20.061	18.093	0.542
421.000	281.035	80.002	20.008	100.524	20.062	18.011	0.541
421.500	281.275	80.003	20.008	100.518	20.058	18.444	0.518
422.000	281.520	80.001	20.008	100.510	20.059	18.260	0.495
422.500	281.754	80.001	20.008	100.508	20.060	18.229	0.482
423.000	282.054	80.000	20.008	100.509	20.059	18.277	0.506
423.500	282.277	80.002	20.008	100.518	20.056	18.585	0.528
424.000	282.487	80.001	20.008	100.526	20.056	18.589	0.478
424.500	282.795	80.001	20.008	100.530	20.053	18.900	0.476
425.000	283.006	80.001	20.008	100.524	20.055	18.752	0.519
425.500	283.265	80.002	20.008	100.517	20.054	18.848	0.494
426.000	283.540	80.000	20.008	100.507	20.053	18.882	0.502
426.500	283.821	80.002	20.008	100.505	20.050	19.267	0.545
427.000	284.056	80.000	20.008	100.506	20.052	19.076	0.536
427.500	284.307	80.002	20.008	100.517	20.047	19.586	0.501
428.000	284.547	80.002	20.008	100.529	20.048	19.437	0.488
428.500	284.773	80.001	20.008	100.536	20.046	19.673	0.478
429.000	285.056	80.002	20.008	100.532	20.048	19.446	0.487
429.500	285.230	80.001	20.008	100.524	20.047	19.599	0.483
430.000	285.526	80.001	20.008	100.512	20.045	19.792	0.464
430.500	285.835	80.002	20.008	100.503	20.045	19.807	0.537
431.000	286.051	80.001	20.008	100.504	20.044	19.835	0.565
431.500	286.302	80.002	20.008	100.513	20.044	19.857	0.496
432.000	286.560	80.000	20.008	100.522	20.043	20.028	0.488
432.500	286.841	80.001	20.007	100.530	20.040	20.270	0.524
433.000	287.087	80.002	20.008	100.535	20.041	20.202	0.533
433.500	287.378	80.000	20.008	100.529	20.043	19.957	0.532
434.000	287.632	80.002	20.008	100.519	20.041	20.189	0.541
434.500	287.842	80.001	20.008	100.511	20.041	20.176	0.504
435.000	288.067	80.001	20.008	100.510	20.041	20.233	0.450
435.500	288.325	80.003	20.008	100.512	20.039	20.356	0.459
436.000	288.561	80.001	20.008	100.520	20.039	20.437	0.488
436.500	288.836	80.002	20.007	100.531	20.036	20.680	0.502
437.000	289.094	80.001	20.008	100.538	20.038	20.547	0.522
437.500	289.329	80.003	20.008	100.533	20.037	20.559	0.513
438.000	289.622	80.003	20.008	100.524	20.037	20.644	0.510
438.500	289.853	80.000	20.008	100.514	20.038	20.518	0.526
439.000	290.123	80.003	20.008	100.506	20.034	20.939	0.513
439.500	290.364	80.001	20.008	100.506	20.035	20.874	0.506
440.000	290.622	80.001	20.008	100.514	20.035	20.852	0.505
440.500	290.859	80.001	20.008	100.524	20.035	20.814	0.497
441.000	291.110	80.003	20.008	100.532	20.032	21.100	0.492
441.500	291.362	80.000	20.008	100.529	20.033	20.990	0.495
442.000	291.584	80.003	20.008	100.522	20.033	21.086	0.488
442.500	291.855	80.002	20.008	100.514	20.033	21.073	0.483
443.000	292.094	80.001	20.008	100.511	20.032	21.159	0.502
443.500	292.347	80.002	20.008	100.511	20.032	21.177	0.501
444.000	292.589	80.002	20.008	100.519	20.031	21.278	0.493
444.500	292.805	80.001	20.007	100.526	20.031	21.296	0.476
445.000	293.128	80.002	20.008	100.530	20.028	21.596	0.499
445.500	293.342	80.002	20.008	100.522	20.028	21.515	0.538
446.000	293.586	80.002	20.008	100.514	20.029	21.413	0.497
446.500	293.834	80.003	20.008	100.507	20.027	21.685	0.475
447.000	294.115	80.000	20.008	100.504	20.027	21.670	0.511
447.500	294.303	80.003	20.008	100.506	20.026	21.783	0.500
448.000	294.605	80.002	20.008	100.514	20.028	21.579	0.480
448.500	294.799	80.002	20.008	100.520	20.026	21.769	0.493
449.000	295.085	80.001	20.008	100.524	20.028	21.569	0.488
449.500	295.336	80.001	20.008	100.519	20.026	21.810	0.509
450.000	295.610	80.002	20.008	100.511	20.024	21.953	0.531
450.500	295.881	80.002	20.008	100.503	20.024	21.929	0.535
451.000	296.097	80.002	20.008	100.496	20.026	21.732	0.516
451.500	296.356	80.003	20.008	100.497	20.026	21.797	0.481
452.000	296.630	80.001	20.008	100.510	20.024	21.949	0.503
452.500	296.870	80.002	20.008	100.524	20.026	21.805	0.523
453.000	297.135	80.002	20.007	100.537	20.025	21.904	0.510
453.500	297.409	80.002	20.008	100.546	20.024	21.963	0.522
454.000	297.655	80.002	20.008	100.546	20.024	21.969	0.530
454.500	297.906	80.003	20.008	100.541	20.025	21.886	0.509
455.000	298.162	80.002	20.008	100.535	20.023	22.054	0.502
455.500	298.359	80.001	20.008	100.536	20.024	21.953	0.480
456.000	298.662	80.002	20.008	100.544	20.022	22.159	0.477
456.500	298.900	80.004	20.008	100.554	20.022	22.224	0.520
457.000	299.174	80.001	20.008	100.559	20.023	22.066	0.526
457.500	299.416	80.001	20.008	100.560	20.019	22.503	0.514
458.000	299.671	80.002	20.008	100.555	20.020	22.439	0.506
458.500	299.943	80.003	20.008	100.547	20.020	22.436	0.512
459.000	300.165	80.002	20.008	100.539	20.018	22.606	0.510
459.500	300.420	80.002	20.008	100.536	20.016	22.790	0.486
460.000	300.651	80.003	20.008	100.538	20.018	22.587	0.482
460.500	300.927	80.001	20.008	100.539	20.018	22.594	0.496
461.000	301.165	80.001	20.008	100.539	20.017	22.701	0.510
461.500	301.452	80.002	20.008	100.536	20.015	22.884	0.520
462.000	301.661	80.003	20.008	100.532	20.015	22.932	0.511
462.500	301.958	80.002	20.008	100.527	20.015	22.944	0.501
463.000	302.150	80.002	20.008	100.525	20.014	22.987	0.497
463.500	302.421	80.002	20.008	100.527	20.015	22.908	0.476
464.000	302.676	80.001	20.008	100.536	20.015	22.955	0.495
464.500	302.917	80.001	20.008	100.542	20.014	23.014	0.511
465.000	303.177	80.002	20.008	100.545	20.014	23.006	0.499
465.500	303.423	80.002	20.008	100.545	20.012	23.283	0.504
466.000	303.686	80.002	20.008	100.544	20.012	23.254	0.507
466.500	303.923	80.001	20.008	100.538	20.009	23.557	0.504
467.000	304.183	80.002	20.008	100.535	20.010	23.464	0.499
467.500	304.406	80.001	20.008	100.540	20.009	23.563	0.490
468.000	304.684	80.001	20.008	100.548	20.009	23.574	0.492
468.500	304.944	80.003	20.008	100.553	20.007	23.776	0.520
469.000	305.202	80.000	20.008	100.554	20.006	23.904	0.528
469.500	305.457	80.003	20.008	100.558	20.005	24.013	0.515
470.000	305.667	80.001	20.008	100.555	20.002	24.239	0.489
470.500	305.922	80.002	20.008	100.554	20.001	24.344	0.465
471.000	306.186	80.002	20.007	100.556	20.002	24.278	0.492
471.500	306.462	80.001	20.008	100.561	19.998	24.724	0.529
472.000	306.697	80.002	20.008	100.561	19.999	24.633	0.526
472.500	306.961	80.003	20.008	100.560	20.000	24.461	0.506
473.000	307.214	80.000	20.008	100.553	19.997	24.774	0.508
473.500	307.462	80.003	20.008	100.545	19.995	24.984	0.509
474.000	307.715	80.002	20.008	100.538	19.992	25.337	0.501
474.500	307.977	80.001	20.008	100.535	19.988	25.745	0.508
475.000	308.197	80.001	20.008	100.538	19.989	25.652	0.498
475.500	308.442	80.003	20.008	100.545	19.987	25.848	0.473
476.000	308.693	80.001	20.008	100.547	19.982	26.352	0.480
476.500	308.955	80.001	20.008	100.542	19.982	26.423	0.505
477.000	309.211	80.002	20.008	100.534	19.979	26.657	0.516
477.500	309.473	80.003	20.008	100.532	19.979	26.678	0.518
478.000	309.747	80.001	20.008	100.526	19.977	26.906	0.527
478.500	309.956	80.001	20.008	100.532	19.975	27.096	0.510
479.000	310.242	80.002	20.008	100.542	19.973	27.274	0.489
479.500	310.477	80.002	20.008	100.550	19.973	27.367	0.508
480.000	310.775	80.003	20.008	100.547	19.973	27.296	0.527
480.500	311.023	80.002	20.008	100.538	19.968	27.804	0.540
481.000	311.304	80.001	20.008	100.526	19.968	27.895	0.538
481.500	311.499	80.001	20.008	100.517	19.964	28.258	0.502
482.000	311.775	80.001	20.008	100.516	19.963	28.388	0.474
482.500	312.019	80.002	20.008	100.520	19.962	28.521	0.496
483.000	312.249	80.002	20.008	100.527	19.960	28.655	0.497
483.500	312.544	80.003	20.007	100.529	19.955	29.214	0.499
484.000	312.788	80.002	20.008	100.524	19.954	29.315	0.532
484.500	313.066	80.002	20.009	100.516	19.952	29.527	0.530
485.000	313.335	80.002	20.008	100.508	19.946	30.119	0.535
485.500	313.559	80.002	20.008	100.501	19.944	30.397	0.521
486.000	313.810	80.002	20.008	100.503	19.942	30.605	0.484
486.500	314.072	80.003	20.008	100.511	19.939	30.901	0.494
487.000	314.288	80.002	20.008	100.519	19.940	30.805	0.496
487.500	314.538	80.002	20.007	100.523	19.938	30.996	0.473
488.000	314.774	80.001	20.008	100.522	19.934	31.373	0.476
488.500	315.072	80.003	20.008	100.515	19.931	31.727	0.509
489.000	315.346	80.002	20.008	100.511	19.929	31.889	0.553
489.500	315.573	80.002	20.008	100.512	19.926	32.242	0.537
490.000	315.816	80.002	20.008	100.515	19.922	32.681	0.486
490.500	316.047	80.001	20.008	100.523	19.920	32.860	0.472
491.000	316.315	80.003	20.007	100.530	19.916	33.279	0.486
491.500	316.541	80.002	20.008	100.527	19.915	33.410	0.497
492.000	316.786	80.002	20.008	100.519	19.909	34.018	0.483
492.500	317.037	80.002	20.008	100.513	19.905	34.412	0.484
493.000	317.308	80.003	20.009	100.513	19.901	34.931	0.509
493.500	317.557	80.002	20.008	100.514	19.898	35.237	0.521
494.000	317.821	80.001	20.007	100.521	19.893	35.694	0.517
494.500	318.059	80.002	20.007	100.527	19.890	36.047	0.507
495.000	318.353	80.001	20.008	100.525	19.887	36.361	0.517
495.500	318.584	80.003	20.008	100.518	19.881	36.991	0.529
496.000	318.832	80.001	20.008	100.514	19.879	37.225	0.502
496.500	319.118	80.003	20.008	100.513	19.872	37.975	0.506
497.000	319.352	80.001	20.008	100.519	19.869	38.280	0.527
497.500	319.591	80.003	20.008	100.533	19.865	38.627	0.497
498.000	319.850	80.001	20.007	100.540	19.861	39.070	0.485
498.500	320.078	80.002	20.008	100.541	19.856	39.552	0.492
499.000	320.350	80.003	20.008	100.533	19.850	40.221	0.494
499.500	320.588	80.002	20.008	100.521	19.851	40.164	0.505
500.000	320.866	80.002	20.008	100.508	19.844	40.813	0.513
500.500	321.063	80.003	20.008	100.506	19.840	41.230	0.495
501.000	321.321	80.002	20.008	100.507	19.837	41.618	0.465
501.500	321.561	80.002	20.008	100.514	19.831	42.222	0.477
502.000	321.793	80.003	20.008	100.522	19.822	43.172	0.485
502.500	322.060	80.002	20.008	100.524	19.814	44.009	0.486
503.000	322.320	80.003	20.008	100.516	19.803	45.146	0.513
503.500	322.553	80.004	20.008	100.509	19.798	45.713	0.509
504.000	322.778	80.002	20.009	100.502	19.789	46.642	0.475
504.500	323.129	80.001	20.008	100.502	19.780	47.530	0.517
505.000	323.343	80.002	20.008	100.512	19.772	48.467	0.571
505.500	323.598	80.002	20.008	100.529	19.766	49.061	0.517
506.000	323.856	80.002	20.008	100.543	19.755	50.238	0.491
506.500	324.073	80.002	20.008	100.550	19.750	50.778	0.494
507.000	324.339	80.003	20.009	100.544	19.743	51.448	0.479
507.500	324.552	80.002	20.008	100.539	19.737	52.062	0.480
508.000	324.869	80.002	20.008	100.531	19.730	52.807	0.504
508.500	325.087	80.002	20.008	100.531	19.724	53.469	0.533
509.000	325.284	80.002	20.008	100.537	19.721	53.740	0.475
509.500	325.572	80.002	20.008	100.542	19.716	54.272	0.450
510.000	325.863	80.002	20.008	100.541	19.712	54.756	0.532
510.500	326.059	80.002	20.008	100.533	19.706	55.373	0.533
511.000	326.347	80.002	20.008	100.513	19.701	55.875	0.485
511.500	326.586	80.003	20.008	100.501	19.694	56.635	0.506
512.000	326.818	80.002	20.008	100.499	19.690	57.014	0.499
512.500	327.062	80.003	20.008	100.501	19.682	57.883	0.474
513.000	327.305	80.002	20.008	100.507	19.676	58.533	0.481
513.500	327.575	80.003	20.007	100.511	19.667	59.466	0.500
514.000	327.795	80.002	20.008	100.507	19.660	60.180	0.501
514.500	328.045	80.004	20.008	100.493	19.654	60.800	0.480
515.000	328.286	80.001	20.008	100.478	19.645	61.723	0.480
515.500	328.505	80.003	20.008	100.471	19.633	62.926	0.475
516.000	328.775	80.002	20.008	100.471	19.621	64.226	0.475
516.500	329.173	80.002	20.008	100.485	19.610	65.377	0.579
517.000	329.375	80.003	20.008	100.506	19.598	66.591	0.634
517.500	329.463	80.001	20.008	100.527	19.586	67.835	0.445
518.000	329.756	80.002	20.008	100.541	19.575	68.990	0.335
518.500	330.078	80.002	20.008	100.549	19.561	70.529	0.498
519.000	330.332	80.003	20.008	100.549	19.548	71.796	0.595
519.500	330.619	80.004	20.009	100.547	19.535	73.259	0.559
520.000	330.863	80.001	20.008	100.549	19.520	74.776	0.536
520.500	331.117	80.004	20.009	100.552	19.505	76.405	0.514
521.000	331.318	80.002	20.008	100.560	19.490	77.987	0.476
521.500	331.561	80.001	20.008	100.564	19.480	79.047	0.450
522.000	331.908	80.002	20.008	100.567	19.464	80.699	0.517
522.500	331.946	80.002	20.008	100.564	19.450	82.131	0.487
523.000	332.304	80.002	20.008	100.561	19.440	83.264	0.391
523.500	332.523	80.003	20.008	100.562	19.430	84.308	0.487
524.000	332.758	80.001	20.008	100.566	19.420	85.398	0.515
524.500	333.025	80.003	20.008	100.573	19.411	86.311	0.478
525.000	333.301	80.000	20.008	100.577	19.399	87.532	0.522
525.500	333.541	80.003	20.008	100.573	19.389	88.601	0.529
526.000	333.772	80.002	20.008	100.558	19.382	89.376	0.494
526.500	333.974	80.002	20.008	100.538	19.373	90.311	0.453
527.000	334.249	80.002	20.008	100.509	19.362	91.461	0.455
527.500	334.511	80.002	20.008	100.490	19.355	92.196	0.507
528.000	334.724	80.002	20.008	100.482	19.347	93.075	0.506
528.500	335.002	80.002	20.008	100.480	19.337	94.146	0.483
529.000	335.285	80.002	20.008	100.483	19.329	94.982	0.525
529.500	335.483	80.002	20.008	100.485	19.319	96.007	0.521
530.000	335.748	80.003	20.008	100.475	19.309	97.080	0.472
530.500	336.005	80.002	20.008	100.461	19.299	98.057	0.493
531.000	336.205	80.003	20.009	100.445	19.289	99.108	0.490
531.500	336.490	80.002	20.008	100.435	19.279	100.201	0.471
532.000	336.715	80.002	20.008	100.435	19.271	101.012	0.498
532.500	336.992	80.003	20.008	100.447	19.259	102.273	0.506
533.000	337.160	80.002	20.008	100.461	19.252	102.957	0.473
533.500	337.462	80.001	20.008	100.476	19.240	104.255	0.457
534.000	337.674	80.001	20.008	100.486	19.228	105.423	0.492
534.500	337.950	80.003	20.008	100.492	19.218	106.468	0.501
535.000	338.178	80.002	20.008	100.493	19.207	107.681	0.496
535.500	338.449	80.003	20.008	100.500	19.195	108.865	0.502
536.000	338.689	80.002	20.009	100.511	19.184	110.093	0.505
536.500	338.937	80.003	20.008	100.527	19.170	111.518	0.499
537.000	339.220	80.003	20.008	100.542	19.151	113.467	0.510
537.500	339.477	80.002	20.008	100.554	19.136	115.086	0.536
538.000	339.708	80.002	20.008	100.556	19.121	116.670	0.514
538.500	340.011	80.002	20.009	100.554	19.104	118.380	0.510
539.000	340.215	80.003	20.008	100.551	19.089	119.992	0.520
539.500	340.503	80.002	20.008	100.552	19.075	121.555	0.500
540.000	340.735	80.002	20.008	100.563	19.060	123.143	0.506
540.500	340.957	80.002	20.008	100.579	19.046	124.647	0.487
541.000	341.204	80.002	20.008	100.594	19.034	125.887	0.462
541.500	341.457	80.002	20.008	100.606	19.023	127.017	0.484
542.000	341.623	80.001	20.008	100.605	19.015	127.908	0.459
542.500	341.911	80.003	20.008	100.594	19.003	129.092	0.436
543.000	342.180	80.002	20.008	100.580	18.996	129.916	0.506
543.500	342.411	80.003	20.008	100.565	18.985	131.074	0.529
544.000	342.698	80.002	20.008	100.556	18.974	132.196	0.509
544.500	342.897	80.001	20.008	100.555	18.965	133.148	0.502
545.000	343.205	80.002	20.008	100.553	18.954	134.299	0.496
545.500	343.442	80.003	20.008	100.550	18.945	135.261	0.526
546.000	343.659	80.001	20.008	100.544	18.934	136.379	0.499
546.500	343.917	80.002	20.008	100.529	18.925	137.325	0.465
547.000	344.185	80.003	20.008	100.512	18.916	138.219	0.501
547.500	344.365	80.002	20.008	100.500	18.910	138.944	0.487
548.000	344.645	80.002	20.008	100.493	18.899	140.075	0.454
548.500	344.938	80.002	20.008	100.491	18.889	141.136	0.516
549.000	345.152	80.002	20.008	100.492	18.882	141.880	0.540
549.500	345.410	80.003	20.008	100.492	18.872	142.937	0.490
550.000	345.600	80.002	20.008	100.487	18.863	143.855	0.460
550.500	345.851	80.002	20.008	100.483	18.851	145.070	0.444
551.000	346.115	80.002	20.008	100.480	18.844	145.770	0.478
551.500	346.410	80.003	20.008	100.484	18.830	147.292	0.537
552.000	346.604	80.002	20.008	100.498	18.820	148.400	0.524
552.500	346.870	80.002	20.008	100.519	18.811	149.318	0.475
553.000	347.113	80.002	20.008	100.539	18.801	150.355	0.484
553.500	347.340	80.001	20.007	100.556	18.794	151.020	0.489
554.000	347.611	80.003	20.008	100.567	18.783	152.231	0.484
554.500	347.870	80.003	20.008	100.570	18.777	152.775	0.514
555.000	348.107	80.001	20.008	100.570	18.768	153.769	0.513
555.500	348.339	80.002	20.008	100.569	18.760	154.570	0.483
556.000	348.573	80.002	20.008	100.570	18.750	155.679	0.468
556.500	348.857	80.003	20.008	100.578	18.737	157.034	0.492
557.000	349.088	80.003	20.008	100.584	18.726	158.211	0.516
557.500	349.294	80.002	20.008	100.588	18.716	159.223	0.476
558.000	349.620	80.002	20.008	100.588	18.707	160.183	0.485
558.500	349.881	80.002	20.008	100.582	18.697	161.184	0.559
559.000	350.132	80.002	20.008	100.571	18.686	162.354	0.549
559.500	350.309	80.003	20.008	100.564	18.676	163.498	0.470
560.000	350.563	80.002	20.008	100.562	18.664	164.791	0.429
560.500	350.817	80.003	20.008	100.571	18.654	165.849	0.469
561.000	351.067	80.002	20.008	100.582	18.643	166.965	0.506
561.500	351.336	80.002	20.008	100.592	18.634	167.958	0.512
562.000	351.570	80.003	20.009	100.592	18.622	169.139	0.511
562.500	351.842	80.002	20.008	100.590	18.616	169.796	0.504
563.000	352.102	80.002	20.008	100.582	18.604	170.991	0.519
563.500	352.354	80.003	20.009	100.574	18.597	171.797	0.522
564.000	352.623	80.002	20.008	100.571	18.589	172.628	0.517
564.500	352.909	80.003	20.008	100.578	18.583	173.244	0.538
565.000	353.130	80.002	20.008	100.584	18.574	174.153	0.531
565.500	353.397	80.003	20.008	100.584	18.567	174.893	0.498
566.000	353.598	80.003	20.008	100.579	18.560	175.689	0.478
566.500	353.896	80.003	20.008	100.568	18.553	176.330	0.484
567.000	354.102	80.002	20.008	100.553	18.546	177.174	0.501
567.500	354.306	80.003	20.008	100.544	18.537	178.083	0.457
568.000	354.556	80.002	20.008	100.546	18.529	178.962	0.432
568.500	354.817	80.004	20.008	100.557	18.523	179.609	0.482
569.000	355.074	80.002	20.008	100.567	18.514	180.468	0.514
569.500	355.325	80.002	20.008	100.574	18.505	181.441	0.513
570.000	355.610	80.002	20.008	100.572	18.495	182.410	0.522
570.500	355.865	80.002	20.008	100.563	18.486	183.451	0.539
571.000	356.115	80.003	20.009	100.553	18.478	184.264	0.523
571.500	356.387	80.003	20.008	100.550	18.467	185.481	0.513
572.000	356.598	80.002	20.008	100.557	18.460	186.255	0.502
572.500	356.855	80.001	20.008	100.576	18.452	187.067	0.475
573.000	357.121	80.003	20.008	100.596	18.445	187.834	0.496
573.500	357.383	80.003	20.008	100.610	18.438	188.505	0.526
574.000	357.640	80.003	20.008	100.612	18.431	189.280	0.524
574.500	357.879	80.002	20.008	100.604	18.426	189.860	0.508
575.000	358.124	80.002	20.008	100.592	18.418	190.636	0.490
575.500	358.374	80.003	20.008	100.585	18.414	191.153	0.489
576.000	358.612	80.002	20.008	100.585	18.408	191.701	0.491
576.500	358.865	80.002	20.008	100.592	18.406	191.959	0.490
577.000	359.158	80.002	20.008	100.601	18.400	192.549	0.518
577.500	359.393	80.003	20.008	100.602	18.398	192.787	0.537
578.000	359.655	80.002	20.008	100.596	18.392	193.406	0.513
578.500	359.936	80.002	20.008	100.588	18.388	193.884	0.520
579.000	360.139	80.002	20.008	100.582	18.386	194.057	0.513
579.500	360.408	80.001	20.008	100.582	18.382	194.471	0.478
580.000	360.655	80.003	20.008	100.589	18.378	194.888	0.494
580.500	360.880	80.002	20.008	100.597	18.375	195.214	0.494
581.000	361.165	80.002	20.008	100.600	18.371	195.655	0.491
581.500	361.406	80.002	20.008	100.599	18.371	195.604	0.517
582.000	361.701	80.003	20.008	100.588	18.364	196.326	0.531
582.500	361.909	80.002	20.008	100.580	18.363	196.488	0.520
583.000	362.178	80.002	20.008	100.577	18.358	196.987	0.490
583.500	362.426	80.003	20.008	100.585	18.354	197.393	0.497
584.000	362.665	80.002	20.008	100.600	18.350	197.839	0.502
584.500	362.904	80.002	20.008	100.618	18.347	198.042	0.483
585.000	363.160	80.002	20.008	100.628	18.345	198.270	0.487
585.500	363.467	80.003	20.008	100.632	18.340	198.745	0.529
586.000	363.670	80.001	20.008	100.629	18.340	198.723	0.537
586.500	363.932	80.002	20.008	100.629	18.339	198.765	0.488
587.000	364.162	80.001	20.008	100.630	18.332	199.575	0.478
587.500	364.409	80.002	20.008	100.642	18.331	199.614	0.484
588.000	364.708	80.001	20.008	100.656	18.329	199.929	0.512
588.500	364.954	80.002	20.008	100.664	18.326	200.164	0.545
589.000	365.225	80.002	20.008	100.663	18.322	200.569	0.531
589.500	365.427	80.001	20.007	100.659	18.321	200.740	0.495
590.000	365.627	80.002	20.008	100.652	18.318	201.092	0.438
590.500	365.903	80.002	20.008	100.648	18.311	201.763	0.439
591.000	366.159	80.002	20.008	100.656	18.307	202.233	0.504
591.500	366.402	80.003	20.008	100.665	18.302	202.780	0.516
592.000	366.693	80.003	20.008	100.676	18.298	203.255	0.516
592.500	366.931	80.003	20.008	100.679	18.296	203.430	0.531
593.000	367.159	80.001	20.008	100.677	18.294	203.745	0.498
593.500	367.470	80.001	20.007	100.663	18.292	203.963	0.503
594.000	367.658	80.002	20.008	100.649	18.292	203.982	0.519
594.500	367.927	80.002	20.008	100.645	18.295	203.648	0.478
595.000	368.190	80.002	20.008	100.651	18.300	203.145	0.494
595.500	368.458	80.002	20.007	100.655	18.306	202.577	0.532
596.000	368.669	80.002	20.007	100.657	18.309	202.211	0.505
596.500	368.940	80.000	20.008	100.655	18.317	201.289	0.480
597.000	369.237	80.003	20.008	100.641	18.322	200.786	0.525
597.500	369.446	80.002	20.008	100.617	18.325	200.435	0.537
598.000	369.736	80.002	20.008	100.592	18.329	200.031	0.502
598.500	370.009	80.002	20.008	100.573	18.336	199.352	0.530
599.000	370.179	80.002	20.008	100.565	18.341	198.952	0.503
599.500	370.485	80.002	20.008	100.570	18.348	198.215	0.459
600.000	370.721	80.002	20.008	100.575	18.355	197.524	0.509
600.500	370.962	80.001	20.007	100.577	18.362	196.746	0.510
601.000	371.215	80.002	20.010	100.582	18.370	195.900	0.486
601.500	371.437	80.002	20.007	100.587	18.375	195.294	0.484
602.000	371.706	80.003	20.009	100.577	18.382	194.594	0.483
602.500	371.926	80.002	20.007	100.576	18.384	194.349	0.490
603.000	372.158	80.002	20.008	100.582	18.394	193.280	0.470
603.500	372.454	80.002	20.008	100.594	18.401	192.537	0.490
604.000	372.749	80.001	20.009	100.604	18.407	191.918	0.560
604.500	372.988	80.002	20.007	100.618	18.416	190.888	0.563
605.000	373.234	80.002	20.009	100.621	18.425	190.005	0.510
605.500	373.514	80.004	20.009	100.634	18.436	188.829	0.506
606.000	373.793	80.001	20.007	100.648	18.445	187.860	0.542
606.500	374.003	80.001	20.008	100.656	18.450	187.310	0.524
607.000	374.277	80.003	20.008	100.669	18.454	186.871	0.487
607.500	374.491	80.003	20.007	100.693	18.463	185.828	0.486
608.000	374.735	80.002	20.008	100.704	18.466	185.521	0.473
608.500	374.972	80.001	20.008	100.700	18.470	185.112	0.469
609.000	375.264	80.003	20.008	100.688	18.471	184.993	0.505
609.500	375.510	80.001	20.010	100.666	18.466	185.412	0.534
610.000	375.802	80.000	20.008	100.657	18.468	185.296	0.538
610.500	376.001	80.001	20.008	100.654	18.471	184.953	0.514
611.000	376.273	80.002	20.007	100.670	18.469	185.245	0.481
611.500	376.500	80.001	20.008	100.699	18.473	184.832	0.485
612.000	376.763	80.002	20.008	100.738	18.483	183.762	0.494
612.500	377.055	80.001	20.007	100.750	18.489	183.144	0.523
613.000	377.265	80.003	20.010	100.748	18.497	182.278	0.529
613.500	377.474	80.002	20.008	100.747	18.507	181.209	0.460
614.000	377.726	80.002	20.007	100.739	18.513	180.598	0.440
614.500	378.023	80.002	20.009	100.721	18.522	179.674	0.505
615.000	378.309	80.003	20.007	100.717	18.527	179.162	0.566
615.500	378.548	80.002	20.009	100.718	18.537	178.182	0.554
616.000	378.762	80.001	20.009	100.710	18.544	177.407	0.489
616.500	379.026	80.002	20.007	100.699	18.551	176.736	0.465
617.000	379.331	80.003	20.008	100.670	18.560	175.787	0.524
617.500	379.576	80.002	20.013	100.645	18.572	174.593	0.560
618.000	379.819	80.001	20.009	100.667	18.582	173.492	0.519
618.500	380.074	80.002	20.007	100.665	18.595	172.130	0.493
619.000	380.383	80.002	20.009	100.641	18.608	170.851	0.531
619.500	380.582	80.002	20.011	100.651	18.622	169.415	0.536
620.000	380.822	80.001	20.007	100.659	18.636	167.936	0.474
620.500	381.074	80.003	20.008	100.601	18.653	166.105	0.465
621.000	381.327	80.001	20.010	100.565	18.672	164.153	0.499
621.500	381.612	80.003	20.007	100.568	18.689	162.390	0.521
622.000	381.855	80.001	20.008	100.561	18.706	160.511	0.532
622.500	382.077	80.001	20.008	100.552	18.724	158.615	0.497
623.000	382.338	80.002	20.007	100.571	18.740	156.989	0.475
623.500	382.584	80.002	20.008	100.590	18.758	155.089	0.495
624.000	382.856	80.002	20.007	100.599	18.771	153.640	0.512
624.500	383.117	80.002	20.009	100.607	18.785	152.234	0.526
625.000	383.385	80.001	20.007	100.610	18.802	150.463	0.531
625.500	383.647	80.003	20.008	100.604	18.818	148.774	0.529
626.000	383.921	80.001	20.008	100.598	18.835	146.903	0.533
626.500	384.177	80.002	20.007	100.597	18.847	145.700	0.533
627.000	384.421	80.001	20.008	100.604	18.858	144.525	0.515
627.500	384.642	80.002	20.007	100.614	18.876	142.632	0.483
628.000	384.926	80.002	20.008	100.629	18.888	141.317	0.485
628.500	385.199	80.002	20.008	100.642	18.902	139.837	0.531
629.000	385.466	80.002	20.008	100.650	18.915	138.513	0.549
629.500	385.693	80.003	20.008	100.653	18.929	137.050	0.517
630.000	385.991	80.002	20.007	100.661	18.942	135.677	0.509
630.500	386.256	80.002	20.008	100.673	18.953	134.559	0.544
631.000	386.512	80.004	20.008	100.689	18.965	133.220	0.543
631.500	386.797	80.002	20.008	100.705	18.980	131.630	0.531
632.000	387.017	80.002	20.008	100.719	18.992	130.420	0.522
632.500	387.258	80.003	20.008	100.725	19.005	129.021	0.483
633.000	387.504	80.002	20.008	100.730	19.017	127.833	0.474
633.500	387.774	80.002	20.008	100.730	19.028	126.663	0.502
634.000	388.022	80.002	20.008	100.729	19.040	125.348	0.517
634.500	388.249	80.002	20.008	100.731	19.053	124.049	0.496
635.000	388.499	80.003	20.008	100.731	19.067	122.566	0.476
635.500	388.773	80.001	20.007	100.723	19.077	121.438	0.500
636.000	389.041	80.002	20.008	100.714	19.089	120.191	0.533
636.500	389.266	80.002	20.008	100.707	19.107	118.324	0.518
637.000	389.546	80.002	20.008	100.697	19.119	117.012	0.499
637.500	389.816	80.001	20.008	100.692	19.133	115.566	0.528
638.000	390.069	80.002	20.007	100.697	19.144	114.447	0.537
638.500	390.322	80.002	20.007	100.699	19.156	113.103	0.514
639.000	390.573	80.002	20.007	100.697	19.171	111.611	0.505
639.500	390.868	80.002	20.008	100.689	19.182	110.434	0.525
640.000	391.137	80.002	20.008	100.680	19.194	109.085	0.555
640.500	391.331	80.002	20.008	100.668	19.206	107.890	0.514
641.000	391.576	80.002	20.008	100.658	19.219	106.449	0.451
641.500	391.863	80.002	20.008	100.658	19.231	105.278	0.486
642.000	392.121	80.001	20.008	100.665	19.241	104.191	0.538
642.500	392.322	80.002	20.008	100.673	19.251	103.171	0.502
643.000	392.626	80.002	20.007	100.674	19.262	102.041	0.482
643.500	392.836	80.002	20.008	100.674	19.273	100.859	0.509
644.000	393.073	80.002	20.008	100.669	19.285	99.621	0.481
644.500	393.365	80.003	20.008	100.661	19.295	98.593	0.488
645.000	393.586	80.002	20.008	100.660	19.306	97.415	0.521
645.500	393.861	80.002	20.008	100.667	19.315	96.428	0.505
646.000	394.101	80.000	20.008	100.675	19.329	94.976	0.506
646.500	394.339	80.003	20.007	100.682	19.344	93.471	0.496
647.000	394.606	80.002	20.008	100.681	19.357	92.036	0.491
647.500	394.853	80.001	20.008	100.673	19.371	90.555	0.510
648.000	395.096	80.001	20.008	100.664	19.388	88.834	0.502
648.500	395.367	80.002	20.008	100.651	19.400	87.537	0.502
649.000	395.644	80.002	20.008	100.644	19.411	86.358	0.531
649.500	395.889	80.000	20.008	100.645	19.426	84.829	0.535
650.000	396.126	80.003	20.008	100.647	19.440	83.331	0.502
650.500	396.393	80.002	20.007	100.648	19.457	81.601	0.493
651.000	396.590	80.002	20.007	100.649	19.469	80.262	0.484
651.500	396.852	80.002	20.008	100.639	19.480	79.133	0.461
652.000	397.075	80.002	20.008	100.621	19.493	77.730	0.472
652.500	397.378	80.003	20.008	100.605	19.506	76.378	0.506
653.000	397.634	80.001	20.008	100.596	19.523	74.579	0.543
653.500	397.903	80.001	20.008	100.592	19.538	73.079	0.542
654.000	398.134	80.001	20.007	100.601	19.548	71.999	0.512
654.500	398.395	80.002	20.007	100.614	19.565	70.222	0.496
655.000	398.641	80.002	20.008	100.624	19.576	69.025	0.499
655.500	398.884	80.002	20.008	100.623	19.588	67.773	0.497
656.000	399.089	80.002	20.008	100.621	19.597	66.844	0.468
656.500	399.389	80.003	20.008	100.617	19.614	65.042	0.477
657.000	399.662	80.001	20.008	100.620	19.624	63.988	0.540
657.500	399.912	80.002	20.008	100.632	19.635	62.819	0.548
658.000	400.131	80.002	20.007	100.649	19.646	61.701	0.496
658.500	400.389	80.002	20.007	100.663	19.657	60.521	0.473
659.000	400.618	80.002	20.008	100.670	19.667	59.475	0.483
659.500	400.924	80.001	20.007	100.665	19.677	58.418	0.511
660.000	401.115	80.000	20.008	100.651	19.688	57.265	0.516
660.500	401.370	80.003	20.008	100.636	19.698	56.253	0.471
661.000	401.627	80.002	20.008	100.629	19.709	55.082	0.478
661.500	401.874	80.002	20.008	100.634	19.718	54.081	0.508
662.000	402.079	80.001	20.007	100.648	19.728	53.128	0.479
662.500	402.394	80.003	20.008	100.664	19.736	52.254	0.486
663.000	402.658	80.001	20.007	100.676	19.745	51.255	0.549
663.500	402.886	80.002	20.007	100.677	19.755	50.289	0.536
664.000	403.098	80.002	20.008	100.671	19.766	49.115	0.466
664.500	403.371	80.001	20.008	100.658	19.773	48.348	0.462
665.000	403.584	80.002	20.008	100.646	19.781	47.495	0.485
665.500	403.847	80.001	20.007	100.643	19.792	46.305	0.481
666.000	404.080	80.002	20.008	100.647	19.802	45.309	0.486
666.500	404.349	80.001	20.008	100.654	19.807	44.771	0.499
667.000	404.588	80.003	20.007	100.661	19.816	43.798	0.505
667.500	404.774	80.002	20.008	100.665	19.822	43.183	0.467
668.000	404.992	80.002	20.007	100.657	19.830	42.317	0.415
668.500	405.236	80.002	20.008	100.645	19.839	41.416	0.433
669.000	405.538	80.003	20.008	100.632	19.845	40.722	0.504
669.500	405.815	80.001	20.008	100.622	19.853	39.878	0.562
670.000	406.003	80.002	20.008	100.621	19.861	39.131	0.522
670.500	406.312	80.002	20.008	100.629	19.868	38.389	0.481
671.000	406.547	80.002	20.008	100.637	19.872	37.929	0.520
671.500	406.820	80.002	20.008	100.645	19.880	37.125	0.526
672.000	407.046	80.001	20.007	100.652	19.887	36.361	0.504
672.500	407.323	80.002	20.008	100.646	19.895	35.548	0.501
673.000	407.509	80.002	20.008	100.637	19.897	35.286	0.483
673.500	407.795	80.002	20.008	100.628	19.906	34.383	0.467
674.000	407.962	80.002	20.008	100.622	19.912	33.750	0.462
674.500	408.240	80.001	20.008	100.621	19.917	33.166	0.449
675.000	408.527	80.001	20.008	100.627	19.926	32.279	0.505
675.500	408.736	80.002	20.008	100.635	19.930	31.847	0.530
676.000	409.026	80.003	20.008	100.643	19.934	31.399	0.497
676.500	409.225	80.000	20.008	100.643	19.939	30.907	0.494
677.000	409.486	80.002	20.007	100.632	19.944	30.414	0.475
677.500	409.738	80.002	20.008	100.616	19.950	29.766	0.487
678.000	410.023	80.001	20.008	100.601	19.954	29.321	0.525
678.500	410.200	80.001	20.008	100.588	19.959	28.767	0.499
679.000	410.437	80.002	20.008	100.587	19.964	28.303	0.438
679.500	410.726	80.001	20.008	100.589	19.969	27.801	0.470
680.000	410.959	80.001	20.007	100.597	19.972	27.430	0.524
680.500	411.240	80.001	20.008	100.601	19.977	26.887	0.518
681.000	411.458	80.002	20.008	100.598	19.981	26.485	0.506
681.500	411.728	80.002	20.008	100.587	19.983	26.308	0.493
682.000	411.996	80.001	20.008	100.571	19.986	25.951	0.513
682.500	412.223	80.002	20.008	100.556	19.995	24.986	0.517
683.000	412.491	80.002	20.008	100.547	19.999	24.630	0.495
683.500	412.706	80.000	20.008	100.548	20.003	24.208	0.488
684.000	412.971	80.004	20.007	100.550	20.005	23.926	0.481
684.500	413.201	80.000	20.008	100.558	20.010	23.442	0.488
685.000	413.482	80.002	20.007	100.566	20.015	22.923	0.504
685.500	413.710	80.002	20.007	100.569	20.016	22.809	0.510
686.000	413.971	80.000	20.008	100.561	20.022	22.155	0.499
686.500	414.231	80.001	20.008	100.554	20.026	21.819	0.505
687.000	414.466	80.001	20.008	100.545	20.027	21.705	0.508
687.500	414.689	80.003	20.008	100.541	20.033	21.061	0.476
688.000	414.923	80.001	20.008	100.543	20.036	20.704	0.457
688.500	415.191	80.001	20.008	100.550	20.043	19.935	0.480
689.000	415.440	80.001	20.008	100.556	20.042	20.125	0.510
689.500	415.647	80.001	20.008	100.565	20.048	19.446	0.486
690.000	415.927	80.001	20.008	100.568	20.049	19.375	0.472
690.500	416.127	80.002	20.008	100.561	20.053	18.897	0.484
691.000	416.402	80.002	20.008	100.554	20.054	18.831	0.477
691.500	416.618	80.002	20.008	100.548	20.056	18.595	0.483
692.000	416.868	80.001	20.008	100.547	20.059	18.293	0.479
692.500	417.173	80.002	20.008	100.549	20.063	17.896	0.511
693.000	417.363	80.001	20.008	100.557	20.068	17.315	0.525
693.500	417.645	80.003	20.007	100.565	20.068	17.326	0.483
694.000	417.836	80.002	20.008	100.570	20.071	17.031	0.473
694.500	418.107	80.002	20.008	100.564	20.072	16.953	0.468
695.000	418.364	80.000	20.008	100.555	20.077	16.405	0.495
695.500	418.592	80.003	20.008	100.546	20.077	16.459	0.506
696.000	418.822	80.002	20.008	100.539	20.081	15.994	0.471
696.500	419.089	80.001	20.008	100.536	20.079	16.161	0.478
697.000	419.311	80.003	20.008	100.543	20.080	16.121	0.493
697.500	419.562	80.001	20.008	100.551	20.083	15.828	0.481
698.000	419.834	80.003	20.008	100.558	20.085	15.605	0.498
698.500	420.069	80.001	20.008	100.557	20.084	15.721	0.515
699.000	420.334	80.001	20.008	100.554	20.088	15.228	0.503
699.500	420.545	80.002	20.008	100.540	20.089	15.171	0.488
700.000	420.837	80.001	20.008	100.526	20.091	14.920	0.489
700.500	421.051	80.001	20.008	100.518	20.095	14.580	0.504
701.000	421.305	80.002	20.008	100.519	20.096	14.388	0.487
701.500	421.565	80.002	20.008	100.521	20.097	14.344	0.491
702.000	421.782	80.001	20.008	100.528	20.095	14.525	0.496
702.500	422.029	80.003	20.008	100.535	20.097	14.324	0.470
703.000	422.296	80.002	20.007	100.535	20.099	14.063	0.489
703.500	422.524	80.002	20.008	100.528	20.102	13.821	0.504
704.000	422.800	80.001	20.008	100.519	20.103	13.660	0.499
704.500	423.080	80.002	20.008	100.510	20.104	13.558	0.530
705.000	423.326	80.001	20.008	100.509	20.107	13.234	0.541
705.500	423.533	80.003	20.008	100.510	20.108	13.174	0.490
706.000	423.778	80.001	20.008	100.521	20.110	12.954	0.452
706.500	424.029	80.002	20.008	100.534	20.112	12.780	0.474
707.000	424.305	80.002	20.008	100.542	20.109	13.030	0.512
707.500	424.484	80.001	20.008	100.543	20.110	12.945	0.491
708.000	424.753	80.002	20.008	100.537	20.113	12.689	0.452
708.500	425.018	80.002	20.008	100.529	20.115	12.397	0.491
709.000	425.249	80.002	20.008	100.522	20.114	12.566	0.515
709.500	425.547	80.001	20.008	100.521	20.116	12.281	0.512
710.000	425.758	80.002	20.008	100.522	20.115	12.467	0.519
710.500	425.969	80.003	20.008	100.532	20.115	12.392	0.465
711.000	426.247	80.001	20.008	100.540	20.121	11.846	0.455
711.500	426.495	80.002	20.008	100.542	20.123	11.627	0.507
712.000	426.722	80.003	20.008	100.542	20.124	11.534	0.501
712.500	426.972	80.001	20.008	100.543	20.126	11.246	0.476
713.000	427.176	80.001	20.008	100.538	20.126	11.247	0.465
713.500	427.444	80.001	20.008	100.534	20.130	10.880	0.463
714.000	427.625	80.003	20.008	100.537	20.128	11.013	0.461
714.500	427.886	80.002	20.008	100.545	20.131	10.771	0.446
715.000	428.184	80.002	20.008	100.552	20.134	10.484	0.501
715.500	428.359	80.002	20.008	100.559	20.135	10.363	0.516
716.000	428.668	80.002	20.008	100.560	20.134	10.410	0.479
716.500	428.907	80.002	20.008	100.559	20.137	10.158	0.516
717.000	429.173	80.001	20.008	100.550	20.139	9.938	0.526
717.500	429.396	80.003	20.008	100.538	20.135	10.292	0.497
718.000	429.635	80.002	20.008	100.531	20.137	10.098	0.476
718.500	429.827	80.003	20.008	100.530	20.137	10.069	0.446
719.000	430.128	80.001	20.008	100.530	20.136	10.275	0.462
719.500	430.386	80.002	20.008	100.532	20.138	10.043	0.526
720.000	430.612	80.001	20.008	100.534	20.139	9.942	0.522
720.500	430.840	80.001	20.008	100.528	20.140	9.794	0.469
721.000	431.041	80.003	20.008	100.520	20.137	10.150	0.441
721.500	431.322	80.002	20.008	100.505	20.143	9.452	0.455
722.000	431.587	80.003	20.009	100.488	20.143	9.473	0.514
722.500	431.832	80.002	20.008	100.477	20.144	9.354	0.528
723.000	432.037	80.003	20.008	100.475	20.147	9.061	0.480
723.500	432.263	80.001	20.008	100.479	20.146	9.168	0.440
724.000	432.545	80.002	20.008	100.488	20.148	8.976	0.469
724.500	432.747	80.002	20.008	100.497	20.148	8.950	0.496
725.000	433.035	80.001	20.008	100.499	20.146	9.200	0.487
725.500	433.319	80.002	20.008	100.495	20.148	8.961	0.531
726.000	433.521	80.002	20.009	100.484	20.148	8.973	0.529
726.500	433.757	80.001	20.008	100.476	20.151	8.614	0.462
727.000	434.045	80.002	20.009	100.472	20.148	8.927	0.481
727.500	434.300	80.003	20.008	100.472	20.148	8.936	0.534
728.000	434.485	80.001	20.008	100.477	20.153	8.460	0.491
728.500	434.771	80.002	20.008	100.488	20.152	8.518	0.455
729.000	435.004	80.001	20.008	100.492	20.152	8.531	0.494
729.500	435.281	80.002	20.008	100.495	20.152	8.511	0.515
730.000	435.516	80.001	20.008	100.494	20.155	8.280	0.511
730.500	435.780	80.002	20.009	100.486	20.156	8.093	0.506
731.000	436.022	80.002	20.009	100.475	20.156	8.104	0.502
731.500	436.297	80.003	20.009	100.473	20.158	7.904	0.511
732.000	436.491	80.002	20.008	100.472	20.157	8.026	0.493
732.500	436.799	80.002	20.009	100.473	20.158	7.929	0.486
733.000	437.042	80.001	20.009	100.481	20.159	7.802	0.527
733.500	437.253	80.001	20.008	100.490	20.162	7.461	0.503
734.000	437.542	80.002	20.009	100.487	20.162	7.482	0.477
734.500	437.743	80.002	20.009	100.479	20.162	7.513	0.495
735.000	437.947	80.002	20.009	100.473	20.162	7.448	0.447
735.500	438.279	80.003	20.009	100.472	20.160	7.696	0.470
736.000	438.517	80.001	20.009	100.471	20.162	7.524	0.553
736.500	438.729	80.002	20.008	100.479	20.164	7.301	0.510
737.000	438.983	80.001	20.008	100.487	20.163	7.366	0.458
737.500	439.223	80.001	20.008	100.493	20.164	7.278	0.480
738.000	439.522	80.002	20.009	100.492	20.167	6.945	0.517
738.500	439.764	80.003	20.008	100.489	20.164	7.310	0.541
739.000	440.019	80.001	20.009	100.483	20.168	6.873	0.519
739.500	440.286	80.002	20.009	100.479	20.167	7.019	0.509
740.000	440.580	80.001	20.009	100.479	20.167	6.964	0.541
740.500	440.761	80.002	20.009	100.480	20.167	6.937	0.518
741.000	441.002	80.002	20.009	100.484	20.170	6.623	0.449
741.500	441.259	80.001	20.008	100.491	20.173	6.342	0.460
742.000	441.532	80.002	20.009	100.495	20.170	6.628	0.514
742.500	441.753	80.001	20.009	100.493	20.169	6.721	0.512
743.000	441.986	80.003	20.009	100.486	20.171	6.562	0.474
743.500	442.180	80.001	20.009	100.477	20.172	6.463	0.440
744.000	442.488	80.001	20.009	100.469	20.171	6.554	0.464
744.500	442.758	80.003	20.009	100.468	20.173	6.394	0.540
745.000	442.977	80.002	20.008	100.470	20.171	6.563	0.534
745.500	443.246	80.002	20.009	100.477	20.172	6.426	0.489
746.000	443.464	80.001	20.009	100.485	20.171	6.524	0.487
746.500	443.721	80.002	20.009	100.489	20.173	6.380	0.481
747.000	443.997	80.002	20.009	100.484	20.175	6.171	0.504
747.500	444.213	80.001	20.009	100.478	20.174	6.279	0.512
748.000	444.429	80.002	20.009	100.472	20.175	6.164	0.462
748.501	444.719	80.003	20.009	100.473	20.176	5.993	0.469
749.000	444.951	80.001	20.009	100.475	20.176	6.000	0.514
749.500	445.179	80.002	20.009	100.481	20.177	5.889	0.491
750.000	445.438	80.002	20.008	100.494	20.174	6.260	0.474
750.500	445.662	80.002	20.009	100.500	20.176	5.979	0.485
751.000	445.911	80.001	20.009	100.499	20.178	5.839	0.478
751.500	446.120	80.002	20.009	100.495	20.176	6.020	0.466
752.000	446.374	80.002	20.009	100.490	20.178	5.809	0.461
752.500	446.662	80.002	20.009	100.482	20.179	5.720	0.502
753.000	446.917	80.003	20.009	100.481	20.179	5.672	0.543
753.500	447.163	80.002	20.009	100.485	20.180	5.630	0.522
754.000	447.391	80.002	20.009	100.493	20.175	6.140	0.487
754.500	447.676	80.002	20.009	100.501	20.175	6.096	0.493
755.000	447.895	80.003	20.009	100.504	20.176	6.052	0.509
755.500	448.165	80.002	20.009	100.503	20.176	6.051	0.497
756.000	448.397	80.001	20.009	100.498	20.176	6.062	0.496
756.500	448.636	80.003	20.009	100.488	20.175	6.132	0.487
757.000	448.898	80.001	20.009	100.482	20.173	6.367	0.486
757.500	449.169	80.003	20.009	100.483	20.175	6.124	0.517
758.000	449.386	80.003	20.008	100.486	20.174	6.208	0.511
758.500	449.614	80.001	20.009	100.492	20.173	6.319	0.467
759.000	449.859	80.002	20.009	100.500	20.176	6.078	0.459
759.500	450.136	80.001	20.009	100.502	20.175	6.099	0.497
760.000	450.382	80.002	20.009	100.494	20.176	6.070	0.522
760.500	450.619	80.003	20.009	100.484	20.176	6.010	0.503
761.000	450.858	80.001	20.009	100.477	20.176	6.037	0.480
761.500	451.128	80.003	20.009	100.476	20.175	6.143	0.492
762.000	451.378	80.000	20.009	100.476	20.176	6.018	0.515
762.500	451.624	80.004	20.009	100.483	20.177	5.929	0.508
763.000	451.876	80.001	20.008	100.492	20.176	5.998	0.497
763.500	452.113	80.002	20.009	100.496	20.176	6.048	0.493
764.000	452.384	80.001	20.009	100.492	20.180	5.620	0.498
764.500	452.657	80.003	20.009	100.485	20.181	5.513	0.526
765.000	452.926	80.002	20.009	100.476	20.179	5.695	0.543
765.500	453.188	80.001	20.009	100.476	20.182	5.434	0.536
766.000	453.423	80.002	20.009	100.477	20.183	5.348	0.514
766.500	453.654	80.002	20.009	100.482	20.182	5.426	0.481
767.000	453.917	80.002	20.009	100.490	20.180	5.606	0.480
767.500	454.113	80.002	20.009	100.498	20.179	5.712	0.477
768.000	454.391	80.002	20.009	100.492	20.179	5.722	0.466
768.500	454.659	80.002	20.009	100.483	20.178	5.850	0.510
769.000	454.911	80.003	20.009	100.475	20.179	5.751	0.534
769.500	455.153	80.000	20.009	100.473	20.178	5.806	0.507
770.000	455.338	80.002	20.009	100.473	20.179	5.740	0.460
770.500	455.648	80.002	20.009	100.477	20.179	5.723	0.461
771.000	455.873	80.001	20.009	100.485	20.175	6.085	0.515
771.500	456.067	80.003	20.009	100.488	20.178	5.796	0.477
772.000	456.341	80.001	20.009	100.483	20.177	5.885	0.444
772.500	456.585	80.002	20.009	100.475	20.179	5.691	0.493
773.000	456.797	80.002	20.009	100.467	20.178	5.862	0.487
773.500	457.064	80.001	20.009	100.459	20.179	5.671	0.468
774.000	457.312	80.003	20.009	100.463	20.178	5.858	0.497
774.500	457.552	80.001	20.009	100.470	20.179	5.710	0.502
775.000	457.849	80.001	20.009	100.479	20.176	6.009	0.513
775.500	458.118	80.002	20.009	100.482	20.175	6.091	0.551
776.000	458.302	80.002	20.009	100.481	20.178	5.845	0.509
776.500	458.598	80.001	20.009	100.474	20.179	5.705	0.467
777.000	458.803	80.001	20.009	100.466	20.179	5.698	0.491
777.500	459.090	80.004	20.009	100.458	20.181	5.507	0.496
778.000	459.351	80.000	20.009	100.459	20.181	5.516	0.519
778.500	459.573	80.002	20.009	100.467	20.181	5.457	0.515
779.000	459.830	80.003	20.009	100.475	20.178	5.858	0.481
779.500	460.061	80.001	20.009	100.482	20.182	5.355	0.483
780.000	460.344	80.002	20.009	100.483	20.181	5.462	0.501
780.500	460.601	80.003	20.009	100.479	20.182	5.446	0.527
781.000	460.802	80.001	20.010	100.470	20.182	5.390	0.499
781.500	461.076	80.002	20.009	100.463	20.181	5.529	0.467
782.000	461.319	80.001	20.009	100.460	20.181	5.505	0.496
782.500	461.573	80.002	20.009	100.467	20.179	5.687	0.507
783.000	461.824	80.001	20.009	100.475	20.183	5.320	0.501
783.500	462.021	80.003	20.009	100.483	20.180	5.613	0.477
784.000	462.274	80.002	20.009	100.490	20.181	5.539	0.449
784.500	462.513	80.002	20.009	100.488	20.183	5.322	0.471
785.000	462.765	80.002	20.009	100.479	20.180	5.587	0.491
785.500	463.009	80.002	20.009	100.472	20.179	5.687	0.493
786.000	463.294	80.001	20.009	100.470	20.178	5.844	0.513
786.500	463.496	80.002	20.009	100.469	20.179	5.704	0.508
787.000	463.743	80.002	20.008	100.473	20.181	5.556	0.468
787.500	463.966	80.002	20.009	100.482	20.180	5.639	0.459
788.000	464.239	80.001	20.009	100.490	20.181	5.460	0.483
788.500	464.455	80.002	20.009	100.490	20.182	5.433	0.493
789.000	464.741	80.000	20.009	100.483	20.179	5.743	0.495
789.500	464.917	80.003	20.009	100.475	20.178	5.803	0.482
790.000	465.194	80.002	20.009	100.467	20.180	5.657	0.458
790.500	465.412	80.000	20.009	100.463	20.180	5.577	0.474
791.000	465.681	80.002	20.009	100.464	20.178	5.852	0.491
791.500	465.918	80.002	20.009	100.472	20.178	5.810	0.496
792.000	466.175	80.002	20.009	100.480	20.178	5.782	0.500
792.500	466.409	80.003	20.009	100.485	20.179	5.677	0.493
793.000	466.714	80.001	20.009	100.481	20.181	5.525	0.515
793.500	466.953	80.002	20.009	100.473	20.182	5.433	0.541
794.000	467.216	80.003	20.009	100.467	20.181	5.497	0.522
794.500	467.450	80.001	20.009	100.466	20.181	5.525	0.499
795.000	467.667	80.003	20.009	100.470	20.180	5.574	0.474
795.500	467.963	80.002	20.009	100.478	20.179	5.696	0.482
796.000	468.202	80.001	20.009	100.487	20.181	5.548	0.524
796.500	468.451	80.003	20.009	100.492	20.181	5.522	0.511
797.000	468.671	80.000	20.009	100.488	20.180	5.604	0.479
797.500	468.916	80.004	20.009	100.480	20.180	5.574	0.468
798.000	469.193	80.002	20.009	100.473	20.181	5.503	0.493
798.500	469.420	80.002	20.009	100.465	20.180	5.622	0.512
799.000	469.618	80.002	20.009	100.460	20.184	5.197	0.465
799.500	469.923	80.002	20.009	100.464	20.183	5.274	0.464
800.000	470.117	80.001	20.009	100.471	20.184	5.239	0.501
800.500	470.355	80.002	20.009	100.477	20.180	5.617	0.466
801.000	470.606	80.001	20.009	100.485	20.180	5.606	0.461
801.500	470.842	80.002	20.009	100.490	20.181	5.462	0.488
802.000	471.039	80.002	20.009	100.487	20.185	5.087	0.460
802.500	471.288	80.001	20.009	100.485	20.184	5.160	0.439
803.000	471.575	80.001	20.009	100.484	20.187	4.876	0.491
803.500	471.787	80.002	20.009	100.484	20.186	4.943	0.517
804.000	472.065	80.001	20.009	100.484	20.187	4.894	0.495
804.500	472.250	80.002	20.009	100.489	20.187	4.849	0.477
805.000	472.512	80.002	20.009	100.497	20.185	5.042	0.455
805.500	472.739	80.004	20.009	100.499	20.184	5.226	0.468
806.000	472.950	80.000	20.009	100.498	20.184	5.175	0.464
806.500	473.247	80.002	20.009	100.492	20.184	5.232	0.473
807.000	473.460	80.002	20.009	100.482	20.184	5.220	0.509
807.500	473.742	80.003	20.009	100.470	20.183	5.319	0.503
808.000	473.957	80.000	20.009	100.469	20.183	5.322	0.496
808.500	474.214	80.003	20.009	100.471	20.186	4.936	0.484
809.000	474.416	80.002	20.009	100.478	20.186	4.957	0.465
809.500	474.675	80.002	20.009	100.484	20.184	5.188	0.459
810.000	474.916	80.002	20.009	100.485	20.185	5.114	0.481
810.500	475.155	80.003	20.009	100.477	20.181	5.475	0.490
811.000	475.424	80.001	20.009	100.468	20.185	5.089	0.494
811.500	475.653	80.002	20.009	100.460	20.183	5.295	0.503
812.000	475.869	80.002	20.009	100.457	20.182	5.399	0.472
812.500	476.145	80.002	20.009	100.463	20.182	5.444	0.468
813.000	476.364	80.002	20.009	100.471	20.185	5.059	0.493
813.500	476.633	80.002	20.009	100.480	20.183	5.261	0.491
814.000	476.898	80.002	20.009	100.489	20.185	5.081	0.511
814.500	477.151	80.003	20.009	100.491	20.184	5.161	0.527
815.000	477.378	80.001	20.009	100.485	20.185	5.098	0.499
815.500	477.600	80.002	20.010	100.482	20.183	5.262	0.464
816.000	477.825	80.001	20.009	100.478	20.186	5.016	0.448
816.500	478.074	80.002	20.009	100.478	20.185	5.107	0.461
817.000	478.286	80.002	20.009	100.484	20.186	5.023	0.467
817.500	478.570	80.001	20.009	100.497	20.184	5.212	0.478
818.000	478.864	80.002	20.009	100.505	20.182	5.356	0.537
818.500	479.116	80.002	20.009	100.507	20.183	5.298	0.562
819.000	479.388	80.001	20.009	100.500	20.184	5.214	0.535
819.500	479.587	80.003	20.010	100.490	20.185	5.074	0.498
820.000	479.886	80.001	20.009	100.480	20.183	5.284	0.484
820.500	480.101	80.002	20.009	100.475	20.181	5.484	0.506
821.000	480.338	80.003	20.009	100.476	20.183	5.313	0.483
821.500	480.540	80.003	20.009	100.482	20.183	5.263	0.445
822.000	480.843	80.002	20.009	100.490	20.182	5.361	0.471
822.500	481.091	80.002	20.009	100.495	20.180	5.601	0.528
823.000	481.279	80.002	20.009	100.492	20.179	5.669	0.493
823.500	481.536	80.002	20.010	100.484	20.182	5.376	0.441
824.000	481.820	80.001	20.009	100.476	20.179	5.717	0.493
824.500	482.044	80.001	20.009	100.475	20.179	5.747	0.524
825.000	482.327	80.001	20.009	100.476	20.181	5.455	0.507
825.500	482.552	80.003	20.009	100.480	20.180	5.597	0.507
826.000	482.797	80.001	20.009	100.490	20.180	5.613	0.489
826.500	483.051	80.002	20.009	100.498	20.179	5.746	0.485
827.000	483.338	80.001	20.009	100.498	20.179	5.713	0.520
827.500	483.529	80.002	20.009	100.493	20.178	5.835	0.510
828.000	483.748	80.001	20.010	100.486	20.182	5.431	0.444
828.500	484.037	80.002	20.010	100.479	20.180	5.634	0.459
829.000	484.309	80.001	20.009	100.477	20.181	5.454	0.534
829.500	484.562	80.002	20.009	100.478	20.179	5.680	0.543
830.000	484.833	80.003	20.009	100.484	20.180	5.567	0.525
830.500	485.081	80.000	20.009	100.494	20.178	5.785	0.521
831.000	485.306	80.004	20.010	100.499	20.180	5.584	0.496
831.500	485.558	80.002	20.009	100.497	20.182	5.389	0.475
832.000	485.821	80.002	20.009	100.491	20.180	5.619	0.496
832.500	486.086	80.002	20.010	100.486	20.182	5.415	0.522
833.000	486.339	80.002	20.009	100.483	20.180	5.647	0.523
833.500	486.543	80.003	20.009	100.482	20.178	5.819	0.487
834.000	486.786	80.001	20.009	100.488	20.180	5.573	0.452
834.500	487.067	80.002	20.009	100.502	20.179	5.688	0.486
835.000	487.361	80.002	20.009	100.512	20.177	5.915	0.549
835.500	487.544	80.002	20.009	100.515	20.179	5.667	0.526
836.000	487.828	80.001	20.009	100.514	20.180	5.633	0.472
836.500	487.989	80.002	20.010	100.504	20.180	5.564	0.456
837.000	488.353	80.002	20.010	100.489	20.180	5.635	0.485
837.500	488.584	80.000	20.009	100.480	20.183	5.273	0.560
838.000	488.842	80.002	20.009	100.477	20.179	5.667	0.542
838.500	489.051	80.001	20.009	100.479	20.180	5.649	0.478
839.000	489.302	80.002	20.009	100.489	20.179	5.680	0.463
839.500	489.589	80.001	20.009	100.498	20.179	5.701	0.499
840.000	489.825	80.002	20.009	100.499	20.180	5.646	0.530
840.500	490.096	80.002	20.009	100.496	20.183	5.350	0.515
841.000	490.298	80.002	20.009	100.490	20.179	5.715	0.490
841.500	490.521	80.001	20.010	100.477	20.181	5.496	0.449
842.000	490.795	80.002	20.010	100.469	20.180	5.659	0.461
842.500	491.096	80.002	20.009	100.468	20.183	5.337	0.536
843.000	491.302	80.002	20.009	100.470	20.181	5.517	0.541
843.500	491.607	80.002	20.009	100.478	20.181	5.461	0.509
844.000	491.848	80.002	20.009	100.488	20.183	5.275	0.528
844.500	492.090	80.002	20.009	100.495	20.182	5.367	0.515
845.000	492.323	80.003	20.009	100.492	20.183	5.265	0.479
845.500	492.557	80.002	20.009	100.484	20.183	5.276	0.471
846.000	492.768	80.000	20.009	100.472	20.182	5.407	0.456
846.500	493.061	80.003	20.009	100.458	20.182	5.396	0.474
847.000	493.362	80.002	20.009	100.451	20.181	5.460	0.549
847.500	493.584	80.002	20.009	100.455	20.181	5.504	0.559
848.000	493.784	80.002	20.009	100.463	20.184	5.214	0.473
848.500	494.032	80.001	20.009	100.477	20.185	5.096	0.435
849.000	494.314	80.004	20.009	100.488	20.184	5.154	0.489
849.500	494.542	80.002	20.010	100.495	20.183	5.263	0.520
850.000	494.745	80.002	20.009	100.492	20.184	5.199	0.471
850.500	495.020	80.002	20.009	100.484	20.185	5.072	0.454
851.000	495.284	80.001	20.009	100.474	20.184	5.218	0.508
851.500	495.524	80.002	20.009	100.471	20.183	5.273	0.521
852.000	495.767	80.001	20.009	100.472	20.183	5.275	0.494
852.500	495.994	80.002	20.009	100.481	20.181	5.504	0.477
853.000	496.359	80.002	20.009	100.494	20.181	5.464	0.531
853.500	496.589	80.001	20.009	100.502	20.183	5.265	0.593
854.000	496.799	80.002	20.009	100.505	20.185	5.130	0.517
854.500	497.030	80.002	20.009	100.502	20.183	5.274	0.441
855.000	497.291	80.001	20.009	100.489	20.183	5.305	0.466
855.500	497.516	80.002	20.009	100.479	20.185	5.103	0.489
856.000	497.808	80.003	20.009	100.478	20.185	5.132	0.501
856.500	498.069	80.001	20.009	100.478	20.184	5.205	0.535
857.000	498.317	80.002	20.009	100.481	20.184	5.236	0.531
857.500	498.531	80.002	20.009	100.491	20.184	5.198	0.486
858.000	498.767	80.003	20.009	100.498	20.185	5.112	0.456
858.500	499.058	80.001	20.009	100.498	20.185	5.139	0.488
859.000	499.345	80.002	20.009	100.497	20.184	5.141	0.552
859.500	499.558	80.003	20.009	100.496	20.184	5.242	0.539
860.000	499.887	80.002	20.009	100.486	20.183	5.273	0.521
860.500	500.115	80.001	20.009	100.483	20.185	5.107	0.550
861.000	500.343	80.002	20.009	100.484	20.185	5.072	0.507
861.500	500.596	80.003	20.009	100.489	20.186	4.995	0.469
862.000	500.863	80.001	20.009	100.492	20.185	5.113	0.500
862.500	501.089	80.002	20.009	100.499	20.184	5.206	0.506
863.000	501.299	80.002	20.009	100.497	20.183	5.264	0.465
863.500	501.599	80.003	20.009	100.492	20.184	5.184	0.473
864.000	501.882	80.001	20.009	100.482	20.186	4.941	0.547
864.500	502.136	80.001	20.009	100.477	20.186	4.996	0.560
865.000	502.330	80.003	20.009	100.476	20.186	5.027	0.492
865.500	502.610	80.001	20.009	100.479	20.183	5.346	0.461
866.000	502.859	80.002	20.009	100.485	20.181	5.475	0.502
866.500	503.066	80.002	20.009	100.490	20.185	5.108	0.492
867.000	503.333	80.002	20.009	100.492	20.186	4.931	0.465
867.500	503.580	80.001	20.009	100.493	20.185	5.111	0.494
868.000	503.839	80.003	20.009	100.492	20.184	5.144	0.510
868.500	504.061	80.001	20.009	100.490	20.185	5.090	0.494
869.000	504.320	80.003	20.009	100.490	20.184	5.231	0.481
869.500	504.549	80.001	20.009	100.491	20.182	5.419	0.484
870.000	504.841	80.002	20.009	100.492	20.183	5.328	0.505
870.500	505.077	80.002	20.009	100.493	20.184	5.153	0.524
871.000	505.312	80.003	20.009	100.493	20.184	5.185	0.499
871.500	505.583	80.002	20.009	100.494	20.185	5.134	0.488
872.000	505.834	80.001	20.009	100.492	20.183	5.333	0.514
872.500	506.087	80.003	20.009	100.486	20.183	5.331	0.513
873.000	506.367	80.002	20.009	100.481	20.183	5.308	0.519
873.500	506.577	80.003	20.009	100.482	20.183	5.253	0.512
874.000	506.856	80.003	20.009	100.486	20.184	5.162	0.489
874.500	507.084	80.002	20.009	100.496	20.182	5.364	0.498
875.000	507.289	80.002	20.009	100.508	20.183	5.311	0.470
875.500	507.559	80.002	20.009	100.514	20.183	5.245	0.453
876.000	507.807	80.001	20.009	100.514	20.183	5.278	0.496
876.500	508.075	80.002	20.009	100.506	20.183	5.272	0.517
877.000	508.321	80.002	20.009	100.490	20.183	5.311	0.515
877.500	508.586	80.002	20.009	100.479	20.184	5.213	0.513
878.000	508.820	80.003	20.009	100.477	20.184	5.222	0.505
878.500	509.055	80.001	20.009	100.480	20.185	5.114	0.484
879.000	509.329	80.003	20.009	100.490	20.183	5.253	0.489
879.500	509.587	80.002	20.009	100.506	20.183	5.327	0.520
880.000	509.839	80.002	20.009	100.513	20.182	5.438	0.522
880.500	510.063	80.002	20.009	100.513	20.183	5.334	0.494
881.000	510.310	80.003	20.009	100.508	20.182	5.394	0.474
881.500	510.615	80.001	20.009	100.492	20.183	5.347	0.512
882.000	510.799	80.002	20.009	100.477	20.184	5.156	0.521
882.500	511.094	80.003	20.009	100.473	20.182	5.366	0.484
883.000	511.340	80.002	20.009	100.473	20.184	5.218	0.509
883.500	511.606	80.003	20.009	100.477	20.182	5.454	0.527
884.000	511.777	80.001	20.009	100.485	20.183	5.350	0.475
884.500	512.018	80.002	20.009	100.491	20.185	5.071	0.425
885.000	512.292	80.003	20.009	100.486	20.184	5.164	0.463
885.500	512.492	80.000	20.009	100.479	20.187	4.898	0.494
886.000	512.764	80.003	20.009	100.474	20.186	4.991	0.473
886.500	512.985	80.003	20.009	100.469	20.184	5.159	0.483
887.000	513.246	80.001	20.009	100.471	20.184	5.170	0.487
887.500	513.473	80.002	20.009	100.479	20.183	5.250	0.485
888.000	513.701	80.002	20.009	100.486	20.185	5.073	0.472
888.500	513.946	80.002	20.009	100.491	20.181	5.463	0.464
889.000	514.192	80.002	20.009	100.495	20.182	5.448	0.482
889.500	514.403	80.001	20.009	100.494	20.182	5.367	0.474
890.000	514.640	80.002	20.010	100.488	20.184	5.225	0.453
890.500	514.871	80.003	20.009	100.481	20.183	5.318	0.458
891.000	515.126	80.001	20.009	100.478	20.184	5.193	0.477
891.500	515.415	80.002	20.009	100.478	20.183	5.333	0.515
892.000	515.678	80.002	20.009	100.484	20.182	5.378	0.548
892.500	515.870	80.004	20.009	100.497	20.181	5.486	0.504
893.000	516.128	80.001	20.009	100.505	20.181	5.508	0.453
893.500	516.377	80.002	20.009	100.506	20.183	5.342	0.479
894.000	516.632	80.003	20.009	100.499	20.185	5.138	0.506
894.500	516.858	80.001	20.009	100.492	20.184	5.173	0.492
895.000	517.106	80.001	20.009	100.485	20.185	5.071	0.477
895.500	517.317	80.002	20.009	100.484	20.183	5.291	0.466
896.000	517.582	80.001	20.009	100.490	20.183	5.335	0.467
896.500	517.842	80.002	20.009	100.504	20.181	5.457	0.501
897.000	518.035	80.002	20.009	100.511	20.179	5.741	0.489
897.500	518.324	80.001	20.009	100.513	20.181	5.462	0.468
898.000	518.591	80.002	20.009	100.513	20.182	5.355	0.519
898.500	518.848	80.002	20.009	100.508	20.182	5.441	0.540
899.000	519.097	80.003	20.010	100.500	20.181	5.481	0.515
899.500	519.344	80.001	20.009	100.495	20.180	5.565	0.501
900.000	519.549	80.002	20.009	100.497	20.179	5.738	0.475
900.500	519.798	80.003	20.009	100.503	20.177	5.874	0.453
901.000	520.087	80.003	20.009	100.507	20.181	5.551	0.496
901.500	520.376	80.001	20.009	100.511	20.179	5.748	0.558
902.000	520.593	80.002	20.009	100.512	20.181	5.520	0.542
902.500	520.844	80.002	20.010	100.499	20.181	5.493	0.487
903.000	521.101	80.002	20.009	100.489	20.177	5.958	0.488
903.500	521.322	80.002	20.009	100.483	20.182	5.444	0.493
904.000	521.578	80.001	20.009	100.479	20.180	5.575	0.478
904.500	521.827	80.002	20.009	100.479	20.180	5.626	0.491
905.000	522.064	80.002	20.009	100.487	20.178	5.822	0.495
905.500	522.361	80.002	20.009	100.490	20.177	5.908	0.510
906.000	522.603	80.002	20.009	100.489	20.177	5.903	0.537
906.500	522.852	80.002	20.009	100.484	20.177	5.951	0.515
907.000	523.085	80.002	20.009	100.477	20.177	5.914	0.486
907.500	523.329	80.002	20.009	100.473	20.178	5.827	0.480
908.000	523.543	80.001	20.009	100.472	20.179	5.741	0.468
908.500	523.845	80.002	20.009	100.475	20.180	5.576	0.487
909.000	524.075	80.002	20.009	100.480	20.182	5.449	0.523
909.500	524.362	80.002	20.009	100.486	20.179	5.740	0.524
910.000	524.620	80.002	20.009	100.490	20.179	5.746	0.531
910.500	524.859	80.001	20.009	100.484	20.177	5.971	0.521
911.000	525.128	80.002	20.009	100.476	20.181	5.516	0.503
911.500	525.335	80.003	20.009	100.468	20.179	5.734	0.492
912.000	525.588	80.002	20.009	100.467	20.179	5.667	0.468
912.500	525.838	80.003	20.009	100.467	20.179	5.683	0.482
913.000	526.069	80.001	20.009	100.476	20.181	5.520	0.492
913.500	526.326	80.003	20.009	100.484	20.180	5.629	0.484
914.000	526.587	80.001	20.009	100.491	20.178	5.839	0.503
914.500	526.811	80.003	20.009	100.491	20.181	5.488	0.501
915.000	527.096	80.002	20.009	100.489	20.183	5.342	0.497
915.500	527.326	80.001	20.009	100.486	20.180	5.628	0.512
916.000	527.528	80.002	20.009	100.486	20.181	5.504	0.474
916.500	527.800	80.002	20.009	100.490	20.181	5.555	0.453
917.000	528.074	80.002	20.009	100.495	20.180	5.622	0.510
917.500	528.293	80.002	20.009	100.499	20.181	5.502	0.519
918.000	528.565	80.003	20.009	100.501	20.177	5.886	0.492
918.500	528.799	80.002	20.009	100.496	20.179	5.712	0.499
919.000	529.019	80.001	20.009	100.491	20.181	5.521	0.480
919.500	529.281	80.003	20.009	100.483	20.179	5.747	0.468
920.000	529.552	80.002	20.009	100.481	20.181	5.530	0.508
920.500	529.783	80.003	20.009	100.482	20.180	5.594	0.518
921.000	530.018	80.002	20.009	100.492	20.181	5.498	0.484
921.500	530.292	80.002	20.008	100.500	20.181	5.494	0.487
922.000	530.496	80.003	20.009	100.504	20.181	5.531	0.493
922.500	530.777	80.001	20.010	100.505	20.181	5.533	0.481
923.000	531.028	80.002	20.009	100.498	20.179	5.675	0.509
923.500	531.270	80.003	20.009	100.484	20.181	5.462	0.513
924.000	531.510	80.002	20.009	100.473	20.183	5.324	0.488
924.500	531.777	80.002	20.009	100.473	20.182	5.427	0.494
925.000	532.021	80.002	20.009	100.475	20.182	5.403	0.509
925.500	532.238	80.002	20.009	100.486	20.182	5.401	0.486
926.000	532.479	80.002	20.009	100.493	20.179	5.720	0.460
926.500	532.714	80.001	20.009	100.497	20.180	5.585	0.466
927.000	532.985	80.001	20.009	100.492	20.181	5.546	0.491
927.500	533.195	80.001	20.009	100.483	20.180	5.566	0.494
928.000	533.460	80.002	20.009	100.478	20.180	5.655	0.478
928.500	533.715	80.002	20.009	100.478	20.183	5.327	0.498
929.000	533.989	80.001	20.009	100.480	20.180	5.624	0.525
929.500	534.169	80.002	20.009	100.490	20.179	5.769	0.492
930.000	534.468	80.002	20.009	100.499	20.180	5.578	0.466
930.500	534.760	80.003	20.009	100.500	20.180	5.602	0.535
931.000	535.014	80.001	20.009	100.496	20.181	5.551	0.569
931.500	535.283	80.002	20.009	100.487	20.181	5.552	0.534
932.000	535.513	80.000	20.009	100.475	20.181	5.490	0.511
932.500	535.757	80.002	20.009	100.471	20.183	5.264	0.486
933.000	536.041	80.004	20.009	100.472	20.184	5.238	0.501
933.500	536.245	80.001	20.009	100.479	20.183	5.285	0.508
934.000	536.468	80.002	20.009	100.492	20.181	5.489	0.458
934.500	536.749	80.001	20.009	100.500	20.178	5.788	0.465
935.000	537.000	80.002	20.009	100.502	20.183	5.322	0.517
935.500	537.264	80.001	20.009	100.500	20.181	5.470	0.523
936.000	537.511	80.002	20.009	100.491	20.186	5.007	0.513
936.500	537.768	80.003	20.009	100.487	20.182	5.395	0.508
937.000	538.059	80.001	20.009	100.486	20.182	5.420	0.526
937.500	538.263	80.002	20.009	100.489	20.185	5.092	0.521
938.000	538.558	80.002	20.009	100.497	20.184	5.232	0.497
938.500	538.786	80.002	20.009	100.504	20.183	5.271	0.511
939.000	539.058	80.001	20.009	100.504	20.181	5.494	0.511
939.500	539.331	80.003	20.009	100.502	20.182	5.414	0.523
940.000	539.570	80.002	20.009	100.495	20.185	5.040	0.529
940.500	539.803	80.002	20.009	100.489	20.183	5.295	0.492
941.000	540.069	80.002	20.009	100.488	20.182	5.400	0.485
941.500	540.291	80.002	20.008	100.494	20.180	5.571	0.493
942.000	540.527	80.001	20.008	100.501	20.182	5.356	0.473
942.500	540.795	80.002	20.009	100.507	20.183	5.285	0.481
943.000	541.007	80.002	20.009	100.507	20.182	5.404	0.492
943.500	541.282	80.003	20.009	100.504	20.183	5.247	0.483
944.000	541.546	80.001	20.009	100.490	20.182	5.393	0.513
944.500	541.747	80.003	20.009	100.480	20.181	5.464	0.502
945.000	542.054	80.002	20.009	100.475	20.181	5.466	0.487
945.500	542.224	80.001	20.009	100.475	20.183	5.307	0.493
946.000	542.502	80.002	20.009	100.479	20.182	5.374	0.462
946.500	542.757	80.003	20.009	100.487	20.182	5.450	0.490
947.000	542.943	80.002	20.009	100.492	20.181	5.503	0.487
947.500	543.235	80.002	20.009	100.491	20.180	5.644	0.460
948.000	543.507	80.000	20.009	100.484	20.181	5.531	0.521
948.500	543.794	80.002	20.009	100.478	20.181	5.535	0.561
949.000	544.016	80.002	20.009	100.478	20.178	5.866	0.534
949.500	544.231	80.001	20.009	100.480	20.179	5.687	0.473
950.000	544.450	80.004	20.009	100.484	20.180	5.576	0.435
950.500	544.719	80.001	20.009	100.491	20.182	5.415	0.461
951.000	544.977	80.002	20.009	100.492	20.181	5.527	0.508
951.500	545.284	80.003	20.009	100.483	20.180	5.627	0.546
952.000	545.525	80.002	20.010	100.475	20.179	5.748	0.557
952.500	545.778	80.000	20.009	100.465	20.180	5.624	0.521
953.000	546.007	80.002	20.009	100.462	20.178	5.786	0.488
953.500	546.280	80.001	20.009	100.469	20.181	5.489	0.492
954.000	546.527	80.002	20.009	100.482	20.180	5.643	0.511
954.500	546.802	80.001	20.008	100.492	20.182	5.406	0.521
955.000	547.022	80.002	20.009	100.500	20.181	5.528	0.509
955.500	547.276	80.001	20.009	100.498	20.182	5.352	0.485
956.000	547.543	80.002	20.009	100.491	20.183	5.291	0.497
956.500	547.786	80.001	20.009	100.481	20.182	5.448	0.515
957.000	547.998	80.001	20.009	100.479	20.182	5.388	0.482
957.500	548.249	80.003	20.009	100.479	20.183	5.313	0.459
958.000	548.545	79.999	20.009	100.487	20.183	5.255	0.505
958.500	548.781	80.002	20.008	100.499	20.185	5.136	0.539
959.000	549.020	80.002	20.008	100.509	20.183	5.347	0.504
959.500	549.278	80.001	20.009	100.508	20.183	5.316	0.486
960.000	549.538	80.002	20.009	100.505	20.185	5.131	0.507
960.500	549.775	80.002	20.010	100.497	20.183	5.348	0.507
961.000	550.056	80.002	20.009	100.489	20.185	5.042	0.507
961.500	550.323	80.001	20.009	100.489	20.181	5.478	0.533
962.000	550.573	80.002	20.008	100.498	20.180	5.569	0.533
962.500	550.804	80.001	20.009	100.509	20.180	5.636	0.499
963.000	551.043	80.002	20.009	100.516	20.181	5.522	0.476
963.500	551.322	80.001	20.010	100.517	20.182	5.389	0.494
964.000	551.580	80.002	20.009	100.512	20.184	5.238	0.527
964.500	551.786	80.002	20.010	100.501	20.183	5.339	0.500
965.000	551.966	80.002	20.009	100.490	20.181	5.520	0.425
965.500	552.261	80.001	20.009	100.488	20.181	5.507	0.431
966.000	552.547	80.001	20.009	100.495	20.181	5.494	0.528
966.500	552.801	80.002	20.009	100.503	20.185	5.065	0.561
967.000	553.058	80.002	20.009	100.513	20.181	5.479	0.526
967.500	553.291	80.001	20.009	100.518	20.182	5.422	0.501
968.000	553.505	80.002	20.009	100.514	20.182	5.402	0.468
968.500	553.766	80.001	20.010	100.498	20.180	5.590	0.461
969.000	554.033	80.000	20.010	100.483	20.183	5.284	0.502
969.500	554.318	80.002	20.009	100.472	20.180	5.663	0.540
970.000	554.513	80.002	20.009	100.469	20.177	5.942	0.516
970.500	554.774	80.002	20.009	100.472	20.177	5.887	0.468
971.000	555.063	80.003	20.009	100.480	20.177	5.912	0.503
971.500	555.339	80.001	20.009	100.491	20.179	5.757	0.557
972.000	555.566	80.001	20.009	100.495	20.178	5.785	0.534
972.500	555.838	80.002	20.009	100.489	20.177	5.880	0.502
973.000	556.062	80.001	20.010	100.481	20.179	5.707	0.498
973.500	556.319	80.001	20.009	100.472	20.180	5.558	0.488
974.000	556.625	80.002	20.009	100.464	20.180	5.636	0.522
974.500	556.814	80.001	20.009	100.463	20.178	5.834	0.529
975.000	557.088	80.002	20.009	100.469	20.182	5.437	0.479
975.500	557.334	80.001	20.009	100.477	20.181	5.511	0.491
976.000	557.614	80.001	20.009	100.486	20.181	5.546	0.523
976.500	557.821	80.002	20.009	100.486	20.179	5.755	0.506
977.000	558.064	80.001	20.010	100.480	20.179	5.712	0.469
977.500	558.274	80.003	20.009	100.472	20.179	5.668	0.452
978.000	558.511	80.002	20.009	100.464	20.180	5.575	0.450
978.500	558.799	80.001	20.009	100.462	20.181	5.506	0.485
979.000	559.018	80.001	20.009	100.467	20.182	5.367	0.516
979.500	559.271	80.002	20.010	100.475	20.182	5.387	0.490
980.000	559.505	80.001	20.009	100.483	20.182	5.410	0.480
980.500	559.735	80.003	20.009	100.491	20.182	5.434	0.476
981.000	559.977	80.001	20.009	100.488	20.180	5.586	0.467
981.500	560.198	80.002	20.010	100.484	20.182	5.368	0.467
982.000	560.427	80.002	20.010	100.477	20.181	5.481	0.457
982.500	560.697	80.000	20.010	100.476	20.182	5.413	0.475
983.000	560.897	80.001	20.009	100.476	20.184	5.203	0.484
983.500	561.178	80.002	20.009	100.481	20.180	5.587	0.475
984.000	561.391	80.002	20.009	100.487	20.180	5.583	0.488
984.500	561.667	80.000	20.009	100.494	20.181	5.490	0.492
985.000	561.854	80.000	20.009	100.487	20.181	5.485	0.476
985.500	562.131	80.002	20.010	100.480	20.184	5.186	0.463
986.000	562.310	80.002	20.009	100.472	20.182	5.449	0.460
986.500	562.586	80.001	20.009	100.469	20.183	5.310	0.456
987.000	562.828	80.001	20.009	100.470	20.186	4.962	0.486
987.500	563.060	80.001	20.009	100.479	20.186	5.005	0.496
988.000	563.341	80.003	20.009	100.487	20.185	5.107	0.494
988.500	563.560	80.002	20.009	100.493	20.185	5.111	0.507
989.000	563.754	80.000	20.009	100.495	20.188	4.789	0.456
989.500	564.057	80.001	20.009	100.493	20.186	4.957	0.455
990.000	564.254	80.001	20.009	100.488	20.185	5.098	0.499
990.500	564.525	80.001	20.009	100.487	20.186	5.019	0.484
991.000	564.765	80.001	20.009	100.487	20.184	5.181	0.490
991.500	565.014	80.002	20.009	100.492	20.185	5.099	0.500
992.000	565.274	80.001	20.009	100.499	20.185	5.091	0.499
992.500	565.474	80.002	20.009	100.504	20.185	5.118	0.484
993.000	565.753	80.000	20.009	100.504	20.182	5.382	0.469
993.500	565.971	80.001	20.009	100.498	20.182	5.359	0.488
994.000	566.239	80.003	20.010	100.488	20.184	5.170	0.491
994.500	566.492	80.001	20.009	100.477	20.184	5.177	0.504
995.000	566.713	80.001	20.009	100.478	20.185	5.126	0.498
995.500	566.960	80.001	20.009	100.479	20.185	5.049	0.471
996.000	567.227	80.002	20.009	100.494	20.185	5.056	0.490
996.500	567.453	80.001	20.009	100.507	20.186	5.009	0.503
997.000	567.677	80.002	20.009	100.516	20.187	4.842	0.472
997.500	567.948	80.002	20.009	100.515	20.182	5.354	0.473
998.000	568.214	80.001	20.010	100.514	20.186	4.954	0.516
998.500	568.423	80.002	20.009	100.506	20.185	5.100	0.506
999.000	568.746	80.001	20.009	100.498	20.184	5.164	0.504
999.500	568.968	80.000	20.009	100.502	20.183	5.326	0.538
1000.000	569.223	80.000	20.009	100.509	20.184	5.143	0.511
1000.500	569.410	80.003	20.009	100.516	20.185	5.077	0.459
1001.000	569.689	80.002	20.009	100.517	20.186	4.944	0.454
1001.500	569.957	80.001	20.010	100.516	20.186	4.938	0.506
1002.000	570.187	80.001	20.009	100.508	20.186	4.946	0.522
1002.500	570.427	80.001	20.009	100.496	20.185	5.110	0.484
1003.000	570.757	80.000	20.009	100.487	20.188	4.735	0.520
1003.500	570.945	80.003	20.009	100.489	20.188	4.793	0.544
1004.000	571.210	80.001	20.009	100.496	20.189	4.687	0.485
1004.500	571.463	80.003	20.009	100.507	20.187	4.845	0.485
1005.000	571.732	80.001	20.009	100.520	20.190	4.568	0.520
1005.500	571.962	80.001	20.009	100.526	20.190	4.570	0.511
1006.000	572.194	80.001	20.009	100.523	20.187	4.849	0.481
1006.500	572.421	80.002	20.010	100.516	20.187	4.882	0.461
1007.000	572.648	80.000	20.009	100.507	20.187	4.917	0.456
1007.500	572.936	80.000	20.009	100.501	20.188	4.804	0.484
1008.000	573.154	80.002	20.009	100.504	20.186	4.973	0.511
1008.500	573.441	80.002	20.009	100.510	20.183	5.290	0.506
1009.000	573.608	80.002	20.009	100.516	20.184	5.180	0.479
1009.500	573.821	80.001	20.009	100.516	20.184	5.218	0.417
1010.000	574.184	80.003	20.009	100.507	20.185	5.044	0.478
1010.500	574.370	80.001	20.009	100.492	20.182	5.357	0.562
1011.000	574.605	80.001	20.009	100.478	20.184	5.154	0.485
1011.500	574.884	80.003	20.010	100.468	20.185	5.052	0.467
1012.000	575.147	80.001	20.009	100.468	20.184	5.154	0.528
1012.500	575.367	80.001	20.009	100.479	20.182	5.392	0.513
1013.000	575.626	80.001	20.009	100.495	20.183	5.314	0.481
1013.500	575.863	80.002	20.009	100.504	20.182	5.361	0.488
1014.000	576.116	80.002	20.009	100.509	20.184	5.173	0.493
1014.500	576.406	80.002	20.009	100.507	20.186	5.022	0.516
1015.000	576.668	80.000	20.009	100.499	20.183	5.265	0.547
1015.500	576.872	80.001	20.009	100.490	20.184	5.176	0.509
1016.000	577.103	80.000	20.009	100.491	20.183	5.333	0.451
1016.500	577.384	80.002	20.009	100.497	20.182	5.397	0.474
1017.000	577.588	80.002	20.009	100.506	20.186	5.010	0.498
1017.500	577.908	80.001	20.009	100.516	20.183	5.256	0.505
1018.000	578.132	80.002	20.009	100.521	20.180	5.562	0.534
1018.500	578.337	80.001	20.010	100.518	20.182	5.445	0.486
1019.000	578.623	80.003	20.009	100.512	20.183	5.331	0.460
1019.500	578.865	80.001	20.009	100.504	20.183	5.274	0.510
1020.000	579.095	80.003	20.009	100.498	20.182	5.433	0.500
1020.500	579.367	80.001	20.009	100.499	20.183	5.329	0.487
1021.000	579.653	80.002	20.009	100.507	20.181	5.538	0.530
1021.500	579.875	80.001	20.009	100.515	20.182	5.357	0.534
1022.000	580.169	80.002	20.009	100.520	20.180	5.574	0.512
1022.500	580.413	80.000	20.010	100.520	20.182	5.408	0.526
1023.000	580.597	80.002	20.009	100.514	20.180	5.563	0.483
1023.500	580.849	80.001	20.009	100.506	20.182	5.374	0.432
1024.000	581.094	80.001	20.009	100.498	20.182	5.385	0.467
1024.499	581.313	80.002	20.009	100.492	20.180	5.629	0.481
1024.999	581.634	80.001	20.009	100.492	20.182	5.363	0.502
1025.499	581.862	80.002	20.009	100.500	20.181	5.536	0.545
1025.999	582.111	80.003	20.009	100.506	20.180	5.590	0.513
1026.499	582.372	80.002	20.010	100.511	20.180	5.645	0.494
1026.999	582.612	80.003	20.009	100.510	20.180	5.646	0.506
1027.499	582.894	80.001	20.009	100.505	20.180	5.588	0.511
1027.999	583.113	80.001	20.009	100.491	20.182	5.357	0.511
1028.499	583.408	80.002	20.009	100.480	20.185	5.096	0.507
1028.999	583.587	80.001	20.009	100.475	20.179	5.737	0.494
1029.499	583.890	80.003	20.009	100.478	20.178	5.848	0.479
1029.999	584.133	80.001	20.009	100.483	20.179	5.693	0.514
1030.499	584.391	80.003	20.009	100.493	20.179	5.742	0.523
1030.999	584.625	80.002	20.008	100.497	20.179	5.748	0.496
1031.499	584.875	80.002	20.010	100.495	20.181	5.555	0.488
1031.999	585.108	80.001	20.009	100.489	20.180	5.661	0.484
1032.499	585.402	80.002	20.009	100.487	20.180	5.661	0.505
1032.999	585.631	80.002	20.009	100.488	20.178	5.843	0.525
1033.499	585.829	80.000	20.009	100.496	20.181	5.549	0.475
1033.999	586.078	80.002	20.009	100.507	20.182	5.416	0.437
1034.499	586.366	80.002	20.010	100.516	20.179	5.729	0.492
1034.999	586.624	80.001	20.009	100.516	20.180	5.582	0.542
1035.500	586.904	80.003	20.009	100.512	20.177	5.896	0.542
1036.000	587.182	80.002	20.010	100.504	20.177	5.905	0.548
1036.499	587.437	80.001	20.009	100.496	20.180	5.601	0.545
1037.000	587.679	80.003	20.009	100.493	20.180	5.633	0.515
1037.500	587.935	80.002	20.010	100.501	20.178	5.797	0.497
1038.000	588.133	80.001	20.009	100.509	20.178	5.795	0.476
1038.500	588.432	80.003	20.010	100.514	20.178	5.852	0.476
1038.999	588.711	80.001	20.009	100.514	20.178	5.819	0.538
1039.499	588.928	80.001	20.009	100.510	20.178	5.867	0.537
1040.000	589.219	80.002	20.009	100.494	20.179	5.722	0.502
1040.500	589.475	80.003	20.010	100.480	20.179	5.696	0.527
1040.999	589.713	80.002	20.010	100.475	20.180	5.652	0.520
1041.499	589.987	80.002	20.009	100.478	20.178	5.857	0.503
1042.000	590.224	80.001	20.009	100.489	20.179	5.675	0.512
1042.501	590.483	80.002	20.009	100.500	20.182	5.427	0.504
1043.000	590.774	80.001	20.010	100.507	20.179	5.741	0.523
1043.499	591.022	80.002	20.010	100.505	20.177	5.874	0.545
1044.000	591.246	80.001	20.009	100.494	20.178	5.811	0.505
1044.500	591.513	79.999	20.010	100.484	20.180	5.660	0.482
1044.999	591.740	80.002	20.009	100.480	20.180	5.559	0.493
1045.500	591.957	80.002	20.009	100.483	20.178	5.785	0.469
1046.001	592.190	80.002	20.009	100.491	20.180	5.639	0.447
1046.500	592.498	80.002	20.009	100.502	20.180	5.633	0.495
1046.999	592.760	80.002	20.009	100.506	20.178	5.856	0.555
1047.499	593.020	80.002	20.009	100.503	20.178	5.834	0.546
1047.999	593.301	80.001	20.010	100.495	20.179	5.767	0.531
1048.499	593.531	80.002	20.010	100.484	20.181	5.486	0.526
1048.999	593.740	80.004	20.009	100.480	20.178	5.841	0.475
1049.499	594.039	80.001	20.009	100.483	20.177	5.877	0.473
1049.999	594.343	80.002	20.009	100.491	20.176	6.060	0.555
1050.499	594.554	80.002	20.009	100.498	20.176	6.077	0.560
1050.999	594.788	80.001	20.009	100.503	20.176	5.980	0.480
1051.499	595.043	80.002	20.010	100.498	20.179	5.695	0.466
1051.999	595.268	80.000	20.009	100.487	20.180	5.637	0.484
1052.499	595.576	80.001	20.009	100.475	20.178	5.781	0.507
1053.000	595.790	80.003	20.009	100.470	20.178	5.855	0.527
1053.500	595.999	80.002	20.009	100.471	20.178	5.778	0.473
1053.999	596.316	80.001	20.009	100.482	20.179	5.763	0.475
1054.499	596.508	80.002	20.009	100.493	20.178	5.776	0.517
1054.999	596.779	80.002	20.009	100.501	20.175	6.122	0.486
1055.499	597.028	80.002	20.010	100.498	20.177	5.935	0.491
1055.999	597.261	80.000	20.009	100.493	20.177	5.955	0.501
1056.499	597.587	80.003	20.009	100.481	20.175	6.119	0.520
1056.999	597.785	80.001	20.009	100.472	20.176	6.013	0.541
1057.499	598.023	80.001	20.009	100.471	20.177	5.930	0.480
1057.999	598.277	80.003	20.009	100.477	20.176	6.054	0.464
1058.500	598.593	80.001	20.009	100.484	20.176	6.043	0.532
1059.000	598.782	80.002	20.009	100.491	20.177	5.942	0.537
1059.499	599.067	80.003	20.010	100.495	20.178	5.851	0.489
1059.999	599.313	80.001	20.010	100.488	20.177	5.886	0.502
1060.499	599.580	80.003	20.010	100.483	20.177	5.903	0.522
1060.999	599.861	80.001	20.010	100.483	20.178	5.799	0.531
1061.499	600.114	80.002	20.009	100.485	20.176	6.015	0.542
1061.999	600.342	80.002	20.009	100.493	20.178	5.840	0.508
1062.499	600.560	80.002	20.009	100.508	20.179	5.760	0.463
1062.999	600.822	80.002	20.010	100.515	20.178	5.789	0.462
1063.499	601.095	80.001	20.009	100.515	20.178	5.842	0.507
1063.999	601.364	80.002	20.010	100.510	20.178	5.837	0.539
1064.499	601.595	80.002	20.009	100.498	20.181	5.466	0.522
1064.999	601.801	80.002	20.010	100.491	20.178	5.843	0.468
1065.499	602.063	80.002	20.009	100.492	20.178	5.783	0.452
1065.999	602.365	80.003	20.009	100.500	20.177	5.910	0.516
1066.499	602.607	80.002	20.008	100.510	20.181	5.477	0.554
1066.999	602.811	80.001	20.010	100.522	20.180	5.603	0.495
1067.500	603.130	80.002	20.010	100.523	20.180	5.579	0.485
1068.000	603.380	80.003	20.010	100.519	20.179	5.749	0.546
1068.499	603.585	80.000	20.009	100.512	20.180	5.596	0.512
1068.999	603.817	80.001	20.009	100.512	20.181	5.558	0.446
1069.499	604.119	80.002	20.009	100.512	20.181	5.468	0.486
1070.000	604.365	80.000	20.009	100.519	20.180	5.625	0.541
1070.500	604.642	80.003	20.009	100.527	20.181	5.530	0.536
1070.999	604.833	80.000	20.009	100.532	20.181	5.512	0.496
1071.499	605.118	80.002	20.009	100.526	20.183	5.345	0.472
1071.999	605.330	80.001	20.009	100.519	20.180	5.615	0.486
1072.499	605.605	80.002	20.009	100.511	20.184	5.242	0.491
1072.999	605.860	80.002	20.010	100.503	20.182	5.412	0.508
1073.499	606.173	80.001	20.009	100.496	20.181	5.493	0.549
1073.999	606.417	80.001	20.009	100.497	20.182	5.438	0.562
1074.499	606.647	80.002	20.009	100.503	20.180	5.571	0.515
1074.999	606.933	80.000	20.010	100.510	20.179	5.702	0.495
1075.499	607.177	80.002	20.009	100.513	20.178	5.795	0.523
1075.999	607.439	80.003	20.010	100.513	20.183	5.309	0.518
1076.499	607.671	80.002	20.010	100.504	20.182	5.433	0.500
1076.999	607.942	80.001	20.009	100.493	20.182	5.364	0.498
1077.499	608.160	80.002	20.009	100.485	20.183	5.309	0.495
1077.999	608.454	80.002	20.010	100.482	20.182	5.414	0.500
1078.499	608.729	80.001	20.009	100.489	20.181	5.457	0.541
1078.999	608.918	80.003	20.009	100.502	20.180	5.565	0.517
1079.499	609.199	80.001	20.010	100.513	20.182	5.450	0.467
1079.999	609.429	80.001	20.009	100.517	20.182	5.436	0.491
1080.499	609.677	80.003	20.010	100.516	20.185	5.043	0.494
1080.999	609.959	80.001	20.010	100.510	20.183	5.333	0.504
1081.499	610.217	80.001	20.009	100.506	20.180	5.577	0.535
1081.999	610.458	80.002	20.009	100.507	20.181	5.458	0.520
1082.500	610.703	80.001	20.009	100.510	20.184	5.184	0.493
1083.000	610.923	80.001	20.009	100.517	20.181	5.468	0.476
1083.499	611.180	80.001	20.009	100.522	20.180	5.595	0.471
1083.999	611.408	80.002	20.009	100.517	20.181	5.497	0.481
1084.499	611.722	80.002	20.009	100.505	20.183	5.330	0.513
1084.999	611.968	80.001	20.010	100.490	20.182	5.403	0.551
1085.499	612.176	80.001	20.010	100.480	20.180	5.589	0.507
1086.000	612.402	80.001	20.009	100.474	20.182	5.404	0.444
1086.500	612.681	80.002	20.009	100.481	20.183	5.340	0.469
1086.999	612.930	80.001	20.009	100.492	20.182	5.437	0.516
1087.499	613.209	80.002	20.009	100.502	20.184	5.226	0.528
1087.999	613.428	80.001	20.009	100.505	20.182	5.451	0.514
1088.499	613.636	80.002	20.010	100.499	20.181	5.546	0.463
1088.999	613.916	80.001	20.010	100.488	20.183	5.285	0.457
1089.499	614.148	80.002	20.010	100.482	20.183	5.278	0.500
1089.999	614.411	80.002	20.010	100.486	20.184	5.239	0.503
1090.499	614.641	80.002	20.009	100.494	20.182	5.375	0.494
1090.999	614.869	80.001	20.009	100.506	20.183	5.274	0.476
1091.499	615.124	80.002	20.009	100.514	20.183	5.274	0.471
1092.000	615.350	80.002	20.009	100.514	20.186	4.932	0.482
1092.500	615.638	80.000	20.009	100.506	20.183	5.248	0.497
1092.999	615.864	80.002	20.009	100.492	20.180	5.576	0.514
1093.499	616.123	80.002	20.009	100.482	20.181	5.523	0.500
1093.999	616.370	80.003	20.009	100.480	20.184	5.244	0.496
1094.499	616.602	80.001	20.010	100.488	20.182	5.393	0.492
1095.000	616.824	80.003	20.009	100.498	20.183	5.254	0.466
1095.500	617.081	80.000	20.009	100.514	20.185	5.121	0.467
1095.999	617.346	80.002	20.009	100.523	20.184	5.234	0.501
1096.499	617.554	80.001	20.010	100.523	20.184	5.174	0.497
1096.999	617.829	80.002	20.009	100.515	20.181	5.484	0.478
1097.499	618.054	80.001	20.010	100.508	20.184	5.158	0.491
1097.999	618.238	80.002	20.009	100.507	20.183	5.318	0.455
1098.500	618.542	80.002	20.009	100.508	20.182	5.389	0.448
1099.000	618.706	80.000	20.009	100.515	20.182	5.436	0.478
1099.499	618.959	80.002	20.009	100.520	20.180	5.645	0.443
1099.999	619.242	80.003	20.009	100.519	20.179	5.675	0.477
1100.499	619.446	80.001	20.009	100.508	20.183	5.338	0.511
1100.999	619.661	80.001	20.010	100.494	20.185	5.098	0.453
1101.499	619.928	80.003	20.009	100.487	20.184	5.242	0.451
1102.000	620.121	80.003	20.010	100.487	20.185	5.067	0.471
1102.500	620.408	80.003	20.010	100.495	20.184	5.198	0.470
1102.999	620.622	80.001	20.010	100.507	20.183	5.345	0.491
1103.499	620.882	80.002	20.009	100.522	20.183	5.280	0.487
1103.999	621.107	80.002	20.009	100.529	20.184	5.198	0.479
1104.499	621.331	80.002	20.009	100.531	20.183	5.315	0.466
1104.999	621.600	80.001	20.010	100.524	20.186	4.998	0.471
1105.499	621.855	80.002	20.009	100.515	20.187	4.907	0.509
1105.999	622.076	80.003	20.009	100.509	20.187	4.922	0.500
1106.499	622.255	80.002	20.010	100.509	20.185	5.045	0.438
1106.999	622.502	80.001	20.009	100.512	20.188	4.764	0.412
1107.500	622.725	80.001	20.010	100.526	20.187	4.877	0.448
1108.001	623.004	80.002	20.009	100.537	20.184	5.177	0.486
1108.501	623.230	80.001	20.009	100.545	20.184	5.205	0.503
1109.000	623.487	80.002	20.009	100.544	20.185	5.125	0.494
1109.499	623.711	80.002	20.009	100.542	20.187	4.857	0.482
1109.999	623.887	80.001	20.009	100.535	20.188	4.724	0.441
1110.499	624.133	80.002	20.010	100.533	20.187	4.919	0.411
1110.999	624.368	80.002	20.009	100.533	20.188	4.777	0.452
1111.499	624.609	80.002	20.010	100.540	20.186	4.992	0.478
1111.999	624.849	80.002	20.009	100.544	20.184	5.183	0.478
1112.499	625.087	80.001	20.009	100.544	20.187	4.848	0.480
1112.999	625.281	80.002	20.009	100.542	20.184	5.193	0.455
1113.499	625.533	80.002	20.010	100.537	20.187	4.907	0.439
1113.999	625.772	80.001	20.010	100.531	20.185	5.120	0.468
1114.499	626.030	80.002	20.009	100.527	20.184	5.187	0.494
1114.999	626.225	80.002	20.010	100.527	20.182	5.429	0.475
1115.499	626.488	80.003	20.009	100.530	20.185	5.043	0.455
1115.999	626.744	80.001	20.009	100.534	20.184	5.222	0.489
1116.499	626.977	80.001	20.009	100.531	20.181	5.461	0.504
1116.999	627.238	80.002	20.010	100.524	20.183	5.350	0.492
1117.499	627.426	80.001	20.009	100.515	20.183	5.254	0.472
1117.999	627.713	80.002	20.010	100.507	20.183	5.312	0.462
1118.499	627.933	80.001	20.009	100.506	20.183	5.323	0.491
1118.999	628.174	80.001	20.009	100.509	20.180	5.623	0.484
1119.500	628.412	80.002	20.009	100.519	20.184	5.178	0.470
1120.000	628.680	80.000	20.010	100.533	20.184	5.225	0.492
1120.499	628.915	80.002	20.010	100.539	20.180	5.563	0.504
1120.999	629.135	80.002	20.010	100.541	20.182	5.388	0.479
1121.499	629.375	80.001	20.010	100.540	20.181	5.499	0.457
1121.999	629.600	80.002	20.010	100.538	20.184	5.146	0.462
1122.499	629.815	80.001	20.009	100.531	20.183	5.315	0.453
1122.999	630.112	80.001	20.010	100.531	20.180	5.584	0.476
1123.499	630.345	80.002	20.009	100.532	20.180	5.624	0.521
1123.999	630.535	80.001	20.009	100.534	20.181	5.508	0.477
1124.499	630.806	80.002	20.009	100.535	20.182	5.427	0.442
1124.999	631.041	80.003	20.009	100.536	20.182	5.418	0.483
1125.499	631.304	80.002	20.010	100.529	20.183	5.260	0.502
1125.999	631.511	80.001	20.009	100.521	20.181	5.554	0.484
1126.499	631.800	80.002	20.010	100.518	20.182	5.350	0.483
1126.999	632.031	80.001	20.009	100.518	20.182	5.410	0.508
1127.499	632.247	80.001	20.009	100.520	20.179	5.674	0.483
1127.999	632.540	80.002	20.009	100.527	20.181	5.494	0.478
1128.499	632.806	80.001	20.010	100.532	20.181	5.532	0.534
1129.000	633.014	80.002	20.010	100.526	20.180	5.640	0.516
1129.500	633.296	80.001	20.009	100.511	20.182	5.452	0.483
1129.999	633.489	80.002	20.009	100.501	20.179	5.731	0.482
1130.499	633.810	80.002	20.009	100.494	20.184	5.216	0.494
1130.999	634.014	80.001	20.009	100.495	20.182	5.438	0.519
1131.499	634.270	80.001	20.009	100.503	20.181	5.500	0.493
1131.999	634.518	80.001	20.009	100.517	20.183	5.267	0.482
1132.499	634.762	80.003	20.010	100.525	20.183	5.305	0.498
1132.999	634.976	80.002	20.009	100.526	20.183	5.286	0.475
1133.499	635.206	80.002	20.010	100.519	20.180	5.608	0.451
1133.999	635.522	80.002	20.010	100.512	20.180	5.641	0.495
1134.499	635.693	80.001	20.009	100.511	20.181	5.524	0.517
1134.999	636.006	80.001	20.009	100.513	20.178	5.782	0.486
1135.499	636.228	80.002	20.010	100.520	20.178	5.835	0.510
1135.999	636.492	80.001	20.009	100.527	20.180	5.658	0.511
1136.499	636.699	80.002	20.009	100.531	20.176	6.056	0.478
1136.999	636.982	80.002	20.009	100.522	20.175	6.180	0.480
1137.499	637.241	80.001	20.010	100.506	20.174	6.191	0.516
1137.999	637.552	80.002	20.010	100.490	20.177	5.974	0.556
1138.499	637.760	80.003	20.009	100.475	20.174	6.210	0.544
1138.999	637.995	80.002	20.009	100.466	20.174	6.232	0.481
1139.499	638.278	80.001	20.009	100.467	20.175	6.179	0.480
1139.999	638.584	80.002	20.009	100.474	20.175	6.152	0.553
1140.499	638.799	80.002	20.010	100.475	20.173	6.340	0.555
1140.999	639.051	80.002	20.009	100.475	20.172	6.455	0.494
1141.499	639.326	80.002	20.010	100.470	20.176	6.045	0.497
1141.999	639.556	80.002	20.009	100.466	20.172	6.440	0.516
1142.499	639.836	80.003	20.009	100.466	20.174	6.283	0.508
1142.999	640.089	80.001	20.010	100.475	20.172	6.416	0.522
1143.499	640.305	80.003	20.009	100.489	20.168	6.882	0.501
1143.999	640.605	80.001	20.009	100.499	20.167	6.941	0.493
1144.499	640.907	80.001	20.010	100.503	20.169	6.781	0.559
1144.999	641.104	80.001	20.010	100.496	20.167	6.971	0.550
1145.499	641.402	80.002	20.009	100.489	20.169	6.812	0.497
1145.999	641.664	80.002	20.009	100.480	20.175	6.130	0.527
1146.499	641.921	80.001	20.009	100.479	20.171	6.594	0.540
1146.999	642.170	80.002	20.009	100.485	20.168	6.905	0.512
1147.499	642.435	80.002	20.009	100.496	20.167	6.938	0.510
1147.999	642.726	80.001	20.009	100.501	20.168	6.876	0.535
1148.499	642.956	80.002	20.009	100.503	20.168	6.897	0.539
1148.999	643.244	80.001	20.010	100.502	20.169	6.753	0.520
1149.499	643.483	80.002	20.010	100.493	20.171	6.600	0.523
1149.999	643.696	80.001	20.010	100.488	20.170	6.709	0.489
1150.499	643.978	80.002	20.009	100.489	20.168	6.909	0.473
1150.999	644.263	80.000	20.010	100.494	20.170	6.625	0.531
1151.500	644.504	80.001	20.009	100.502	20.172	6.481	0.547
1152.000	644.797	80.001	20.009	100.508	20.170	6.667	0.530
1152.499	645.087	80.003	20.009	100.509	20.167	6.976	0.559
1152.999	645.376	80.002	20.009	100.509	20.171	6.557	0.581
1153.499	645.596	80.001	20.009	100.504	20.170	6.644	0.544
1153.999	645.915	80.002	20.009	100.496	20.169	6.768	0.524
1154.499	646.095	80.002	20.009	100.494	20.171	6.567	0.519
1154.999	646.383	80.001	20.009	100.501	20.169	6.815	0.484
1155.500	646.665	80.002	20.009	100.509	20.168	6.820	0.519
1156.000	646.918	80.002	20.009	100.512	20.169	6.799	0.552
1156.499	647.151	80.001	20.009	100.512	20.169	6.718	0.510
1156.999	647.449	80.001	20.009	100.507	20.170	6.620	0.509
1157.499	647.672	80.003	20.009	100.498	20.170	6.653	0.526
1158.000	648.010	80.001	20.009	100.490	20.166	7.035	0.541
1158.500	648.212	80.002	20.009	100.494	20.167	6.932	0.550
1158.999	648.528	80.001	20.009	100.501	20.167	6.993	0.529
1159.499	648.783	80.002	20.009	100.513	20.169	6.793	0.545
1159.999	649.037	80.002	20.009	100.522	20.170	6.680	0.541
1160.499	649.297	80.001	20.009	100.525	20.169	6.815	0.512
1160.999	649.596	80.002	20.009	100.520	20.166	7.047	0.537
1161.499	649.763	80.002	20.009	100.513	20.168	6.892	0.512
1161.999	650.032	80.000	20.009	100.507	20.170	6.698	0.451
1162.499	650.266	80.002	20.009	100.505	20.171	6.603	0.469
1162.999	650.642	80.002	20.009	100.511	20.170	6.650	0.556
1163.499	650.844	80.002	20.009	100.518	20.169	6.806	0.594
1163.999	651.111	80.001	20.009	100.522	20.167	7.023	0.524
1164.499	651.395	80.001	20.009	100.519	20.169	6.788	0.510
1164.999	651.649	80.001	20.009	100.512	20.169	6.782	0.544
1165.499	651.927	80.002	20.009	100.503	20.168	6.824	0.535
1165.999	652.180	80.002	20.009	100.497	20.166	7.063	0.532
1166.499	652.445	80.001	20.009	100.500	20.170	6.618	0.525
1166.999	652.701	80.003	20.009	100.508	20.168	6.852	0.519
1167.499	652.923	80.002	20.009	100.514	20.167	6.964	0.499
1167.999	653.223	80.003	20.009	100.516	20.170	6.649	0.500
1168.499	653.481	80.002	20.010	100.511	20.168	6.858	0.540
1168.999	653.770	80.001	20.010	100.496	20.170	6.691	0.553
1169.500	654.005	80.002	20.010	100.481	20.169	6.811	0.535
1170.000	654.292	80.001	20.009	100.476	20.169	6.805	0.523
1170.499	654.558	80.001	20.009	100.478	20.167	7.024	0.538
1170.999	654.842	80.003	20.009	100.491	20.165	7.160	0.551
1171.499	655.033	80.001	20.009	100.507	20.167	6.974	0.512
1171.999	655.356	80.002	20.010	100.518	20.171	6.551	0.494
1172.499	655.562	80.001	20.009	100.519	20.167	6.945	0.522
1172.999	655.855	80.002	20.009	100.515	20.169	6.815	0.514
1173.499	656.103	80.001	20.009	100.507	20.170	6.649	0.520
1173.999	656.366	80.001	20.010	100.500	20.170	6.679	0.526
1174.499	656.669	80.002	20.009	100.505	20.170	6.668	0.539
1174.999	656.886	80.002	20.009	100.512	20.170	6.612	0.543
1175.499	657.164	80.001	20.009	100.519	20.171	6.545	0.508
1175.999	657.425	80.001	20.009	100.528	20.172	6.423	0.517
1176.499	657.659	80.002	20.009	100.536	20.171	6.542	0.517
1176.999	657.910	80.001	20.009	100.536	20.171	6.537	0.490
1177.499	658.238	80.002	20.010	100.538	20.169	6.801	0.532
1177.999	658.427	80.002	20.009	100.539	20.171	6.587	0.548
1178.499	658.723	80.002	20.010	100.541	20.169	6.791	0.501
1178.999	658.970	80.003	20.009	100.542	20.166	7.101	0.514
1179.499	659.237	80.001	20.009	100.542	20.168	6.868	0.529
1179.999	659.442	80.002	20.009	100.533	20.166	7.115	0.493
1180.499	659.775	80.002	20.009	100.524	20.165	7.170	0.505
1180.999	659.993	80.002	20.009	100.511	20.165	7.150	0.544
1181.499	660.250	80.001	20.009	100.495	20.169	6.803	0.513
1181.999	660.507	80.001	20.009	100.482	20.167	7.023	0.495
1182.499	660.780	80.002	20.009	100.483	20.166	7.132	0.522
1182.999	661.028	80.002	20.009	100.488	20.165	7.150	0.525
1183.499	661.269	80.001	20.009	100.491	20.168	6.860	0.505
1184.000	661.546	80.001	20.009	100.500	20.167	6.995	0.503
1184.500	661.846	80.002	20.009	100.506	20.166	7.089	0.547
1184.999	662.090	80.002	20.009	100.505	20.166	7.120	0.560
1185.499	662.314	80.002	20.009	100.505	20.166	7.103	0.506
1186.000	662.574	80.001	20.009	100.511	20.167	6.988	0.476
1186.500	662.880	80.004	20.009	100.516	20.166	7.130	0.525
1186.999	663.145	80.002	20.009	100.524	20.167	6.925	0.569
1187.499	663.334	80.001	20.009	100.532	20.165	7.224	0.513
1187.999	663.659	80.003	20.009	100.530	20.168	6.820	0.484
1188.499	663.881	80.003	20.009	100.522	20.165	7.165	0.530
1188.999	664.175	80.001	20.009	100.513	20.170	6.695	0.531
1189.499	664.433	80.002	20.009	100.506	20.165	7.182	0.534
1189.999	664.699	80.002	20.008	100.499	20.169	6.741	0.538
1190.500	664.917	80.003	20.008	100.504	20.166	7.083	0.505
1191.000	665.199	80.002	20.008	100.512	20.166	7.055	0.492
1191.499	665.404	80.002	20.008	100.513	20.166	7.086	0.493
1191.999	665.680	80.002	20.008	100.512	20.167	6.929	0.484
1192.499	665.912	80.003	20.009	100.504	20.168	6.888	0.494
1192.999	666.249	80.002	20.009	100.492	20.165	7.134	0.538
1193.499	666.472	80.002	20.009	100.484	20.166	7.052	0.565
1193.999	666.637	80.001	20.008	100.483	20.167	6.970	0.474
1194.500	666.918	80.003	20.008	100.491	20.168	6.834	0.417
1195.000	667.196	80.003	20.009	100.505	20.166	7.063	0.503
1195.499	667.491	80.001	20.009	100.517	20.169	6.720	0.567
1196.000	667.715	80.002	20.008	100.520	20.170	6.689	0.546
1196.500	667.936	80.003	20.008	100.520	20.168	6.839	0.482
1197.000	668.212	80.001	20.009	100.511	20.170	6.707	0.471
1197.500	668.486	80.002	20.009	100.502	20.168	6.837	0.524
1197.999	668.711	80.002	20.008	100.498	20.168	6.896	0.525
1198.499	669.016	80.003	20.008	100.502	20.167	6.994	0.514
1198.999	669.189	80.002	20.008	100.511	20.166	7.039	0.504
1199.499	669.481	80.002	20.008	100.520	20.169	6.718	0.472
1200.000	669.781	80.003	20.008	100.528	20.167	7.002	0.529
1200.500	670.025	80.003	20.008	100.527	20.166	7.120	0.567
1200.999	670.237	80.001	20.008	100.520	20.167	6.976	0.500
1201.499	670.526	80.004	20.008	100.511	20.164	7.287	0.479
1201.999	670.755	80.002	20.009	100.501	20.165	7.228	0.510
1202.499	671.004	80.002	20.008	100.494	20.167	6.982	0.498
1202.999	671.229	80.002	20.008	100.500	20.166	7.136	0.476
1203.499	671.475	80.003	20.008	100.508	20.165	7.224	0.473
1203.999	671.748	80.001	20.008	100.515	20.167	6.942	0.495
1204.499	672.025	80.003	20.008	100.519	20.166	7.126	0.534
1204.999	672.284	80.001	20.008	100.519	20.168	6.894	0.543
1205.499	672.521	80.002	20.008	100.511	20.167	6.931	0.517
1205.999	672.800	80.002	20.008	100.504	20.168	6.907	0.506
1206.499	673.028	80.002	20.009	100.503	20.168	6.905	0.511
1206.999	673.235	80.001	20.008	100.513	20.168	6.837	0.471
1207.499	673.567	80.003	20.008	100.528	20.170	6.655	0.487
1207.999	673.777	80.003	20.008	100.543	20.170	6.688	0.541
1208.499	674.034	80.002	20.008	100.552	20.169	6.754	0.504
1208.999	674.265	80.003	20.008	100.548	20.170	6.660	0.478
1209.499	674.514	80.001	20.008	100.535	20.168	6.881	0.484
1209.999	674.752	80.002	20.009	100.519	20.170	6.631	0.483
1210.500	675.024	80.002	20.008	100.505	20.171	6.578	0.499
1211.000	675.210	80.002	20.008	100.497	20.170	6.654	0.484
1211.499	675.502	80.003	20.008	100.501	20.170	6.705	0.468
1211.999	675.773	80.001	20.008	100.509	20.170	6.659	0.521
1212.500	676.020	80.003	20.009	100.517	20.172	6.420	0.541
1213.000	676.262	80.003	20.008	100.525	20.171	6.562	0.503
1213.500	676.478	80.001	20.009	100.532	20.171	6.566	0.473
1214.001	676.770	80.003	20.009	100.534	20.173	6.331	0.483
1214.501	676.975	80.003	20.009	100.538	20.171	6.553	0.503
1215.000	677.228	80.002	20.009	100.546	20.171	6.522	0.478
1215.499	677.472	80.002	20.009	100.556	20.167	6.956	0.477
1215.999	677.697	80.002	20.008	100.563	20.169	6.801	0.483
1216.500	677.873	80.002	20.009	100.564	20.169	6.811	0.435
1217.000	678.177	80.001	20.009	100.558	20.165	7.139	0.441
1217.499	678.385	80.004	20.009	100.545	20.166	7.079	0.496
1217.999	678.636	80.002	20.009	100.534	20.167	7.024	0.485
1218.499	678.900	80.003	20.009	100.526	20.165	7.173	0.487
1218.999	679.181	80.002	20.009	100.525	20.164	7.284	0.530
1219.499	679.392	80.003	20.008	100.532	20.166	7.051	0.518
1219.999	679.661	80.003	20.008	100.536	20.164	7.313	0.486
1220.499	679.876	80.001	20.008	100.538	20.164	7.258	0.483
1220.999	680.172	80.002	20.009	100.534	20.164	7.245	0.498
1221.499	680.389	80.003	20.008	100.526	20.164	7.272	0.512
1221.999	680.661	80.002	20.009	100.512	20.165	7.184	0.501
1222.499	680.903	80.003	20.008	100.509	20.167	6.953	0.501
1222.999	681.174	80.002	20.009	100.508	20.167	6.957	0.513
1223.499	681.387	80.003	20.008	100.513	20.169	6.788	0.499
1223.999	681.655	80.002	20.009	100.520	20.169	6.810	0.483
1224.499	681.912	80.003	20.009	100.529	20.168	6.825	0.503
1224.999	682.153	80.002	20.009	100.533	20.165	7.145	0.511
1225.500	682.395	80.003	20.009	100.532	20.169	6.744	0.490
1226.000	682.645	80.002	20.009	100.531	20.167	7.017	0.487
1226.499	682.861	80.004	20.009	100.532	20.166	7.128	0.479
1226.999	683.083	80.001	20.008	100.534	20.167	6.963	0.452
1227.499	683.318	80.002	20.009	100.538	20.167	7.007	0.448
1227.999	683.600	80.002	20.009	100.539	20.168	6.918	0.487
1228.499	683.855	80.001	20.009	100.532	20.168	6.896	0.527
1228.999	684.039	80.002	20.009	100.525	20.169	6.790	0.488
1229.499	684.333	80.003	20.009	100.520	20.170	6.630	0.459
1229.999	684.591	80.000	20.009	100.515	20.171	6.544	0.515
1230.499	684.798	80.003	20.009	100.515	20.171	6.568	0.508
1230.999	684.999	80.002	20.009	100.522	20.170	6.625	0.436
1231.499	685.230	80.002	20.008	100.528	20.172	6.432	0.420
1232.000	685.488	80.002	20.009	100.532	20.171	6.529	0.460
1232.500	685.689	80.001	20.009	100.531	20.172	6.443	0.474
1232.999	685.926	80.002	20.009	100.532	20.171	6.532	0.448
1233.499	686.172	80.002	20.009	100.532	20.172	6.442	0.460
1233.999	686.429	80.002	20.009	100.536	20.171	6.542	0.493
1234.499	686.684	80.002	20.008	100.544	20.172	6.435	0.508
1235.000	686.913	80.002	20.008	100.549	20.173	6.384	0.498
1235.500	687.196	80.000	20.009	100.551	20.171	6.526	0.498
1235.999	687.420	80.003	20.009	100.547	20.174	6.216	0.510
1236.499	687.692	80.002	20.009	100.540	20.172	6.502	0.502
1236.999	687.913	80.001	20.009	100.531	20.174	6.231	0.495
1237.499	688.178	80.003	20.009	100.529	20.172	6.457	0.489
1237.999	688.372	80.001	20.008	100.535	20.174	6.260	0.472
1238.499	688.677	80.002	20.008	100.541	20.171	6.543	0.479
1238.999	688.905	80.001	20.008	100.545	20.172	6.491	0.516
1239.499	689.193	80.003	20.009	100.545	20.171	6.546	0.525
1240.000	689.471	80.001	20.009	100.541	20.170	6.619	0.541
1240.500	689.634	80.002	20.009	100.532	20.169	6.797	0.503
1240.999	689.864	80.001	20.009	100.531	20.170	6.713	0.417
1241.499	690.092	80.002	20.008	100.529	20.166	7.094	0.425
1241.999	690.367	80.003	20.009	100.530	20.168	6.840	0.480
1242.499	690.654	80.001	20.009	100.532	20.169	6.738	0.533
1242.999	690.880	80.002	20.010	100.529	20.172	6.502	0.537
1243.499	691.136	80.001	20.009	100.521	20.168	6.868	0.497
1243.999	691.362	80.002	20.009	100.514	20.172	6.467	0.482
1244.499	691.636	80.001	20.009	100.511	20.170	6.713	0.491
1244.999	691.852	80.002	20.009	100.513	20.169	6.816	0.495
1245.499	692.141	80.002	20.009	100.518	20.168	6.894	0.498
1245.999	692.405	80.002	20.009	100.526	20.170	6.696	0.529
1246.499	692.646	80.001	20.009	100.534	20.170	6.631	0.529
1246.999	692.832	80.001	20.009	100.537	20.169	6.779	0.467
1247.499	693.118	80.002	20.009	100.531	20.168	6.909	0.449
1247.999	693.355	80.001	20.010	100.530	20.169	6.721	0.497
1248.499	693.641	80.002	20.009	100.529	20.168	6.879	0.523
1248.999	693.894	80.002	20.009	100.536	20.168	6.835	0.531
1249.499	694.107	80.001	20.009	100.544	20.170	6.660	0.502
1249.999	694.404	80.002	20.009	100.556	20.168	6.844	0.488
1250.499	694.641	80.003	20.009	100.561	20.168	6.908	0.522
1250.999	694.903	80.002	20.009	100.560	20.167	6.957	0.516
1251.499	695.165	80.001	20.009	100.551	20.166	7.056	0.511
1251.999	695.399	80.002	20.010	100.544	20.168	6.864	0.510
1252.499	695.624	80.002	20.009	100.536	20.165	7.141	0.478
1252.999	695.897	80.002	20.009	100.533	20.166	7.100	0.478
1253.499	696.117	80.002	20.009	100.533	20.163	7.408	0.495
1253.999	696.372	80.003	20.009	100.535	20.164	7.281	0.484
1254.499	696.664	80.003	20.009	100.534	20.165	7.177	0.511
1254.999	696.909	80.002	20.010	100.526	20.166	7.032	0.542
1255.499	697.115	80.003	20.009	100.517	20.164	7.289	0.494
1255.999	697.435	80.001	20.010	100.509	20.162	7.495	0.489
1256.499	697.656	80.003	20.009	100.507	20.162	7.533	0.533
1256.999	697.885	80.001	20.009	100.507	20.162	7.536	0.495
1257.499	698.160	80.002	20.009	100.515	20.161	7.578	0.477
1257.999	698.408	80.002	20.009	100.522	20.162	7.514	0.514
1258.499	698.676	80.002	20.009	100.525	20.162	7.461	0.520
1258.999	698.973	80.002	20.009	100.518	20.162	7.498	0.541
1259.499	699.115	80.002	20.009	100.510	20.163	7.447	0.502
1259.999	699.460	80.001	20.009	100.503	20.163	7.381	0.463
1260.499	699.687	80.003	20.009	100.496	20.164	7.259	0.529
1260.999	699.969	80.000	20.009	100.498	20.165	7.217	0.540
1261.499	700.169	80.003	20.009	100.505	20.164	7.251	0.496
1261.999	700.455	80.001	20.009	100.513	20.164	7.301	0.484
1262.499	700.689	80.001	20.010	100.516	20.165	7.214	0.503
1262.999	700.941	80.002	20.010	100.519	20.164	7.300	0.503
1263.499	701.149	80.001	20.009	100.514	20.166	7.032	0.473
1263.999	701.425	80.002	20.010	100.507	20.163	7.427	0.472
1264.499	701.660	80.001	20.009	100.506	20.164	7.297	0.498
1265.000	701.901	80.005	20.009	100.511	20.164	7.284	0.494
1265.500	702.147	79.999	20.009	100.515	20.164	7.299	0.482
1265.999	702.373	80.003	20.009	100.523	20.162	7.482	0.479
1266.499	702.699	80.001	20.009	100.529	20.160	7.709	0.512
1266.999	702.970	80.002	20.010	100.524	20.161	7.554	0.574
1267.499	703.147	80.002	20.009	100.516	20.159	7.828	0.523
1267.999	703.418	80.003	20.010	100.509	20.160	7.666	0.448
1268.499	703.702	80.001	20.009	100.504	20.164	7.337	0.501
1268.999	703.952	80.001	20.009	100.504	20.163	7.434	0.544
1269.499	704.230	80.001	20.009	100.511	20.161	7.609	0.531
1269.999	704.420	80.003	20.009	100.518	20.161	7.580	0.498
1270.499	704.748	80.001	20.009	100.524	20.164	7.307	0.493
1270.999	704.978	80.002	20.010	100.524	20.162	7.488	0.538
1271.499	705.213	80.001	20.010	100.518	20.161	7.566	0.511
1271.999	705.486	80.001	20.009	100.515	20.162	7.509	0.486
1272.499	705.709	80.003	20.009	100.515	20.166	7.045	0.502
1272.999	706.018	80.002	20.009	100.518	20.160	7.675	0.514
1273.499	706.258	80.002	20.009	100.523	20.163	7.432	0.540
1273.999	706.532	80.002	20.008	100.528	20.161	7.567	0.531
1274.499	706.773	80.002	20.009	100.525	20.165	7.145	0.514
1274.999	707.031	80.002	20.009	100.518	20.162	7.488	0.507
1275.499	707.342	80.001	20.009	100.510	20.164	7.279	0.534
1275.999	707.592	80.001	20.009	100.504	20.161	7.563	0.565
1276.499	707.800	80.001	20.009	100.506	20.163	7.364	0.510
1276.999	708.096	80.003	20.009	100.511	20.162	7.540	0.481
1277.499	708.342	80.002	20.009	100.519	20.161	7.592	0.523
1277.999	708.606	80.002	20.009	100.522	20.159	7.853	0.526
1278.499	708.853	80.003	20.009	100.520	20.162	7.529	0.511
1278.999	709.123	80.002	20.009	100.509	20.159	7.830	0.514
1279.499	709.393	80.002	20.009	100.496	20.157	8.016	0.529
1279.999	709.600	80.002	20.009	100.489	20.161	7.641	0.509
1280.499	709.827	80.001	20.009	100.485	20.157	8.040	0.455
1281.000	710.156	80.002	20.009	100.486	20.157	7.997	0.495
1281.500	710.335	80.001	20.009	100.490	20.157	8.046	0.532
1281.999	710.640	80.002	20.009	100.494	20.158	7.942	0.496
1282.500	710.848	80.002	20.009	100.491	20.156	8.106	0.498
1283.000	711.091	80.001	20.009	100.484	20.157	8.075	0.482
1283.500	711.367	80.002	20.009	100.476	20.158	7.946	0.485
1284.000	711.604	80.002	20.009	100.474	20.157	7.988	0.516
1284.499	711.872	80.002	20.009	100.474	20.156	8.079	0.509
1284.999	712.111	80.002	20.009	100.484	20.153	8.484	0.506
1285.499	712.323	80.002	20.008	100.498	20.155	8.237	0.479
1286.000	712.614	80.002	20.009	100.512	20.153	8.454	0.477
1286.500	712.844	80.003	20.009	100.518	20.153	8.437	0.512
1286.999	713.101	80.002	20.009	100.518	20.157	8.061	0.504
1287.499	713.371	80.002	20.009	100.508	20.156	8.100	0.506
1287.999	713.582	80.002	20.010	100.496	20.155	8.256	0.504
1288.499	713.898	80.002	20.009	100.491	20.155	8.279	0.504
1288.999	714.149	80.002	20.009	100.496	20.153	8.487	0.548
1289.499	714.381	80.002	20.009	100.503	20.155	8.245	0.525
1290.000	714.594	80.002	20.009	100.515	20.155	8.214	0.464
1290.500	714.892	80.003	20.010	100.526	20.157	8.060	0.478
1290.999	715.180	80.003	20.009	100.526	20.155	8.277	0.548
1291.499	715.366	80.001	20.009	100.518	20.156	8.127	0.530
1292.000	715.610	80.001	20.009	100.511	20.155	8.203	0.451
1292.500	715.882	80.002	20.010	100.502	20.156	8.108	0.473
1292.999	716.149	80.004	20.009	100.501	20.156	8.114	0.528
1293.499	716.399	80.001	20.009	100.508	20.156	8.085	0.528
1294.000	716.645	80.002	20.009	100.517	20.157	8.061	0.507
1294.500	716.894	80.001	20.009	100.525	20.157	8.003	0.496
1294.999	717.123	80.002	20.009	100.528	20.161	7.581	0.486
1295.499	717.365	80.003	20.009	100.524	20.159	7.798	0.474
1295.999	717.632	80.002	20.009	100.521	20.160	7.686	0.490
1296.499	717.853	80.002	20.009	100.520	20.160	7.755	0.498
1296.999	718.069	80.001	20.009	100.520	20.160	7.733	0.463
1297.499	718.329	80.002	20.009	100.524	20.159	7.857	0.457
1298.000	718.598	80.001	20.009	100.532	20.157	8.039	0.502
1298.500	718.846	80.003	20.009	100.528	20.158	7.916	0.523
1298.999	719.095	80.002	20.009	100.518	20.159	7.768	0.507
1299.499	719.346	80.002	20.010	100.502	20.157	7.990	0.499
1299.999	719.604	80.001	20.009	100.490	20.159	7.866	0.504
1300.499	719.865	80.002	20.010	100.483	20.158	7.931	0.514
1301.000	720.036	80.002	20.009	100.490	20.155	8.273	0.475
1301.500	720.295	80.003	20.009	100.499	20.157	8.013	0.431
1301.999	720.547	80.002	20.009	100.515	20.158	7.924	0.471
1302.500	720.802	80.001	20.009	100.521	20.161	7.603	0.509
1303.000	721.058	80.002	20.009	100.518	20.158	7.924	0.509
1303.499	721.334	80.002	20.010	100.504	20.158	7.938	0.521
1303.999	721.504	80.003	20.009	100.495	20.159	7.860	0.489
1304.499	721.732	80.001	20.009	100.487	20.157	8.014	0.422
1304.999	721.958	80.002	20.010	100.490	20.156	8.153	0.426
1305.499	722.247	80.002	20.009	100.499	20.158	7.969	0.485
1305.999	722.498	80.002	20.009	100.513	20.156	8.085	0.528
1306.499	722.676	80.002	20.009	100.514	20.156	8.125	0.484
1307.000	722.948	80.002	20.009	100.514	20.156	8.143	0.439
1307.500	723.174	80.002	20.009	100.511	20.157	8.059	0.474
1307.999	723.449	80.003	20.009	100.504	20.157	8.044	0.500
1308.499	723.698	80.003	20.010	100.501	20.157	8.027	0.513
1309.000	723.926	80.003	20.009	100.509	20.157	8.025	0.500
1309.500	724.213	80.002	20.009	100.517	20.157	8.012	0.496
1309.999	724.441	80.003	20.009	100.520	20.156	8.162	0.515
1310.499	724.664	80.000	20.009	100.520	20.155	8.261	0.483
1310.999	724.968	80.002	20.010	100.516	20.156	8.152	0.489
1311.499	725.201	80.002	20.009	100.510	20.159	7.818	0.532
1311.999	725.488	80.002	20.009	100.508	20.156	8.126	0.528
1312.499	725.699	80.002	20.009	100.512	20.158	7.956	0.509
1312.999	725.991	80.003	20.009	100.518	20.159	7.785	0.500
1313.499	726.256	80.002	20.009	100.525	20.155	8.215	0.530
1313.999	726.505	80.003	20.009	100.529	20.158	7.939	0.536
1314.499	726.769	80.002	20.009	100.526	20.153	8.418	0.513
1315.000	727.036	80.003	20.009	100.524	20.154	8.375	0.522
1315.501	727.283	80.002	20.010	100.522	20.157	7.998	0.523
1316.000	727.534	80.002	20.008	100.522	20.158	7.878	0.506
1316.499	727.808	80.002	20.009	100.525	20.157	8.073	0.512
1316.999	728.079	80.002	20.009	100.530	20.158	7.885	0.535
1317.499	728.298	80.002	20.009	100.531	20.160	7.728	0.517
1317.999	728.613	80.002	20.009	100.533	20.163	7.404	0.512
1318.500	728.846	80.002	20.009	100.533	20.164	7.320	0.540
1319.000	729.104	80.001	20.009	100.533	20.161	7.643	0.520
1319.499	729.346	80.003	20.009	100.535	20.165	7.235	0.496
1319.999	729.597	80.002	20.009	100.541	20.165	7.191	0.497
1320.499	729.857	80.001	20.009	100.550	20.165	7.182	0.502
1320.999	730.109	80.002	20.008	100.557	20.165	7.195	0.511
1321.499	730.372	80.003	20.009	100.565	20.165	7.210	0.513
1321.999	730.630	80.002	20.009	100.569	20.164	7.327	0.518
1322.499	730.833	80.004	20.009	100.563	20.164	7.286	0.491
1322.999	731.134	80.002	20.010	100.554	20.164	7.310	0.483
1323.499	731.353	80.002	20.009	100.548	20.164	7.334	0.513
1323.999	731.605	80.002	20.009	100.547	20.162	7.547	0.496
1324.499	731.902	80.003	20.009	100.549	20.164	7.244	0.510
1324.999	732.152	80.001	20.009	100.556	20.162	7.542	0.548
1325.499	732.411	80.001	20.009	100.563	20.162	7.518	0.528
1325.999	732.609	80.002	20.009	100.564	20.163	7.364	0.483
1326.499	732.857	80.001	20.009	100.557	20.161	7.658	0.452
1327.000	733.217	80.001	20.009	100.548	20.160	7.711	0.528
1327.500	733.431	80.002	20.009	100.540	20.160	7.753	0.591
1327.999	733.668	80.002	20.009	100.532	20.163	7.380	0.512
1328.499	733.964	80.002	20.009	100.530	20.162	7.469	0.492
1329.000	734.214	80.001	20.009	100.530	20.165	7.220	0.540
1329.500	734.456	80.001	20.009	100.530	20.163	7.358	0.518
1329.999	734.729	80.003	20.009	100.531	20.164	7.332	0.503
1330.499	734.937	80.001	20.009	100.532	20.160	7.706	0.498
1331.000	735.223	80.002	20.010	100.532	20.161	7.602	0.488
1331.500	735.438	80.003	20.009	100.530	20.160	7.729	0.498
1331.999	735.715	80.002	20.010	100.530	20.162	7.486	0.497
1332.499	735.949	80.001	20.009	100.530	20.161	7.658	0.501
1332.999	736.216	80.002	20.009	100.531	20.159	7.838	0.506
1333.499	736.499	80.001	20.009	100.530	20.156	8.126	0.526
1333.999	736.784	80.003	20.009	100.526	20.156	8.099	0.559
1334.499	737.043	80.001	20.009	100.517	20.157	8.060	0.556
1335.000	737.279	80.002	20.009	100.509	20.156	8.086	0.520
1335.500	737.536	80.003	20.010	100.499	20.159	7.861	0.494
1335.999	737.863	80.001	20.010	100.489	20.156	8.092	0.538
1336.499	738.109	80.001	20.009	100.487	20.159	7.824	0.579
1336.999	738.306	80.002	20.009	100.489	20.155	8.219	0.508
1337.499	738.565	80.002	20.009	100.496	20.159	7.780	0.449
1337.999	738.830	80.002	20.010	100.506	20.156	8.163	0.490
1338.499	739.100	80.002	20.009	100.517	20.160	7.737	0.529
1338.999	739.338	80.002	20.009	100.526	20.158	7.906	0.521
1339.499	739.573	80.002	20.010	100.527	20.162	7.451	0.491
1339.999	739.831	80.002	20.009	100.519	20.161	7.611	0.483
1340.499	740.100	80.003	20.009	100.513	20.162	7.510	0.510
1340.999	740.335	80.002	20.009	100.513	20.160	7.691	0.515
1341.499	740.516	80.001	20.009	100.516	20.161	7.622	0.460
1341.999	740.818	80.001	20.009	100.529	20.163	7.447	0.449
1342.499	741.070	80.002	20.008	100.537	20.162	7.537	0.518
1342.999	741.289	80.002	20.010	100.545	20.160	7.743	0.513
1343.499	741.578	80.003	20.009	100.544	20.162	7.506	0.490
1343.999	741.816	80.002	20.009	100.537	20.163	7.445	0.517
1344.499	742.085	80.002	20.010	100.527	20.162	7.501	0.517
1344.999	742.367	80.002	20.009	100.526	20.161	7.614	0.529
