Sample Weight (mg):	0.99
Heating Rate (C/s):	0.5
Combustor Temp (C):	900
N2 Flow Rate (cc/min):	80
O2 Flow Rate (cc/min):	20
Time (s)	Temperature (C)	N2 flow rate (cc/min)	O2 flow rate (cc/min)	Flow Rate (cc/min)	Oxygen (%)	HRR (W/g)	Heating rate (C/s)
0.000	84.597	80.000	20.008	100.151	20.096	-0.400	0.007
0.501	84.578	79.999	20.008	100.135	20.095	-0.207	-0.026
1.000	84.596	80.000	20.008	100.120	20.095	-0.240	-0.029
1.500	84.574	80.001	20.008	100.118	20.094	0.314	-0.002
2.000	84.556	80.001	20.008	100.123	20.097	-0.794	-0.022
2.500	84.594	80.000	20.008	100.138	20.098	-1.094	-0.010
3.000	84.522	80.000	20.008	100.154	20.095	-0.227	-0.007
3.500	84.555	80.000	20.008	100.167	20.095	-0.093	-0.037
4.000	84.574	80.000	20.008	100.168	20.096	-0.420	0.006
4.500	84.517	80.000	20.008	100.165	20.096	-0.380	0.007
5.000	84.486	80.000	20.008	100.164	20.094	0.053	-0.063
5.500	84.505	80.001	20.008	100.164	20.098	-1.147	-0.050
6.000	84.504	80.000	20.008	100.173	20.095	-0.200	0.003
6.500	84.555	80.001	20.010	100.189	20.095	-0.274	0.034
7.000	84.549	80.002	20.011	100.205	20.097	-0.668	0.048
7.500	84.492	79.999	20.009	100.214	20.099	-1.383	-0.009
8.000	84.533	80.000	20.008	100.221	20.099	-1.310	-0.039
8.500	84.475	80.001	20.009	100.222	20.100	-1.750	-0.017
9.001	84.527	80.001	20.008	100.221	20.101	-2.023	-0.012
9.501	84.476	80.000	20.008	100.220	20.101	-1.889	-0.002
10.000	84.478	80.000	20.008	100.220	20.096	-0.487	-0.024
10.500	84.513	80.001	20.008	100.219	20.100	-1.689	-0.006
11.000	84.506	80.000	20.008	100.214	20.099	-1.502	0.033
11.501	84.510	80.000	20.008	100.207	20.098	-1.168	0.012
12.001	84.542	80.000	20.008	100.198	20.101	-1.982	0.016
12.500	84.504	80.001	20.008	100.184	20.101	-2.042	0.015
13.000	84.539	80.000	20.008	100.174	20.099	-1.415	-0.004
13.500	84.499	80.002	20.008	100.172	20.095	-0.207	-0.004
14.000	84.529	79.997	20.008	100.175	20.097	-0.801	-0.007
14.500	84.545	80.000	20.011	100.216	20.096	-0.494	0.018
15.000	84.541	80.002	20.011	100.183	20.095	-0.073	0.029
15.500	84.598	80.000	20.008	100.145	20.094	0.160	0.032
16.000	84.611	79.999	20.008	100.117	20.096	-0.500	0.062
16.500	84.571	80.002	20.008	100.095	20.098	-1.208	0.022
17.000	84.605	79.999	20.007	100.044	20.099	-1.388	-0.017
17.500	84.623	80.002	20.005	100.076	20.100	-1.728	0.022
18.000	84.602	79.999	20.014	100.064	20.098	-1.008	0.025
18.500	84.623	80.000	20.008	100.109	20.098	-1.148	-0.001
19.000	84.607	80.000	20.006	100.182	20.099	-1.535	0.003
19.500	84.669	80.000	20.007	100.236	20.098	-1.128	0.026
20.000	84.646	80.000	20.008	100.266	20.099	-1.388	0.043
20.500	84.727	80.000	20.008	100.329	20.099	-1.241	0.049
21.001	84.728	80.001	20.008	100.322	20.099	-1.454	0.070
21.500	84.758	80.000	20.008	100.276	20.098	-0.927	0.057
22.000	84.748	80.001	20.008	100.241	20.097	-0.714	0.026
22.500	84.761	80.000	20.007	100.227	20.099	-1.287	0.011
23.000	84.823	80.001	20.008	100.223	20.099	-1.261	0.039
23.500	84.829	80.000	20.008	100.216	20.102	-2.228	0.072
24.000	84.807	80.000	20.008	100.210	20.099	-1.528	0.026
24.500	84.856	80.000	20.008	100.205	20.098	-1.108	0.005
25.000	84.862	80.001	20.008	100.205	20.101	-1.902	0.041
25.500	84.943	80.000	20.008	100.204	20.097	-0.888	0.071
26.000	84.900	80.001	20.007	100.219	20.099	-1.389	0.063
26.500	84.959	80.000	20.009	100.229	20.100	-1.649	0.027
27.000	84.994	80.000	20.008	100.227	20.099	-1.402	0.055
27.500	85.057	80.001	20.009	100.215	20.103	-2.744	0.097
28.000	85.050	80.000	20.008	100.204	20.101	-2.016	0.077
28.500	85.104	80.001	20.008	100.189	20.100	-1.629	0.051
29.000	85.129	80.001	20.008	100.178	20.100	-1.683	0.062
29.500	85.130	80.001	20.007	100.181	20.100	-1.797	0.052
30.000	85.166	80.000	20.009	100.190	20.099	-1.236	0.032
30.500	85.191	80.000	20.010	100.195	20.099	-1.282	0.049
31.000	85.183	80.001	20.008	100.202	20.096	-0.521	0.039
31.500	85.221	80.001	20.008	100.212	20.096	-0.354	0.023
32.000	85.288	80.001	20.010	100.200	20.095	-0.160	0.067
32.501	85.326	80.000	20.009	100.185	20.096	-0.341	0.105
33.001	85.366	80.001	20.008	100.176	20.093	0.508	0.092
33.500	85.398	80.000	20.008	100.160	20.094	0.261	0.075
34.000	85.419	80.001	20.008	100.143	20.093	0.521	0.062
34.501	85.421	80.001	20.009	100.143	20.094	0.134	0.038
35.001	85.438	80.000	20.008	100.147	20.093	0.367	0.021
35.500	85.477	80.000	20.008	100.147	20.090	1.416	0.038
36.000	85.500	80.001	20.008	100.153	20.092	0.975	0.059
36.500	85.551	80.001	20.008	100.162	20.089	1.910	0.068
37.001	85.559	80.000	20.008	100.179	20.089	1.703	0.067
37.501	85.589	80.001	20.008	100.198	20.087	2.384	0.048
38.000	85.640	80.001	20.008	100.220	20.087	2.318	0.059
38.500	85.739	80.001	20.008	100.238	20.085	3.166	0.116
39.001	85.744	80.002	20.009	100.248	20.083	3.788	0.127
39.501	85.792	80.001	20.009	100.247	20.083	3.741	0.078
40.000	85.858	80.000	20.009	100.247	20.082	4.048	0.083
40.500	85.875	80.002	20.009	100.249	20.082	3.961	0.099
41.000	85.932	80.001	20.008	100.255	20.079	5.063	0.079
41.500	85.986	80.001	20.008	100.266	20.078	5.257	0.092
42.001	86.033	80.000	20.008	100.281	20.077	5.699	0.105
42.501	86.070	79.999	20.008	100.294	20.078	5.352	0.093
43.001	86.113	80.002	20.008	100.300	20.075	6.301	0.083
43.501	86.213	80.001	20.008	100.293	20.074	6.562	0.112
44.000	86.204	80.000	20.009	100.284	20.074	6.555	0.117
44.500	86.250	80.000	20.008	100.277	20.076	5.987	0.064
45.000	86.367	80.002	20.009	100.276	20.074	6.628	0.100
45.500	86.401	80.000	20.008	100.284	20.072	7.176	0.157
46.000	86.482	80.002	20.008	100.300	20.075	6.128	0.133
46.501	86.495	80.000	20.008	100.316	20.073	6.690	0.104
47.001	86.556	80.000	20.008	100.327	20.075	6.143	0.083
47.501	86.633	80.001	20.008	100.324	20.074	6.419	0.106
48.001	86.704	80.000	20.008	100.309	20.074	6.513	0.143
48.500	86.771	80.000	20.009	100.293	20.072	6.994	0.143
49.000	86.831	80.000	20.008	100.277	20.073	6.679	0.133
49.500	86.931	80.001	20.008	100.271	20.072	7.261	0.144
50.001	86.981	80.001	20.008	100.275	20.071	7.548	0.155
50.501	87.054	80.001	20.008	100.283	20.069	7.957	0.136
51.000	87.157	80.001	20.008	100.291	20.072	7.303	0.149
51.500	87.195	80.000	20.008	100.300	20.068	8.401	0.158
52.000	87.319	80.000	20.008	100.302	20.068	8.369	0.152
52.501	87.364	80.000	20.008	100.297	20.069	8.042	0.165
53.001	87.399	80.000	20.008	100.295	20.067	8.784	0.124
53.500	87.485	80.001	20.008	100.295	20.068	8.423	0.100
54.000	87.590	80.002	20.008	100.296	20.066	8.978	0.156
54.500	87.681	80.001	20.009	100.304	20.066	9.071	0.194
55.000	87.779	80.001	20.008	100.316	20.064	9.665	0.193
55.500	87.835	80.000	20.008	100.325	20.066	9.170	0.172
56.000	87.959	80.001	20.008	100.335	20.063	9.886	0.167
56.501	88.020	80.001	20.008	100.341	20.065	9.432	0.182
57.001	88.120	80.001	20.009	100.340	20.063	9.848	0.173
57.500	88.200	80.001	20.008	100.335	20.062	10.277	0.171
58.000	88.283	80.001	20.008	100.330	20.061	10.685	0.171
58.501	88.385	80.001	20.008	100.329	20.061	10.684	0.174
59.001	88.497	80.002	20.008	100.338	20.058	11.453	0.200
59.500	88.587	80.001	20.008	100.356	20.059	11.312	0.208
60.001	88.693	80.003	20.008	100.376	20.057	11.922	0.199
60.501	88.795	80.001	20.008	100.394	20.055	12.512	0.202
61.001	88.888	80.002	20.008	100.401	20.055	12.400	0.201
61.501	88.992	80.001	20.008	100.400	20.056	12.335	0.196
62.000	89.101	80.002	20.008	100.392	20.053	13.172	0.205
62.500	89.208	80.002	20.008	100.388	20.052	13.581	0.214
63.000	89.350	80.001	20.008	100.392	20.053	13.131	0.233
63.500	89.415	80.001	20.008	100.406	20.051	13.859	0.229
64.000	89.550	80.002	20.008	100.422	20.047	15.103	0.204
64.500	89.680	80.002	20.008	100.438	20.049	14.374	0.232
65.000	89.809	80.002	20.008	100.451	20.049	14.569	0.262
65.500	89.886	80.000	20.008	100.456	20.048	14.638	0.232
66.000	90.047	80.001	20.008	100.458	20.045	15.757	0.222
66.500	90.172	80.001	20.008	100.458	20.044	15.932	0.262
67.000	90.282	80.000	20.008	100.452	20.046	15.308	0.260
67.500	90.404	80.002	20.009	100.444	20.043	16.337	0.234
68.000	90.516	80.001	20.009	100.436	20.042	16.589	0.233
68.500	90.708	80.001	20.008	100.433	20.043	16.387	0.269
69.000	90.807	80.002	20.008	100.433	20.040	17.270	0.297
69.500	90.942	79.999	20.008	100.442	20.041	16.885	0.263
70.000	91.070	80.001	20.008	100.452	20.042	16.787	0.249
70.500	91.264	80.001	20.008	100.460	20.042	16.763	0.292
71.000	91.381	80.002	20.009	100.460	20.044	16.162	0.316
71.500	91.548	80.000	20.008	100.456	20.043	16.268	0.298
72.000	91.692	80.002	20.008	100.451	20.041	17.017	0.298
72.500	91.843	80.001	20.008	100.449	20.041	17.042	0.303
73.000	92.025	80.002	20.008	100.455	20.041	17.074	0.314
73.500	92.140	80.002	20.008	100.466	20.039	17.557	0.315
74.000	92.387	80.001	20.008	100.483	20.039	17.645	0.329
74.500	92.486	80.002	20.008	100.494	20.038	17.941	0.354
75.000	92.619	80.001	20.008	100.502	20.039	17.747	0.289
75.500	92.819	80.000	20.008	100.504	20.036	18.571	0.282
76.001	92.946	80.003	20.008	100.496	20.039	17.532	0.330
76.501	93.134	80.001	20.009	100.484	20.038	17.830	0.321
77.000	93.289	80.001	20.008	100.478	20.039	17.701	0.329
77.500	93.449	80.001	20.008	100.478	20.037	18.390	0.329
78.000	93.675	80.001	20.008	100.485	20.037	18.149	0.350
78.500	93.812	80.001	20.008	100.500	20.036	18.565	0.375
79.001	94.024	80.000	20.008	100.511	20.035	18.908	0.357
79.501	94.146	80.002	20.008	100.516	20.035	19.037	0.341
80.001	94.370	80.000	20.008	100.509	20.036	18.434	0.339
80.501	94.551	80.001	20.008	100.495	20.036	18.613	0.375
81.000	94.742	80.001	20.008	100.480	20.035	18.826	0.389
81.500	94.941	80.001	20.008	100.471	20.031	20.285	0.381
82.000	95.135	80.002	20.009	100.474	20.033	19.435	0.391
82.500	95.297	80.001	20.008	100.489	20.033	19.442	0.375
83.001	95.491	80.002	20.008	100.505	20.032	19.678	0.356
83.501	95.715	80.001	20.008	100.520	20.035	19.023	0.387
84.000	95.887	80.001	20.008	100.527	20.038	17.797	0.407
84.500	96.100	80.002	20.008	100.525	20.036	18.639	0.390
85.000	96.251	80.001	20.008	100.516	20.036	18.611	0.375
85.500	96.506	80.002	20.008	100.508	20.036	18.416	0.385
86.000	96.716	80.001	20.008	100.501	20.036	18.650	0.435
86.500	96.921	79.999	20.008	100.503	20.036	18.705	0.440
87.000	97.112	80.001	20.008	100.511	20.035	18.995	0.405
87.500	97.322	80.002	20.008	100.519	20.035	18.723	0.398
88.000	97.565	80.001	20.008	100.521	20.036	18.422	0.427
88.500	97.784	80.000	20.008	100.521	20.036	18.569	0.458
89.000	98.006	80.001	20.008	100.516	20.034	19.243	0.452
89.501	98.184	80.000	20.008	100.500	20.033	19.527	0.421
90.001	98.437	80.002	20.009	100.487	20.034	19.197	0.416
90.501	98.657	80.001	20.008	100.485	20.036	18.655	0.452
91.000	98.918	80.002	20.008	100.486	20.034	19.078	0.477
91.500	99.061	80.001	20.008	100.492	20.034	19.249	0.443
92.001	99.316	80.001	20.008	100.501	20.034	19.353	0.401
92.501	99.558	80.002	20.008	100.507	20.035	18.800	0.447
93.001	99.788	80.000	20.008	100.506	20.034	19.094	0.484
93.501	99.966	80.001	20.008	100.498	20.035	18.731	0.440
94.000	100.217	80.001	20.008	100.490	20.035	18.964	0.419
94.500	100.456	80.003	20.008	100.490	20.036	18.480	0.459
95.000	100.649	80.000	20.008	100.491	20.033	19.638	0.461
95.500	100.901	80.002	20.008	100.494	20.035	18.815	0.439
96.000	101.123	80.001	20.008	100.503	20.032	19.672	0.460
96.501	101.392	80.001	20.008	100.506	20.035	18.916	0.482
97.001	101.580	80.001	20.008	100.503	20.032	19.746	0.474
97.501	101.773	80.002	20.009	100.494	20.034	19.168	0.419
98.001	102.050	80.001	20.008	100.484	20.034	19.260	0.426
98.500	102.299	80.000	20.008	100.482	20.035	18.811	0.498
99.000	102.525	80.002	20.008	100.481	20.032	19.788	0.501
99.500	102.802	80.002	20.008	100.486	20.037	18.391	0.489
100.000	103.103	80.001	20.008	100.500	20.034	19.096	0.540
100.500	103.328	80.001	20.008	100.510	20.034	19.351	0.552
101.000	103.555	80.000	20.008	100.512	20.032	19.767	0.489
101.500	103.863	80.001	20.008	100.511	20.034	19.338	0.494
102.000	104.095	80.001	20.008	100.502	20.034	19.116	0.538
102.500	104.297	80.002	20.008	100.481	20.036	18.411	0.487
103.000	104.619	80.002	20.008	100.471	20.034	19.188	0.479
103.500	104.877	80.000	20.008	100.472	20.037	18.218	0.552
104.000	105.107	80.001	20.008	100.480	20.035	18.834	0.534
104.500	105.303	80.003	20.008	100.496	20.035	18.741	0.456
105.000	105.609	80.001	20.008	100.516	20.039	17.603	0.464
105.500	105.906	80.001	20.008	100.528	20.036	18.459	0.553
106.000	106.154	80.001	20.008	100.527	20.035	18.979	0.574
106.501	106.458	80.002	20.008	100.519	20.035	18.796	0.549
107.001	106.690	80.000	20.008	100.511	20.036	18.621	0.544
107.500	106.918	80.002	20.008	100.504	20.038	17.992	0.498
108.000	107.184	80.002	20.008	100.500	20.039	17.498	0.477
108.501	107.517	80.002	20.009	100.504	20.041	16.957	0.546
109.001	107.722	80.002	20.008	100.507	20.038	17.922	0.568
109.500	108.058	80.001	20.010	100.507	20.039	17.499	0.540
110.000	108.294	80.002	20.009	100.505	20.039	17.557	0.557
110.501	108.596	80.002	20.008	100.496	20.040	17.241	0.556
111.001	108.838	80.001	20.008	100.487	20.037	18.377	0.541
111.500	109.130	80.002	20.008	100.480	20.038	17.949	0.538
112.000	109.419	80.002	20.008	100.481	20.040	17.181	0.557
112.501	109.696	80.002	20.008	100.488	20.041	16.815	0.574
113.001	109.995	80.001	20.008	100.502	20.043	16.254	0.571
113.501	110.257	80.002	20.008	100.507	20.040	17.251	0.569
114.000	110.538	80.001	20.008	100.511	20.043	16.233	0.552
114.500	110.864	80.002	20.008	100.509	20.043	16.271	0.575
115.000	111.178	80.002	20.009	100.500	20.044	16.061	0.623
115.500	111.408	80.002	20.008	100.491	20.043	16.320	0.592
116.000	111.687	80.001	20.008	100.491	20.044	15.938	0.526
116.500	111.946	80.001	20.008	100.494	20.042	16.541	0.523
117.000	112.282	80.002	20.008	100.498	20.045	15.605	0.567
117.501	112.569	80.003	20.008	100.501	20.044	16.001	0.609
118.001	112.894	80.000	20.008	100.502	20.043	16.249	0.617
118.500	113.176	80.002	20.009	100.494	20.043	16.389	0.610
119.000	113.432	80.002	20.008	100.484	20.044	16.147	0.573
119.500	113.746	80.001	20.008	100.472	20.045	15.618	0.554
120.000	114.032	80.002	20.008	100.466	20.043	16.294	0.585
120.500	114.340	80.002	20.008	100.467	20.046	15.486	0.597
121.000	114.604	80.000	20.008	100.475	20.043	16.371	0.583
121.500	114.961	80.002	20.008	100.483	20.043	16.473	0.597
122.000	115.231	80.002	20.008	100.487	20.043	16.447	0.625
122.500	115.474	80.002	20.008	100.482	20.045	15.824	0.570
123.000	115.770	80.001	20.008	100.468	20.045	15.588	0.526
123.500	116.133	80.002	20.008	100.459	20.045	15.660	0.599
124.000	116.465	80.001	20.008	100.452	20.045	15.584	0.677
124.500	116.739	80.000	20.009	100.449	20.044	16.024	0.650
125.000	116.999	80.003	20.008	100.457	20.045	15.737	0.569
125.501	117.349	80.001	20.008	100.471	20.046	15.418	0.572
126.001	117.647	80.002	20.008	100.477	20.044	16.027	0.629
126.500	117.949	80.001	20.008	100.477	20.044	15.968	0.624
127.000	118.236	80.001	20.008	100.472	20.044	15.935	0.595
127.500	118.507	80.002	20.008	100.459	20.041	16.890	0.574
128.000	118.802	80.001	20.008	100.443	20.041	16.834	0.562
128.500	119.134	80.001	20.009	100.433	20.042	16.698	0.596
129.000	119.432	80.001	20.008	100.427	20.044	16.162	0.628
129.500	119.753	80.001	20.008	100.430	20.044	15.881	0.625
130.000	120.076	80.001	20.009	100.438	20.049	14.316	0.632
130.500	120.400	80.001	20.009	100.445	20.048	14.705	0.646
131.000	120.708	80.002	20.009	100.446	20.049	14.506	0.639
131.500	120.975	80.000	20.008	100.444	20.049	14.332	0.603
132.000	121.277	80.002	20.008	100.438	20.051	13.876	0.572
132.500	121.608	80.002	20.008	100.436	20.049	14.523	0.601
133.000	121.932	80.001	20.009	100.436	20.046	15.244	0.644
133.500	122.251	80.001	20.008	100.443	20.049	14.368	0.649
134.000	122.529	80.001	20.008	100.459	20.050	14.101	0.620
134.500	122.827	80.001	20.008	100.469	20.051	13.734	0.586
135.000	123.153	80.002	20.008	100.472	20.048	14.678	0.600
135.500	123.476	80.001	20.009	100.468	20.052	13.589	0.637
136.000	123.790	80.001	20.009	100.458	20.050	14.224	0.643
136.500	124.054	80.002	20.008	100.442	20.053	13.267	0.607
137.000	124.327	80.001	20.008	100.430	20.052	13.467	0.557
137.500	124.712	80.001	20.008	100.423	20.052	13.599	0.598
138.000	124.961	80.000	20.008	100.426	20.053	13.278	0.647
138.500	125.319	80.000	20.008	100.434	20.053	13.131	0.621
139.000	125.622	80.001	20.008	100.442	20.052	13.326	0.634
139.500	125.930	80.002	20.008	100.449	20.051	13.721	0.636
140.000	126.220	80.001	20.008	100.449	20.052	13.374	0.604
140.500	126.538	80.001	20.008	100.441	20.050	14.002	0.603
141.000	126.881	80.002	20.008	100.425	20.053	13.037	0.634
141.500	127.166	80.001	20.008	100.411	20.053	13.296	0.644
142.000	127.451	80.001	20.008	100.403	20.055	12.673	0.599
142.500	127.763	80.001	20.008	100.403	20.055	12.545	0.584
143.000	128.034	80.002	20.008	100.405	20.056	12.265	0.590
143.500	128.337	80.000	20.008	100.412	20.053	13.162	0.579
144.000	128.663	80.002	20.008	100.421	20.056	12.347	0.602
144.500	128.979	80.001	20.008	100.418	20.057	11.846	0.635
145.000	129.274	80.001	20.008	100.410	20.056	12.281	0.626
145.500	129.617	80.001	20.008	100.401	20.056	12.280	0.624
146.000	129.935	80.001	20.008	100.394	20.057	11.737	0.650
146.500	130.279	80.001	20.008	100.390	20.057	12.010	0.662
147.000	130.645	80.002	20.008	100.394	20.060	10.968	0.686
147.500	130.931	80.001	20.008	100.401	20.057	11.897	0.681
148.000	131.221	80.004	20.008	100.409	20.057	11.878	0.614
148.500	131.509	80.000	20.008	100.416	20.057	11.786	0.578
149.000	131.796	80.002	20.008	100.416	20.057	11.873	0.577
149.500	132.142	80.002	20.008	100.408	20.059	11.325	0.604
150.000	132.465	80.002	20.008	100.401	20.058	11.438	0.650
150.500	132.782	80.001	20.009	100.392	20.060	10.922	0.654
151.000	133.064	80.000	20.009	100.387	20.059	11.222	0.620
151.500	133.436	80.002	20.008	100.391	20.061	10.714	0.627
152.000	133.705	80.001	20.008	100.399	20.058	11.624	0.647
152.500	134.040	80.001	20.008	100.406	20.062	10.249	0.622
153.000	134.390	80.001	20.009	100.409	20.061	10.657	0.644
153.500	134.681	80.002	20.008	100.405	20.059	11.159	0.663
154.000	135.016	80.001	20.008	100.390	20.061	10.530	0.633
154.500	135.323	80.000	20.008	100.375	20.060	11.036	0.634
155.000	135.652	80.001	20.008	100.361	20.059	11.175	0.639
155.500	135.963	80.001	20.009	100.358	20.063	10.105	0.638
156.000	136.242	79.999	20.008	100.360	20.063	10.051	0.615
156.500	136.561	80.003	20.009	100.369	20.064	9.785	0.594
157.000	136.858	80.000	20.008	100.377	20.064	9.571	0.608
157.500	137.185	80.001	20.009	100.383	20.062	10.267	0.621
158.000	137.512	80.000	20.008	100.381	20.065	9.305	0.639
158.500	137.837	80.001	20.009	100.373	20.063	10.074	0.653
159.000	138.115	80.001	20.008	100.363	20.063	9.872	0.627
159.501	138.435	80.003	20.008	100.356	20.064	9.644	0.600
160.000	138.701	80.002	20.008	100.356	20.067	8.708	0.593
160.500	139.049	80.001	20.008	100.360	20.063	9.970	0.600
161.000	139.359	80.002	20.009	100.370	20.065	9.222	0.636
161.500	139.660	80.001	20.008	100.379	20.065	9.478	0.634
162.000	139.991	80.002	20.008	100.385	20.064	9.686	0.622
162.500	140.263	80.001	20.009	100.380	20.066	9.145	0.618
163.000	140.586	80.001	20.008	100.373	20.067	8.750	0.599
163.500	140.915	80.002	20.008	100.363	20.068	8.381	0.623
164.000	141.218	80.001	20.008	100.359	20.067	8.673	0.642
164.500	141.511	80.002	20.008	100.360	20.065	9.414	0.614
165.000	141.787	80.002	20.008	100.370	20.069	8.051	0.582
165.500	142.145	80.001	20.008	100.383	20.070	7.744	0.602
166.000	142.410	80.002	20.008	100.391	20.069	8.112	0.628
166.500	142.685	80.001	20.008	100.393	20.069	8.099	0.581
167.000	143.015	80.002	20.008	100.387	20.069	8.160	0.573
167.500	143.293	80.000	20.008	100.373	20.068	8.306	0.607
168.000	143.610	80.001	20.008	100.358	20.070	7.738	0.601
168.500	143.940	80.001	20.009	100.351	20.067	8.693	0.621
169.000	144.212	80.001	20.009	100.349	20.069	8.139	0.625
169.500	144.559	80.001	20.008	100.355	20.067	8.574	0.610
170.000	144.832	80.001	20.009	100.362	20.069	8.174	0.619
170.500	145.136	80.002	20.008	100.370	20.070	7.887	0.599
171.000	145.421	80.001	20.009	100.376	20.067	8.610	0.583
171.500	145.733	80.002	20.008	100.373	20.069	8.215	0.593
172.000	146.063	80.001	20.009	100.361	20.069	8.047	0.620
172.500	146.354	80.002	20.008	100.352	20.070	7.825	0.632
173.000	146.663	80.001	20.009	100.343	20.069	7.945	0.610
173.500	146.930	80.001	20.008	100.341	20.068	8.459	0.588
174.000	147.257	80.001	20.009	100.347	20.070	7.764	0.585
174.500	147.543	80.002	20.008	100.359	20.075	6.248	0.604
175.000	147.801	80.000	20.008	100.369	20.073	6.811	0.578
175.500	148.076	80.002	20.008	100.372	20.074	6.443	0.539
176.000	148.359	80.001	20.009	100.365	20.072	7.191	0.546
176.500	148.641	80.003	20.009	100.351	20.072	7.251	0.562
177.000	148.974	80.001	20.009	100.335	20.071	7.564	0.590
177.500	149.261	80.001	20.009	100.324	20.073	6.702	0.617
178.000	149.545	80.002	20.009	100.320	20.073	6.929	0.595
178.500	149.861	80.001	20.008	100.322	20.075	6.321	0.586
179.000	150.163	80.001	20.009	100.332	20.073	6.936	0.609
179.500	150.411	80.001	20.008	100.342	20.073	6.803	0.584
180.000	150.709	80.001	20.008	100.344	20.072	7.003	0.548
180.500	150.999	80.002	20.009	100.342	20.075	6.107	0.567
181.000	151.294	80.000	20.009	100.336	20.075	6.320	0.586
181.500	151.609	80.002	20.009	100.333	20.073	6.674	0.597
182.000	151.910	80.001	20.008	100.332	20.071	7.315	0.614
182.500	152.166	80.001	20.009	100.341	20.074	6.621	0.587
183.000	152.488	80.002	20.009	100.352	20.071	7.464	0.567
183.500	152.759	80.002	20.009	100.365	20.073	6.817	0.585
184.000	153.072	80.001	20.009	100.371	20.076	5.781	0.589
184.500	153.327	80.002	20.009	100.369	20.074	6.369	0.576
185.000	153.652	80.001	20.008	100.358	20.075	6.081	0.574
185.500	153.904	80.001	20.009	100.344	20.076	5.987	0.578
186.000	154.165	80.001	20.009	100.334	20.077	5.692	0.545
186.501	154.469	80.002	20.009	100.329	20.077	5.565	0.539
187.000	154.738	80.003	20.009	100.333	20.077	5.719	0.569
187.500	155.034	80.001	20.009	100.343	20.078	5.359	0.569
188.000	155.383	80.002	20.008	100.356	20.078	5.272	0.605
188.500	155.601	80.003	20.009	100.358	20.076	5.740	0.606
189.000	155.910	80.001	20.008	100.355	20.076	5.893	0.548
189.500	156.219	80.002	20.009	100.344	20.077	5.525	0.573
190.000	156.491	80.001	20.009	100.333	20.076	5.966	0.599
190.500	156.806	80.001	20.009	100.328	20.075	6.086	0.584
191.000	157.117	80.002	20.009	100.328	20.079	4.870	0.607
191.500	157.338	80.002	20.009	100.332	20.078	5.405	0.579
192.000	157.692	80.001	20.009	100.338	20.077	5.432	0.553
192.500	157.904	80.000	20.008	100.341	20.072	7.177	0.571
193.000	158.207	80.001	20.008	100.334	20.080	4.637	0.541
193.500	158.502	80.001	20.008	100.326	20.078	5.278	0.556
194.000	158.771	80.003	20.008	100.317	20.075	6.240	0.581
194.500	159.093	80.000	20.008	100.311	20.075	6.107	0.578
195.000	159.316	80.001	20.009	100.310	20.081	4.309	0.569
195.501	159.634	80.002	20.009	100.320	20.073	6.735	0.543
196.000	159.920	80.001	20.008	100.334	20.077	5.600	0.572
196.500	160.206	80.001	20.008	100.346	20.075	6.275	0.588
197.000	160.505	80.002	20.008	100.353	20.076	5.921	0.579
197.500	160.725	80.000	20.009	100.350	20.078	5.346	0.552
198.000	161.007	80.002	20.008	100.339	20.079	5.058	0.510
198.500	161.305	80.002	20.008	100.325	20.076	5.980	0.540
199.000	161.552	80.000	20.009	100.316	20.077	5.652	0.562
199.500	161.857	80.001	20.008	100.316	20.078	5.098	0.549
200.000	162.200	80.001	20.009	100.324	20.080	4.490	0.601
200.500	162.393	80.001	20.009	100.333	20.081	4.237	0.592
201.000	162.732	80.002	20.008	100.340	20.079	5.005	0.534
201.500	162.963	80.002	20.009	100.339	20.078	5.400	0.551
202.000	163.345	80.001	20.008	100.331	20.078	5.353	0.591
202.500	163.574	80.001	20.009	100.318	20.078	5.192	0.611
203.000	163.832	80.002	20.009	100.309	20.078	5.238	0.549
203.500	164.100	80.001	20.009	100.303	20.077	5.492	0.506
204.000	164.416	80.002	20.009	100.311	20.078	5.184	0.555
204.500	164.706	80.001	20.009	100.319	20.076	5.812	0.595
205.000	164.940	80.001	20.008	100.328	20.078	5.111	0.565
205.500	165.237	80.002	20.008	100.336	20.077	5.645	0.527
206.001	165.519	80.002	20.009	100.335	20.078	5.291	0.555
206.500	165.779	80.001	20.008	100.327	20.080	4.770	0.560
207.000	166.055	80.001	20.009	100.320	20.076	5.765	0.539
207.500	166.223	79.999	20.008	100.319	20.079	5.077	0.490
208.000	166.501	80.003	20.008	100.321	20.078	5.290	0.445
208.500	166.832	80.000	20.008	100.330	20.077	5.692	0.528
209.000	167.194	80.003	20.010	100.338	20.076	6.026	0.651
209.500	167.461	80.001	20.009	100.345	20.079	4.997	0.661
210.000	167.788	80.000	20.010	100.344	20.078	5.264	0.611
210.500	167.781	80.003	20.008	100.337	20.078	5.384	0.457
211.000	168.251	80.000	20.008	100.328	20.079	4.863	0.391
211.500	168.482	80.002	20.009	100.321	20.079	4.889	0.582
212.000	168.783	80.001	20.009	100.319	20.078	5.397	0.616
212.500	168.887	80.001	20.008	100.322	20.078	5.257	0.469
213.000	169.242	80.000	20.009	100.329	20.077	5.418	0.432
213.500	169.470	80.001	20.009	100.337	20.078	5.291	0.521
214.000	169.760	80.001	20.009	100.343	20.079	5.037	0.550
214.500	170.012	80.001	20.009	100.345	20.076	5.899	0.530
215.000	170.290	80.001	20.009	100.342	20.077	5.424	0.536
215.500	170.580	80.001	20.009	100.333	20.077	5.704	0.549
216.000	170.850	80.001	20.008	100.324	20.075	6.078	0.564
216.500	171.152	80.001	20.009	100.317	20.077	5.444	0.566
217.000	171.437	80.002	20.009	100.310	20.076	5.898	0.579
217.500	171.677	80.001	20.009	100.309	20.080	4.543	0.556
218.000	171.877	80.000	20.009	100.312	20.078	5.378	0.483
218.500	172.192	80.002	20.009	100.313	20.078	5.164	0.478
219.000	172.439	80.002	20.008	100.313	20.078	5.191	0.538
219.500	172.730	80.002	20.009	100.314	20.078	5.364	0.550
220.000	172.990	80.002	20.008	100.307	20.078	5.256	0.545
220.500	173.184	80.001	20.009	100.302	20.076	5.877	0.503
221.000	173.501	80.001	20.009	100.302	20.075	6.237	0.483
221.500	173.724	80.002	20.008	100.306	20.075	6.125	0.525
222.001	174.053	80.002	20.009	100.309	20.076	5.918	0.546
222.500	174.353	80.000	20.009	100.311	20.078	5.357	0.590
223.000	174.572	80.001	20.009	100.312	20.078	5.231	0.574
223.500	174.857	80.001	20.009	100.307	20.076	5.878	0.511
224.000	175.069	80.001	20.009	100.297	20.078	5.156	0.500
224.500	175.350	80.002	20.009	100.292	20.078	5.283	0.495
225.000	175.600	80.000	20.009	100.290	20.078	5.356	0.512
225.500	175.866	80.002	20.008	100.294	20.079	5.056	0.523
226.000	176.119	80.002	20.009	100.303	20.078	5.370	0.517
226.500	176.405	80.002	20.009	100.309	20.078	5.116	0.529
227.000	176.659	80.002	20.009	100.309	20.079	4.863	0.540
227.500	176.933	80.001	20.009	100.309	20.076	5.905	0.534
228.000	177.188	80.002	20.008	100.300	20.075	6.038	0.528
228.501	177.429	80.001	20.009	100.290	20.077	5.530	0.512
229.000	177.704	80.003	20.008	100.290	20.075	6.311	0.506
229.500	177.960	80.001	20.009	100.291	20.075	6.225	0.523
230.000	178.237	80.001	20.008	100.297	20.074	6.505	0.532
230.500	178.436	80.002	20.008	100.308	20.073	6.793	0.505
231.000	178.726	80.001	20.009	100.315	20.076	5.872	0.483
231.500	179.009	80.000	20.009	100.315	20.074	6.653	0.532
232.000	179.292	80.001	20.009	100.308	20.076	5.912	0.570
232.500	179.525	80.001	20.009	100.295	20.075	6.312	0.541
233.000	179.814	80.002	20.009	100.282	20.074	6.566	0.519
233.500	180.077	80.002	20.009	100.275	20.074	6.633	0.537
234.001	180.288	80.002	20.008	100.275	20.076	5.872	0.513
234.500	180.545	80.001	20.008	100.286	20.073	6.947	0.471
235.000	180.794	80.002	20.009	100.296	20.073	6.934	0.487
235.500	181.106	80.002	20.009	100.304	20.076	5.912	0.534
236.000	181.340	80.003	20.009	100.307	20.075	6.059	0.554
236.500	181.592	80.001	20.009	100.300	20.075	6.045	0.516
237.000	181.817	80.002	20.008	100.289	20.078	5.350	0.482
237.500	182.065	80.001	20.009	100.281	20.076	5.765	0.475
238.000	182.383	80.002	20.009	100.279	20.076	5.825	0.519
238.500	182.621	80.001	20.009	100.279	20.077	5.511	0.561
239.000	182.922	80.000	20.009	100.286	20.079	5.077	0.547
239.500	183.150	80.002	20.009	100.294	20.076	5.972	0.534
240.000	183.370	80.001	20.009	100.299	20.078	5.291	0.489
240.500	183.629	80.001	20.009	100.299	20.078	5.405	0.464
241.000	183.926	80.002	20.009	100.296	20.078	5.104	0.518
241.500	184.153	80.003	20.009	100.288	20.079	4.970	0.541
242.000	184.430	80.000	20.009	100.285	20.076	6.006	0.514
242.500	184.659	80.001	20.009	100.286	20.079	5.071	0.505
243.000	184.992	80.002	20.008	100.289	20.081	4.356	0.533
243.500	185.227	80.002	20.009	100.296	20.080	4.470	0.565
244.000	185.444	80.000	20.009	100.304	20.079	5.058	0.510
244.500	185.708	80.001	20.009	100.306	20.078	5.145	0.467
245.000	185.958	80.003	20.009	100.303	20.077	5.645	0.497
245.500	186.202	80.002	20.009	100.297	20.076	5.831	0.504
246.000	186.460	80.001	20.009	100.294	20.075	6.311	0.498
246.500	186.724	80.001	20.009	100.294	20.078	5.262	0.512
247.000	187.011	80.001	20.009	100.300	20.077	5.429	0.537
247.500	187.232	80.002	20.008	100.306	20.078	5.123	0.529
248.000	187.475	80.001	20.009	100.310	20.076	5.818	0.485
248.500	187.713	80.002	20.009	100.310	20.075	6.266	0.472
249.000	187.962	80.002	20.008	100.309	20.075	6.092	0.484
249.500	188.204	80.002	20.009	100.302	20.076	5.979	0.489
250.000	188.443	80.001	20.009	100.298	20.076	5.958	0.486
250.500	188.707	80.002	20.008	100.297	20.074	6.652	0.492
251.000	189.006	80.002	20.009	100.298	20.074	6.485	0.533
251.500	189.220	80.001	20.008	100.304	20.075	6.105	0.538
252.000	189.440	80.002	20.008	100.311	20.074	6.419	0.474
252.501	189.734	80.003	20.008	100.312	20.076	5.945	0.474
253.000	190.019	80.001	20.009	100.314	20.075	6.247	0.546
253.500	190.244	80.002	20.008	100.314	20.075	6.120	0.545
254.000	190.514	80.001	20.008	100.309	20.077	5.591	0.502
254.500	190.796	80.001	20.009	100.304	20.077	5.704	0.523
255.000	191.021	80.001	20.008	100.308	20.079	5.003	0.529
255.500	191.234	80.002	20.008	100.314	20.078	5.343	0.473
256.000	191.496	80.002	20.008	100.322	20.077	5.511	0.457
256.500	191.760	80.001	20.008	100.330	20.077	5.678	0.501
257.001	192.035	80.001	20.008	100.331	20.076	5.979	0.532
257.500	192.268	80.002	20.009	100.324	20.077	5.658	0.523
258.000	192.522	80.001	20.009	100.309	20.079	5.090	0.498
258.500	192.807	80.001	20.009	100.293	20.080	4.575	0.513
259.000	193.019	80.002	20.009	100.277	20.080	4.735	0.518
259.500	193.273	80.003	20.008	100.270	20.077	5.610	0.481
260.000	193.538	80.001	20.009	100.273	20.078	5.162	0.493
260.500	193.757	80.003	20.008	100.282	20.079	4.983	0.502
261.000	193.992	80.001	20.009	100.291	20.080	4.629	0.469
261.500	194.221	80.001	20.008	100.299	20.080	4.629	0.459
262.000	194.524	80.002	20.008	100.304	20.079	4.950	0.498
262.500	194.778	80.001	20.009	100.301	20.077	5.658	0.544
263.000	194.983	80.002	20.009	100.295	20.082	3.981	0.508
263.500	195.281	80.001	20.009	100.287	20.078	5.143	0.481
264.000	195.537	80.000	20.009	100.285	20.078	5.177	0.528
264.500	195.793	80.001	20.008	100.289	20.078	5.297	0.533
265.001	196.007	80.002	20.008	100.299	20.080	4.636	0.491
265.501	196.275	80.002	20.008	100.307	20.080	4.576	0.476
266.000	196.519	80.002	20.009	100.314	20.077	5.518	0.497
266.500	196.734	80.002	20.008	100.315	20.079	4.816	0.485
267.000	196.986	80.002	20.008	100.307	20.077	5.537	0.463
267.500	197.263	80.002	20.009	100.291	20.081	4.227	0.498
268.000	197.505	80.002	20.008	100.288	20.079	5.009	0.524
268.500	197.773	80.001	20.008	100.289	20.079	4.915	0.514
269.000	197.998	80.001	20.008	100.294	20.079	4.983	0.501
269.500	198.288	80.001	20.008	100.299	20.078	5.277	0.504
270.000	198.518	80.001	20.008	100.305	20.078	5.190	0.517
270.500	198.787	80.000	20.008	100.304	20.079	4.816	0.510
271.000	199.023	80.002	20.008	100.295	20.077	5.511	0.502
271.500	199.281	80.002	20.008	100.284	20.077	5.678	0.499
272.000	199.531	80.001	20.009	100.277	20.078	5.150	0.501
272.500	199.755	80.001	20.008	100.275	20.080	4.602	0.491
273.000	199.984	80.001	20.008	100.278	20.080	4.502	0.463
273.501	200.293	80.001	20.008	100.289	20.083	3.721	0.496
274.000	200.560	80.000	20.008	100.297	20.080	4.509	0.557
274.500	200.816	80.001	20.008	100.305	20.081	4.235	0.550
275.000	201.013	80.001	20.008	100.308	20.078	5.110	0.488
275.501	201.314	80.002	20.008	100.306	20.081	4.448	0.475
276.001	201.515	80.002	20.008	100.297	20.080	4.468	0.500
276.500	201.785	80.001	20.008	100.295	20.080	4.615	0.487
277.000	202.051	80.002	20.008	100.295	20.082	4.121	0.503
277.500	202.314	80.001	20.008	100.295	20.085	3.139	0.532
278.000	202.520	80.002	20.008	100.298	20.083	3.627	0.499
278.500	202.769	80.002	20.008	100.305	20.081	4.322	0.462
279.001	203.063	80.001	20.008	100.302	20.079	4.896	0.499
279.500	203.274	80.001	20.008	100.294	20.080	4.609	0.524
280.000	203.547	80.002	20.009	100.285	20.079	4.896	0.495
280.500	203.775	80.002	20.009	100.278	20.081	4.409	0.492
281.000	204.062	80.000	20.008	100.277	20.079	4.837	0.508
281.500	204.333	80.001	20.008	100.282	20.078	5.184	0.537
282.000	204.542	80.001	20.009	100.291	20.078	5.298	0.519
282.500	204.829	80.001	20.009	100.299	20.080	4.617	0.488
283.000	205.043	80.001	20.007	100.304	20.079	4.931	0.499
283.500	205.324	80.002	20.008	100.304	20.081	4.443	0.498
284.000	205.540	80.001	20.009	100.298	20.081	4.315	0.496
284.500	205.812	80.002	20.008	100.297	20.081	4.295	0.493
285.000	206.053	80.000	20.008	100.296	20.084	3.433	0.501
285.500	206.316	80.001	20.008	100.299	20.080	4.555	0.509
286.000	206.559	80.001	20.008	100.304	20.081	4.181	0.505
286.500	206.819	80.001	20.008	100.310	20.081	4.288	0.504
287.000	207.052	80.001	20.008	100.309	20.081	4.221	0.497
287.500	207.296	80.002	20.008	100.309	20.080	4.601	0.485
288.000	207.577	80.002	20.009	100.302	20.081	4.281	0.501
288.500	207.827	80.002	20.009	100.291	20.082	3.886	0.528
289.000	208.069	80.001	20.008	100.283	20.081	4.247	0.512
289.500	208.329	80.001	20.008	100.282	20.080	4.528	0.497
290.000	208.594	80.002	20.008	100.283	20.081	4.375	0.514
290.500	208.873	80.000	20.008	100.288	20.080	4.502	0.534
291.000	209.073	80.003	20.008	100.295	20.080	4.736	0.512
291.500	209.366	80.002	20.008	100.300	20.078	5.163	0.486
292.000	209.598	80.001	20.008	100.301	20.080	4.522	0.509
292.500	209.862	80.002	20.008	100.300	20.080	4.762	0.510
293.000	210.115	80.002	20.008	100.298	20.081	4.167	0.506
293.500	210.382	80.001	20.009	100.299	20.081	4.448	0.519
294.001	210.583	80.003	20.008	100.307	20.081	4.261	0.494
294.501	210.818	80.001	20.008	100.316	20.080	4.528	0.452
295.000	211.095	80.002	20.008	100.322	20.081	4.335	0.474
295.500	211.317	80.001	20.009	100.323	20.079	4.989	0.506
296.000	211.539	80.000	20.008	100.321	20.077	5.503	0.471
296.500	211.804	80.001	20.008	100.311	20.078	5.403	0.465
297.000	212.109	80.002	20.008	100.302	20.078	5.262	0.528
297.500	212.312	80.001	20.008	100.295	20.078	5.309	0.539
298.000	212.549	80.001	20.008	100.294	20.078	5.149	0.474
298.500	212.859	80.002	20.008	100.294	20.079	5.016	0.494
299.000	213.057	80.001	20.008	100.297	20.079	5.009	0.527
299.500	213.335	80.001	20.008	100.293	20.079	4.816	0.492
300.000	213.593	80.002	20.008	100.288	20.080	4.615	0.506
300.500	213.878	80.002	20.008	100.280	20.081	4.281	0.539
301.000	214.133	80.001	20.008	100.273	20.081	4.260	0.542
301.500	214.397	80.001	20.008	100.269	20.080	4.668	0.530
302.000	214.653	80.002	20.008	100.273	20.081	4.274	0.519
302.500	214.860	80.001	20.008	100.281	20.080	4.495	0.491
303.000	215.120	80.002	20.008	100.289	20.082	3.987	0.465
303.500	215.401	80.001	20.008	100.296	20.080	4.649	0.504
304.000	215.637	80.003	20.008	100.298	20.081	4.234	0.529
304.500	215.911	80.002	20.008	100.294	20.081	4.341	0.513
305.000	216.135	80.001	20.008	100.287	20.080	4.494	0.504
305.500	216.380	80.001	20.008	100.279	20.082	3.973	0.484
306.000	216.669	80.001	20.008	100.275	20.081	4.381	0.502
306.500	216.925	80.003	20.009	100.277	20.081	4.247	0.539
307.000	217.145	80.001	20.009	100.280	20.079	4.909	0.510
307.500	217.426	80.001	20.008	100.287	20.078	5.396	0.489
308.000	217.660	80.002	20.008	100.293	20.078	5.149	0.508
308.500	217.857	80.001	20.009	100.290	20.081	4.327	0.473
309.000	218.181	80.002	20.008	100.283	20.080	4.720	0.476
309.500	218.422	80.003	20.008	100.276	20.083	3.612	0.543
310.000	218.706	80.001	20.009	100.268	20.082	4.006	0.545
310.500	218.913	80.002	20.008	100.270	20.082	4.033	0.508
311.000	219.193	80.001	20.008	100.278	20.080	4.668	0.489
311.500	219.408	80.001	20.007	100.285	20.081	4.354	0.491
312.000	219.673	80.002	20.008	100.291	20.080	4.548	0.488
312.501	219.920	80.001	20.008	100.291	20.080	4.761	0.496
313.000	220.131	80.002	20.008	100.284	20.080	4.681	0.485
313.500	220.440	80.002	20.008	100.277	20.081	4.260	0.489
314.000	220.703	80.001	20.009	100.269	20.081	4.340	0.546
314.500	220.934	80.002	20.008	100.268	20.081	4.247	0.533
315.000	221.186	80.002	20.008	100.274	20.082	4.107	0.488
315.500	221.486	80.002	20.008	100.281	20.078	5.369	0.518
316.000	221.739	80.002	20.008	100.287	20.082	4.100	0.553
316.501	221.978	80.002	20.008	100.287	20.079	4.915	0.523
317.000	222.269	80.001	20.008	100.284	20.080	4.614	0.511
317.500	222.491	80.002	20.008	100.277	20.080	4.587	0.521
318.000	222.732	80.001	20.008	100.271	20.079	4.841	0.488
318.500	223.004	80.001	20.008	100.265	20.077	5.476	0.488
319.000	223.282	80.003	20.008	100.269	20.080	4.481	0.532
319.500	223.542	80.001	20.008	100.276	20.081	4.441	0.544
320.000	223.760	80.001	20.008	100.277	20.080	4.728	0.508
320.500	224.044	80.002	20.008	100.277	20.080	4.515	0.490
321.000	224.291	80.003	20.008	100.273	20.081	4.387	0.516
321.500	224.550	80.001	20.008	100.265	20.084	3.292	0.518
322.000	224.805	80.002	20.009	100.254	20.082	4.107	0.511
322.500	225.065	80.002	20.008	100.254	20.079	4.869	0.515
323.000	225.299	80.003	20.008	100.257	20.080	4.649	0.504
323.500	225.564	80.001	20.009	100.267	20.081	4.155	0.497
324.000	225.828	80.002	20.008	100.273	20.079	5.017	0.514
324.500	226.094	80.002	20.007	100.279	20.081	4.175	0.529
325.000	226.350	80.002	20.008	100.279	20.081	4.201	0.526
325.500	226.613	80.002	20.008	100.273	20.080	4.662	0.520
326.000	226.871	80.001	20.008	100.266	20.083	3.814	0.520
326.500	227.082	80.002	20.009	100.263	20.081	4.242	0.495
327.000	227.368	80.001	20.008	100.263	20.081	4.269	0.483
327.500	227.605	80.001	20.008	100.268	20.083	3.781	0.510
328.000	227.871	80.003	20.008	100.275	20.081	4.388	0.512
328.500	228.123	80.002	20.008	100.277	20.080	4.622	0.511
329.000	228.389	80.001	20.008	100.276	20.082	3.861	0.519
329.500	228.613	80.002	20.008	100.271	20.084	3.300	0.504
330.000	228.909	80.002	20.008	100.265	20.081	4.328	0.505
330.500	229.157	80.001	20.008	100.261	20.080	4.536	0.532
331.000	229.374	80.003	20.008	100.264	20.082	3.988	0.504
331.500	229.663	80.002	20.008	100.272	20.081	4.388	0.486
332.000	229.912	80.001	20.007	100.279	20.080	4.642	0.522
332.500	230.150	80.001	20.008	100.282	20.083	3.653	0.513
333.001	230.403	80.003	20.008	100.282	20.083	3.720	0.489
333.500	230.695	80.002	20.008	100.278	20.084	3.326	0.518
334.000	230.899	80.001	20.008	100.273	20.083	3.693	0.520
334.501	231.200	80.002	20.008	100.276	20.082	4.034	0.500
335.001	231.444	80.003	20.008	100.282	20.082	3.914	0.525
335.500	231.692	80.001	20.008	100.294	20.084	3.393	0.519
336.000	231.991	80.002	20.008	100.302	20.082	3.847	0.520
336.500	232.180	80.002	20.008	100.308	20.083	3.733	0.517
337.000	232.472	80.002	20.008	100.305	20.086	2.645	0.484
337.500	232.715	80.002	20.009	100.301	20.083	3.680	0.508
338.000	232.940	80.003	20.008	100.297	20.085	3.173	0.502
338.500	233.220	80.002	20.008	100.298	20.084	3.273	0.487
339.000	233.421	80.002	20.008	100.300	20.083	3.527	0.493
339.500	233.720	80.002	20.008	100.304	20.083	3.768	0.491
340.000	233.943	80.003	20.008	100.306	20.084	3.206	0.511
340.500	234.239	80.002	20.008	100.305	20.085	3.099	0.520
341.000	234.467	80.001	20.009	100.297	20.083	3.701	0.522
341.500	234.723	80.003	20.008	100.292	20.087	2.431	0.504
342.000	234.991	80.001	20.008	100.291	20.085	3.093	0.504
342.500	235.261	80.001	20.008	100.291	20.082	4.054	0.531
343.000	235.483	80.003	20.008	100.293	20.084	3.420	0.515
343.500	235.715	80.002	20.008	100.299	20.086	2.732	0.473
344.000	235.991	80.002	20.008	100.299	20.086	2.765	0.481
344.500	236.220	80.002	20.008	100.293	20.085	3.172	0.506
345.000	236.469	80.002	20.009	100.285	20.083	3.606	0.491
345.500	236.774	80.002	20.008	100.279	20.084	3.272	0.516
346.000	236.976	80.003	20.008	100.280	20.086	2.725	0.531
346.500	237.262	80.001	20.008	100.282	20.085	2.952	0.498
347.000	237.533	80.001	20.008	100.288	20.082	3.847	0.523
347.500	237.794	80.002	20.008	100.295	20.084	3.299	0.545
348.000	238.019	80.002	20.008	100.294	20.083	3.813	0.509
348.500	238.297	80.002	20.008	100.287	20.085	3.125	0.494
349.000	238.501	80.002	20.009	100.280	20.087	2.524	0.493
349.500	238.795	80.003	20.008	100.278	20.085	2.965	0.490
350.000	239.040	80.001	20.008	100.280	20.086	2.852	0.518
350.500	239.290	80.002	20.008	100.288	20.085	3.079	0.517
351.000	239.561	80.002	20.008	100.295	20.085	3.059	0.508
351.500	239.833	80.002	20.008	100.303	20.087	2.438	0.532
352.000	240.088	80.002	20.008	100.306	20.087	2.437	0.536
352.500	240.308	80.001	20.008	100.303	20.086	2.791	0.501
353.000	240.572	80.002	20.008	100.301	20.085	2.945	0.479
353.500	240.837	80.002	20.008	100.300	20.085	3.172	0.506
354.000	241.104	80.002	20.008	100.298	20.086	2.812	0.531
354.500	241.340	80.002	20.008	100.298	20.088	2.071	0.518
355.000	241.576	80.001	20.008	100.297	20.087	2.451	0.488
355.500	241.877	80.001	20.008	100.295	20.086	2.845	0.504
356.000	242.128	80.002	20.008	100.288	20.087	2.324	0.544
356.500	242.429	80.002	20.008	100.283	20.086	2.751	0.552
357.000	242.676	80.002	20.008	100.275	20.088	2.163	0.551
357.501	242.931	80.001	20.008	100.269	20.084	3.419	0.525
358.000	243.163	80.001	20.008	100.271	20.086	2.651	0.494
358.500	243.440	80.003	20.008	100.279	20.088	2.050	0.498
359.000	243.712	80.001	20.008	100.286	20.086	2.671	0.529
359.500	243.940	80.001	20.008	100.291	20.085	2.892	0.524
360.000	244.216	80.002	20.008	100.289	20.086	2.611	0.502
360.500	244.432	80.001	20.008	100.283	20.085	2.991	0.498
361.001	244.703	80.001	20.008	100.275	20.086	2.797	0.490
361.500	244.966	80.003	20.008	100.270	20.082	3.839	0.511
362.000	245.215	80.000	20.008	100.273	20.080	4.575	0.523
362.500	245.486	80.002	20.008	100.281	20.086	2.839	0.516
363.000	245.727	80.001	20.008	100.288	20.082	3.861	0.516
363.500	245.953	80.002	20.008	100.292	20.084	3.213	0.489
364.000	246.229	80.002	20.008	100.289	20.087	2.364	0.484
364.500	246.519	80.002	20.008	100.281	20.086	2.818	0.534
365.000	246.737	80.001	20.009	100.273	20.083	3.746	0.537
365.500	246.979	80.001	20.009	100.268	20.083	3.706	0.484
366.000	247.215	80.002	20.008	100.272	20.082	3.961	0.469
366.500	247.495	80.002	20.008	100.279	20.084	3.279	0.497
367.001	247.751	80.002	20.008	100.287	20.081	4.308	0.526
367.500	248.007	80.002	20.009	100.295	20.083	3.740	0.524
368.000	248.280	80.002	20.008	100.293	20.082	3.826	0.521
368.500	248.515	80.002	20.008	100.285	20.082	4.080	0.519
369.000	248.789	80.002	20.008	100.277	20.082	3.886	0.509
369.500	249.033	80.001	20.008	100.269	20.082	3.886	0.514
370.000	249.252	80.001	20.008	100.264	20.083	3.673	0.491
370.500	249.549	80.001	20.009	100.271	20.080	4.488	0.489
371.000	249.793	80.002	20.009	100.279	20.082	4.101	0.528
371.500	250.012	80.002	20.008	100.281	20.082	3.907	0.502
372.000	250.337	80.002	20.008	100.281	20.082	4.061	0.504
372.500	250.522	80.001	20.009	100.273	20.082	3.867	0.527
373.000	250.793	80.002	20.009	100.259	20.079	4.821	0.483
373.500	251.007	80.001	20.008	100.251	20.084	3.319	0.471
374.000	251.295	80.002	20.008	100.251	20.081	4.247	0.493
374.500	251.549	80.000	20.008	100.261	20.081	4.368	0.522
375.001	251.821	80.003	20.008	100.275	20.082	4.067	0.534
375.500	252.037	80.002	20.008	100.289	20.081	4.388	0.507
376.000	252.324	80.002	20.008	100.294	20.082	3.847	0.495
376.500	252.541	80.002	20.008	100.293	20.081	4.347	0.503
377.000	252.793	80.002	20.008	100.285	20.081	4.447	0.486
377.500	253.028	80.002	20.008	100.278	20.079	4.867	0.478
378.000	253.256	80.002	20.009	100.275	20.081	4.427	0.475
378.500	253.528	80.002	20.009	100.279	20.082	4.027	0.482
379.000	253.799	80.001	20.009	100.286	20.083	3.760	0.521
379.500	254.052	80.002	20.009	100.288	20.082	3.827	0.533
380.000	254.366	80.003	20.009	100.288	20.082	4.134	0.546
380.500	254.571	80.001	20.010	100.282	20.080	4.614	0.543
381.000	254.807	80.000	20.009	100.272	20.084	3.385	0.480
381.500	255.045	80.003	20.008	100.264	20.082	4.112	0.458
382.000	255.311	80.001	20.008	100.262	20.083	3.512	0.489
382.500	255.547	80.002	20.009	100.265	20.084	3.506	0.502
383.000	255.774	80.001	20.009	100.274	20.081	4.448	0.482
383.500	256.030	80.002	20.008	100.285	20.084	3.500	0.474
384.000	256.300	80.001	20.009	100.287	20.083	3.707	0.504
384.500	256.559	80.001	20.009	100.286	20.083	3.820	0.527
385.000	256.783	80.002	20.009	100.281	20.083	3.633	0.506
385.500	257.074	80.002	20.009	100.273	20.080	4.694	0.499
386.000	257.337	80.001	20.009	100.265	20.081	4.321	0.534
386.500	257.538	80.002	20.008	100.269	20.080	4.668	0.509
387.000	257.813	80.002	20.008	100.276	20.080	4.675	0.470
387.500	258.106	80.002	20.008	100.284	20.080	4.495	0.522
388.000	258.313	80.002	20.008	100.287	20.082	3.927	0.534
388.500	258.569	80.001	20.008	100.287	20.082	3.974	0.482
389.000	258.808	80.002	20.009	100.274	20.084	3.466	0.479
389.500	259.042	80.002	20.008	100.262	20.082	4.107	0.484
390.000	259.320	80.002	20.009	100.254	20.082	4.093	0.493
390.500	259.545	80.001	20.008	100.252	20.082	4.007	0.508
391.000	259.798	80.001	20.008	100.256	20.082	4.007	0.491
391.500	260.100	80.002	20.008	100.270	20.083	3.613	0.516
392.000	260.337	80.001	20.008	100.281	20.083	3.653	0.547
392.500	260.580	80.002	20.008	100.282	20.081	4.380	0.510
393.000	260.794	80.002	20.008	100.276	20.082	3.966	0.469
393.500	261.023	80.001	20.008	100.265	20.082	4.093	0.450
394.000	261.315	80.003	20.008	100.250	20.082	4.079	0.482
394.500	261.574	80.001	20.008	100.245	20.078	5.115	0.536
395.000	261.843	80.001	20.008	100.250	20.082	4.013	0.540
395.500	262.054	80.001	20.008	100.264	20.081	4.213	0.504
396.000	262.332	80.000	20.008	100.279	20.080	4.527	0.484
396.500	262.570	80.003	20.008	100.289	20.082	3.993	0.502
397.000	262.805	80.000	20.008	100.288	20.081	4.280	0.494
397.500	263.082	79.999	20.008	100.282	20.079	4.787	0.492
398.001	263.329	80.002	20.008	100.274	20.080	4.494	0.518
398.500	263.573	79.999	20.009	100.268	20.081	4.173	0.508
399.000	263.796	80.001	20.008	100.274	20.081	4.207	0.479
399.500	264.072	80.002	20.007	100.282	20.081	4.200	0.483
400.000	264.311	80.001	20.008	100.288	20.079	5.001	0.507
400.500	264.523	80.001	20.007	100.289	20.081	4.333	0.483
401.000	264.797	80.001	20.008	100.287	20.080	4.713	0.468
401.500	265.023	80.001	20.008	100.278	20.079	4.947	0.493
402.000	265.282	80.001	20.008	100.271	20.078	5.315	0.492
402.500	265.517	80.001	20.008	100.265	20.078	5.335	0.490
403.000	265.783	80.000	20.008	100.267	20.079	4.841	0.498
403.500	266.043	80.001	20.007	100.271	20.078	5.355	0.514
404.000	266.301	80.001	20.008	100.273	20.077	5.689	0.522
404.500	266.546	80.001	20.007	100.273	20.078	5.221	0.510
405.000	266.794	80.000	20.008	100.268	20.077	5.548	0.498
405.500	267.061	80.001	20.008	100.259	20.078	5.194	0.504
406.000	267.301	80.002	20.008	100.254	20.078	5.155	0.511
406.500	267.541	80.002	20.008	100.252	20.076	5.816	0.494
407.000	267.828	79.999	20.008	100.253	20.077	5.496	0.503
407.500	268.067	80.001	20.007	100.258	20.076	5.964	0.526
408.000	268.334	80.001	20.008	100.264	20.078	5.175	0.516
408.500	268.523	80.001	20.009	100.264	20.076	5.889	0.481
409.000	268.789	80.001	20.008	100.260	20.076	5.801	0.456
409.500	269.043	80.002	20.008	100.252	20.077	5.714	0.488
410.000	269.287	80.003	20.008	100.250	20.075	6.122	0.509
410.501	269.548	80.001	20.008	100.251	20.075	6.142	0.501
411.001	269.791	80.003	20.008	100.256	20.077	5.662	0.505
411.501	270.059	80.001	20.008	100.260	20.076	5.989	0.507
412.001	270.276	80.001	20.008	100.267	20.076	5.902	0.498
412.500	270.547	80.001	20.008	100.262	20.076	5.935	0.486
413.000	270.799	80.002	20.008	100.254	20.076	5.822	0.505
413.500	271.043	80.002	20.008	100.242	20.076	5.948	0.509
414.000	271.310	80.001	20.008	100.240	20.078	5.108	0.504
414.500	271.530	80.001	20.008	100.240	20.077	5.649	0.499
415.000	271.798	80.001	20.007	100.252	20.074	6.625	0.488
415.500	272.024	80.001	20.008	100.262	20.074	6.585	0.491
416.000	272.298	80.001	20.008	100.269	20.077	5.576	0.497
416.501	272.554	80.001	20.008	100.266	20.074	6.657	0.515
417.000	272.817	80.002	20.008	100.258	20.074	6.657	0.525
417.500	273.065	80.002	20.008	100.247	20.075	6.076	0.515
418.000	273.278	80.001	20.008	100.242	20.076	5.816	0.485
418.500	273.532	80.001	20.008	100.244	20.076	5.856	0.464
419.000	273.767	80.002	20.008	100.255	20.077	5.643	0.478
419.500	274.034	80.001	20.008	100.271	20.075	6.150	0.496
420.000	274.232	80.001	20.008	100.278	20.073	6.838	0.484
420.501	274.526	80.001	20.008	100.276	20.074	6.444	0.479
421.001	274.726	80.002	20.008	100.267	20.075	6.236	0.493
421.500	275.063	80.001	20.008	100.252	20.076	6.003	0.515
422.000	275.258	80.001	20.008	100.240	20.074	6.384	0.534
422.500	275.510	80.002	20.009	100.238	20.077	5.430	0.490
423.000	275.811	80.000	20.008	100.243	20.075	6.191	0.500
423.500	276.018	80.001	20.008	100.251	20.075	6.084	0.530
424.000	276.296	80.002	20.010	100.258	20.076	5.984	0.496
424.500	276.524	80.002	20.010	100.258	20.073	6.845	0.496
425.000	276.772	80.001	20.010	100.251	20.076	5.763	0.491
425.500	277.025	80.001	20.009	100.244	20.073	6.965	0.489
426.000	277.278	80.002	20.009	100.244	20.076	5.950	0.503
426.500	277.532	80.000	20.010	100.244	20.073	6.772	0.506
427.000	277.809	80.002	20.009	100.256	20.074	6.665	0.519
427.500	278.037	80.001	20.009	100.270	20.073	6.699	0.518
428.000	278.312	80.002	20.009	100.278	20.073	6.839	0.504
428.500	278.549	80.001	20.009	100.278	20.074	6.638	0.507
429.000	278.833	80.001	20.009	100.275	20.074	6.537	0.517
429.500	279.097	80.003	20.009	100.265	20.072	7.024	0.534
430.000	279.325	80.001	20.009	100.256	20.072	7.004	0.520
430.500	279.550	80.001	20.009	100.255	20.073	6.844	0.473
431.000	279.772	80.000	20.010	100.259	20.072	7.005	0.450
431.500	280.080	80.001	20.009	100.264	20.070	7.773	0.489
432.000	280.261	80.001	20.009	100.271	20.071	7.379	0.509
432.500	280.548	80.002	20.009	100.273	20.070	7.865	0.478
433.000	280.789	80.002	20.009	100.269	20.072	7.250	0.498
433.500	281.036	80.002	20.009	100.263	20.073	6.723	0.509
434.000	281.297	80.002	20.009	100.260	20.070	7.838	0.498
434.500	281.563	80.002	20.009	100.260	20.069	8.005	0.517
435.000	281.791	80.001	20.008	100.268	20.069	8.020	0.511
435.500	282.053	80.001	20.008	100.279	20.071	7.486	0.492
436.000	282.288	80.001	20.009	100.285	20.070	7.732	0.493
436.500	282.557	80.001	20.009	100.285	20.070	7.905	0.501
437.001	282.793	80.001	20.009	100.282	20.070	7.911	0.504
437.500	283.073	80.002	20.009	100.274	20.070	7.857	0.510
438.000	283.292	80.001	20.009	100.266	20.068	8.271	0.508
438.500	283.511	80.000	20.009	100.265	20.066	8.919	0.469
439.000	283.781	80.002	20.009	100.272	20.067	8.700	0.464
439.500	284.046	80.001	20.009	100.279	20.068	8.420	0.512
440.000	284.295	80.000	20.010	100.284	20.070	7.912	0.524
440.500	284.546	80.002	20.010	100.283	20.069	7.938	0.507
441.000	284.778	80.001	20.009	100.281	20.069	8.125	0.491
441.500	285.037	80.001	20.009	100.270	20.066	9.052	0.487
442.000	285.317	80.001	20.009	100.259	20.064	9.633	0.515
442.500	285.560	80.001	20.009	100.256	20.065	9.413	0.531
443.000	285.759	80.001	20.008	100.260	20.065	9.327	0.482
443.500	286.045	80.001	20.009	100.265	20.066	8.961	0.464
444.000	286.318	80.001	20.009	100.269	20.061	10.683	0.522
444.500	286.543	80.001	20.009	100.274	20.065	9.281	0.528
445.000	286.778	80.001	20.009	100.267	20.064	9.775	0.479
445.500	287.055	80.001	20.010	100.255	20.064	9.768	0.486
446.000	287.282	80.000	20.009	100.244	20.063	10.129	0.508
446.500	287.545	80.000	20.009	100.244	20.065	9.463	0.497
447.000	287.797	80.001	20.009	100.243	20.063	9.858	0.503
447.500	288.014	80.001	20.009	100.255	20.062	10.352	0.492
448.000	288.282	80.000	20.010	100.263	20.063	9.937	0.477
448.500	288.536	80.001	20.009	100.269	20.063	9.849	0.504
449.000	288.796	80.002	20.009	100.262	20.063	10.062	0.518
449.500	289.054	80.002	20.010	100.254	20.065	9.487	0.515
450.000	289.298	80.001	20.009	100.242	20.063	9.982	0.510
450.500	289.576	80.001	20.009	100.235	20.063	10.015	0.512
451.000	289.824	80.002	20.010	100.236	20.064	9.662	0.524
451.500	290.070	80.001	20.009	100.244	20.064	9.788	0.510
452.000	290.344	80.001	20.009	100.251	20.065	9.233	0.507
452.500	290.585	80.001	20.009	100.257	20.063	9.920	0.518
453.000	290.786	80.002	20.009	100.257	20.062	10.214	0.479
453.500	291.101	80.001	20.010	100.249	20.061	10.708	0.479
454.000	291.346	80.000	20.010	100.241	20.059	11.222	0.538
454.500	291.549	80.001	20.010	100.238	20.062	10.295	0.504
455.000	291.785	80.002	20.010	100.238	20.060	10.870	0.444
455.500	292.041	80.001	20.009	100.244	20.063	9.996	0.466
456.000	292.356	80.001	20.009	100.253	20.059	11.338	0.531
456.500	292.608	80.001	20.009	100.260	20.060	10.983	0.569
457.000	292.846	80.001	20.009	100.259	20.061	10.769	0.529
457.500	293.106	80.001	20.009	100.255	20.060	11.003	0.495
458.000	293.329	80.002	20.009	100.255	20.059	11.096	0.490
458.500	293.588	80.000	20.010	100.255	20.059	11.177	0.482
459.000	293.848	80.002	20.009	100.262	20.061	10.770	0.500
459.500	294.110	80.001	20.009	100.273	20.061	10.669	0.520
460.000	294.361	80.002	20.009	100.282	20.060	11.083	0.518
460.500	294.576	80.002	20.009	100.281	20.060	11.075	0.490
461.000	294.830	80.001	20.009	100.278	20.058	11.416	0.468
461.500	295.123	80.002	20.010	100.266	20.058	11.537	0.508
462.000	295.345	80.001	20.009	100.257	20.057	11.859	0.531
462.500	295.625	80.001	20.009	100.252	20.055	12.621	0.508
463.000	295.859	80.001	20.009	100.253	20.057	11.900	0.508
463.500	296.108	80.001	20.009	100.254	20.056	12.267	0.499
464.000	296.366	80.001	20.010	100.259	20.058	11.485	0.495
464.500	296.667	80.001	20.010	100.256	20.056	12.132	0.533
465.000	296.876	80.001	20.010	100.249	20.056	12.339	0.534
465.500	297.157	80.002	20.010	100.240	20.056	12.299	0.500
466.000	297.386	80.002	20.010	100.236	20.055	12.406	0.499
466.500	297.669	80.000	20.009	100.236	20.055	12.506	0.511
467.000	297.918	80.000	20.009	100.241	20.054	12.919	0.522
467.500	298.184	80.001	20.010	100.251	20.057	11.951	0.523
468.000	298.472	80.001	20.009	100.259	20.057	11.991	0.535
468.500	298.666	80.000	20.009	100.263	20.057	11.877	0.518
469.000	298.955	80.000	20.009	100.259	20.056	12.305	0.483
469.500	299.157	80.000	20.009	100.254	20.055	12.446	0.487
470.000	299.438	80.002	20.009	100.250	20.057	11.786	0.487
470.500	299.681	80.001	20.009	100.250	20.056	12.340	0.503
471.000	299.921	80.000	20.009	100.251	20.057	11.939	0.503
471.500	300.191	80.001	20.009	100.254	20.057	11.924	0.496
472.000	300.446	80.001	20.010	100.259	20.056	12.164	0.517
472.500	300.683	80.001	20.010	100.254	20.055	12.451	0.508
473.000	300.915	80.001	20.009	100.247	20.053	13.032	0.481
473.500	301.216	80.001	20.010	100.242	20.056	12.258	0.501
474.000	301.443	79.999	20.010	100.242	20.054	12.806	0.531
474.500	301.697	80.001	20.010	100.247	20.053	13.179	0.505
475.000	301.978	80.002	20.009	100.259	20.055	12.384	0.508
475.500	302.202	80.000	20.009	100.267	20.057	11.768	0.520
476.000	302.448	80.002	20.009	100.272	20.058	11.575	0.488
476.500	302.736	80.000	20.009	100.272	20.058	11.522	0.503
477.000	302.922	80.002	20.009	100.265	20.058	11.509	0.504
477.500	303.200	80.001	20.009	100.259	20.058	11.544	0.469
478.000	303.392	80.001	20.009	100.259	20.055	12.592	0.466
478.500	303.655	80.000	20.009	100.259	20.054	12.932	0.463
479.000	303.896	80.000	20.010	100.259	20.053	12.991	0.480
479.500	304.186	80.002	20.008	100.261	20.054	12.897	0.517
480.000	304.407	80.000	20.010	100.254	20.050	14.152	0.521
480.500	304.680	80.000	20.008	100.249	20.053	13.204	0.503
481.000	304.905	80.001	20.009	100.248	20.052	13.419	0.495
481.500	305.174	80.000	20.009	100.248	20.053	13.086	0.496
482.000	305.382	80.001	20.009	100.251	20.053	13.213	0.486
482.500	305.641	80.001	20.008	100.262	20.053	13.292	0.472
483.000	305.915	80.001	20.008	100.267	20.051	13.840	0.500
483.500	306.165	80.000	20.009	100.266	20.052	13.533	0.528
484.000	306.448	80.000	20.008	100.260	20.050	13.974	0.528
484.500	306.695	80.001	20.009	100.249	20.051	13.841	0.531
485.000	306.951	80.001	20.009	100.244	20.049	14.363	0.517
485.500	307.187	80.002	20.009	100.243	20.048	14.697	0.498
486.000	307.463	80.001	20.009	100.245	20.050	13.954	0.502
486.500	307.676	80.001	20.009	100.252	20.050	14.027	0.501
487.000	307.949	80.001	20.009	100.255	20.050	14.193	0.487
487.500	308.192	80.002	20.009	100.248	20.047	14.901	0.501
488.000	308.471	80.002	20.008	100.240	20.049	14.328	0.519
488.500	308.636	80.000	20.009	100.231	20.047	14.918	0.483
489.000	308.912	80.000	20.008	100.228	20.049	14.512	0.443
489.500	309.225	80.002	20.008	100.233	20.047	14.973	0.515
490.000	309.390	80.002	20.008	100.242	20.046	15.252	0.534
490.500	309.654	80.001	20.010	100.252	20.043	16.399	0.453
491.000	309.911	80.002	20.009	100.254	20.047	15.043	0.475
491.500	310.201	80.001	20.010	100.251	20.045	15.797	0.534
492.000	310.464	80.001	20.009	100.242	20.047	15.176	0.550
492.500	310.711	80.002	20.009	100.233	20.045	15.651	0.532
493.000	310.953	80.001	20.008	100.232	20.047	14.890	0.499
493.500	311.229	80.001	20.008	100.237	20.046	15.263	0.503
494.000	311.452	80.002	20.008	100.243	20.048	14.876	0.509
494.500	311.715	80.002	20.008	100.251	20.046	15.330	0.493
495.000	311.911	80.001	20.008	100.253	20.046	15.424	0.473
495.500	312.186	80.002	20.009	100.247	20.041	16.868	0.465
496.000	312.427	80.001	20.009	100.244	20.044	15.881	0.493
496.501	312.690	80.002	20.008	100.245	20.043	16.437	0.510
497.001	312.921	80.001	20.008	100.248	20.042	16.724	0.499
497.500	313.149	80.002	20.008	100.256	20.039	17.477	0.477
498.000	313.408	80.002	20.009	100.264	20.042	16.514	0.473
498.500	313.674	80.002	20.008	100.262	20.039	17.661	0.506
499.000	313.884	80.002	20.009	100.253	20.040	17.280	0.500
499.500	314.158	80.001	20.009	100.245	20.040	17.381	0.480
500.000	314.357	80.002	20.009	100.240	20.037	18.282	0.479
500.500	314.660	80.000	20.009	100.241	20.037	18.221	0.487
501.000	314.892	80.002	20.008	100.254	20.036	18.621	0.518
501.500	315.134	80.001	20.008	100.269	20.037	18.287	0.505
502.000	315.392	80.001	20.008	100.279	20.032	19.629	0.488
502.500	315.659	80.002	20.008	100.281	20.035	18.896	0.512
503.000	315.879	80.001	20.009	100.272	20.032	19.633	0.506
503.500	316.148	80.002	20.008	100.260	20.033	19.488	0.488
504.000	316.364	80.000	20.008	100.253	20.031	20.182	0.487
504.500	316.612	80.002	20.008	100.250	20.028	20.917	0.475
505.000	316.907	80.001	20.008	100.251	20.029	20.788	0.504
505.500	317.149	80.001	20.008	100.259	20.030	20.567	0.540
506.000	317.344	80.002	20.008	100.260	20.029	20.713	0.487
506.500	317.636	80.001	20.009	100.256	20.026	21.762	0.462
507.000	317.843	80.001	20.009	100.253	20.027	21.350	0.493
507.500	318.091	80.000	20.008	100.253	20.022	23.034	0.477
508.000	318.373	80.002	20.009	100.257	20.024	22.293	0.492
508.500	318.631	80.001	20.009	100.268	20.022	23.027	0.534
509.000	318.898	80.001	20.008	100.280	20.020	23.446	0.532
509.500	319.151	80.001	20.008	100.286	20.020	23.705	0.523
510.000	319.362	80.002	20.009	100.286	20.017	24.619	0.493
510.500	319.627	80.000	20.009	100.278	20.016	24.799	0.470
511.000	319.856	80.001	20.008	100.271	20.016	24.878	0.485
511.500	320.106	80.002	20.008	100.262	20.015	25.050	0.486
512.000	320.327	80.000	20.008	100.259	20.018	24.193	0.475
512.500	320.660	80.002	20.009	100.260	20.013	25.693	0.512
513.000	320.837	79.999	20.008	100.261	20.013	25.725	0.532
513.500	321.088	80.003	20.008	100.257	20.012	25.980	0.469
514.000	321.360	80.000	20.008	100.252	20.008	27.484	0.475
514.500	321.617	80.002	20.009	100.252	20.007	27.726	0.526
515.000	321.857	80.000	20.009	100.252	20.004	28.548	0.513
515.500	322.114	80.001	20.008	100.259	20.004	28.561	0.497
516.001	322.355	80.002	20.008	100.271	20.001	29.707	0.497
516.500	322.594	80.000	20.010	100.279	19.998	30.607	0.489
517.000	322.875	80.000	20.008	100.280	19.995	31.562	0.500
517.500	323.140	80.001	20.009	100.278	19.994	31.671	0.533
518.000	323.375	80.002	20.009	100.272	19.991	32.588	0.523
518.500	323.606	80.001	20.008	100.265	19.989	33.299	0.483
519.000	323.862	80.001	20.008	100.261	19.985	34.549	0.476
519.500	324.101	80.001	20.008	100.268	19.986	34.306	0.491
520.000	324.375	80.001	20.008	100.276	19.981	35.779	0.504
520.500	324.589	80.001	20.009	100.279	19.980	36.265	0.501
521.000	324.853	80.001	20.008	100.279	19.978	36.954	0.483
521.500	325.110	80.002	20.009	100.279	19.978	36.823	0.500
522.000	325.345	80.001	20.009	100.270	19.976	37.475	0.506
522.500	325.600	80.001	20.009	100.263	19.976	37.539	0.491
523.000	325.839	80.001	20.009	100.261	19.977	37.272	0.493
523.500	326.096	80.001	20.009	100.262	19.973	38.519	0.495
524.000	326.329	80.001	20.009	100.257	19.973	38.342	0.492
524.500	326.622	80.001	20.009	100.250	19.970	39.293	0.508
525.000	326.811	80.001	20.008	100.241	19.969	39.552	0.504
525.500	327.069	80.000	20.009	100.232	19.967	40.468	0.464
526.000	327.316	80.001	20.009	100.226	19.963	41.433	0.476
526.500	327.586	80.001	20.009	100.230	19.965	40.968	0.512
527.000	327.836	80.001	20.009	100.238	19.961	42.365	0.518
527.500	328.102	80.001	20.009	100.246	19.960	42.605	0.518
528.000	328.424	80.001	20.009	100.249	19.955	44.140	0.552
528.500	328.591	80.002	20.009	100.248	19.953	44.892	0.538
529.000	328.849	80.001	20.009	100.240	19.951	45.414	0.457
529.500	329.121	80.001	20.009	100.235	19.947	46.513	0.478
530.000	329.321	80.001	20.009	100.236	19.946	46.857	0.501
530.500	329.590	80.001	20.008	100.242	19.944	47.575	0.470
531.000	329.876	80.001	20.009	100.251	19.945	47.309	0.512
531.500	330.151	80.001	20.008	100.260	19.943	48.013	0.558
532.000	330.397	80.000	20.008	100.264	19.939	49.060	0.541
532.500	330.623	80.002	20.009	100.258	19.938	49.547	0.496
533.000	330.889	80.001	20.010	100.249	19.934	50.835	0.482
533.500	331.160	80.001	20.009	100.247	19.934	50.801	0.514
534.000	331.423	80.002	20.009	100.249	19.930	52.012	0.535
534.500	331.653	80.002	20.008	100.255	19.927	53.034	0.514
535.000	331.869	80.001	20.009	100.268	19.925	53.560	0.469
535.500	332.137	80.001	20.008	100.279	19.924	53.843	0.464
536.000	332.344	80.001	20.008	100.278	19.920	55.161	0.479
536.500	332.609	80.001	20.008	100.274	19.918	55.910	0.474
537.000	332.879	80.001	20.009	100.265	19.915	56.808	0.504
537.500	333.100	80.003	20.009	100.254	19.912	57.835	0.513
538.000	333.324	80.000	20.009	100.251	19.906	59.435	0.468
538.500	333.634	80.001	20.008	100.255	19.903	60.641	0.490
539.000	333.870	80.001	20.008	100.262	19.898	61.988	0.540
539.500	334.136	80.002	20.008	100.268	19.897	62.296	0.524
540.000	334.395	80.002	20.009	100.272	19.893	63.774	0.514
540.500	334.620	80.002	20.009	100.272	19.888	65.417	0.504
541.000	334.839	80.001	20.009	100.269	19.886	65.833	0.464
541.501	335.113	80.002	20.009	100.263	19.879	68.048	0.469
542.000	335.340	80.002	20.009	100.266	19.878	68.488	0.497
542.500	335.650	80.001	20.009	100.274	19.873	69.934	0.518
543.000	335.878	80.001	20.009	100.281	19.868	71.549	0.537
543.500	336.111	80.000	20.009	100.289	19.865	72.522	0.500
544.000	336.319	80.001	20.009	100.291	19.860	74.050	0.451
544.500	336.590	80.002	20.009	100.283	19.853	76.252	0.460
545.000	336.830	80.001	20.009	100.267	19.852	76.559	0.495
545.500	337.074	80.001	20.009	100.252	19.847	78.226	0.497
546.000	337.359	80.002	20.009	100.238	19.844	79.134	0.506
546.500	337.595	80.000	20.009	100.235	19.841	80.245	0.525
547.000	337.849	80.002	20.009	100.241	19.837	81.360	0.505
547.500	338.060	80.001	20.009	100.255	19.833	82.798	0.478
548.000	338.320	80.001	20.009	100.266	19.828	84.186	0.469
548.500	338.579	80.002	20.009	100.270	19.826	84.787	0.495
549.000	338.823	80.001	20.009	100.263	19.822	85.980	0.511
549.500	339.070	80.002	20.009	100.253	19.819	87.011	0.497
550.000	339.353	80.001	20.009	100.246	19.812	89.308	0.511
550.500	339.591	80.002	20.009	100.244	19.808	90.624	0.525
551.000	339.840	80.001	20.009	100.251	19.802	92.331	0.504
551.500	340.087	80.001	20.009	100.259	19.796	94.503	0.492
552.000	340.339	80.001	20.009	100.267	19.792	95.621	0.497
552.500	340.596	80.002	20.009	100.268	19.786	97.612	0.504
553.000	340.848	80.001	20.010	100.262	19.782	98.795	0.509
553.500	341.086	80.001	20.010	100.252	19.776	100.619	0.500
554.000	341.340	80.002	20.009	100.255	19.773	101.677	0.491
554.500	341.544	80.001	20.008	100.262	19.765	104.074	0.475
555.000	341.798	80.000	20.009	100.271	19.763	104.831	0.458
555.500	342.058	80.001	20.009	100.285	19.757	106.793	0.486
556.000	342.313	80.002	20.009	100.293	19.752	108.317	0.515
556.500	342.595	80.001	20.009	100.290	19.750	108.910	0.526
557.000	342.849	80.002	20.009	100.279	19.746	110.264	0.536
557.500	343.054	80.000	20.009	100.267	19.741	111.715	0.498
558.000	343.284	80.002	20.009	100.259	19.736	113.403	0.447
558.500	343.549	80.003	20.009	100.256	19.732	114.662	0.465
559.000	343.779	80.001	20.009	100.256	19.725	116.635	0.495
559.501	344.037	80.001	20.009	100.259	19.720	118.365	0.491
560.000	344.258	80.001	20.010	100.259	19.714	120.161	0.484
560.500	344.522	80.002	20.010	100.253	19.707	122.302	0.482
561.000	344.786	80.001	20.010	100.252	19.701	124.241	0.507
561.500	344.994	80.002	20.009	100.253	19.694	126.687	0.500
562.000	345.275	80.002	20.010	100.258	19.689	128.111	0.480
562.500	345.520	80.000	20.009	100.269	19.682	130.237	0.508
563.001	345.789	80.001	20.009	100.276	19.677	131.845	0.520
563.501	346.003	80.002	20.008	100.276	19.672	133.630	0.498
564.001	346.278	80.002	20.009	100.274	19.665	135.704	0.486
564.500	346.526	80.002	20.009	100.269	19.658	138.038	0.506
565.000	346.766	80.001	20.009	100.265	19.655	138.823	0.505
565.500	347.036	80.002	20.009	100.272	19.650	140.576	0.499
566.000	347.254	80.002	20.009	100.287	19.642	143.101	0.499
566.500	347.447	80.001	20.008	100.302	19.639	143.932	0.450
567.000	347.732	80.002	20.009	100.310	19.636	144.930	0.445
567.500	347.979	80.002	20.008	100.309	19.631	146.456	0.505
568.000	348.263	80.001	20.010	100.299	19.628	147.539	0.531
568.500	348.535	80.001	20.009	100.284	19.624	148.726	0.543
569.000	348.753	80.001	20.009	100.272	19.619	150.229	0.523
569.500	348.983	80.001	20.009	100.266	19.618	150.719	0.469
570.000	349.265	80.001	20.008	100.264	19.614	151.899	0.480
570.500	349.518	80.002	20.009	100.266	19.608	153.802	0.523
571.000	349.775	80.001	20.009	100.258	19.606	154.566	0.522
571.500	350.028	80.002	20.009	100.250	19.601	156.040	0.510
572.001	350.251	80.001	20.008	100.241	19.598	156.879	0.494
572.500	350.536	80.001	20.009	100.236	19.595	157.809	0.492
573.000	350.787	80.001	20.009	100.237	19.594	158.100	0.522
573.500	351.019	80.001	20.009	100.246	19.588	160.231	0.510
574.000	351.317	80.002	20.009	100.254	19.585	160.989	0.507
574.500	351.568	80.001	20.009	100.256	19.583	161.707	0.540
575.000	351.783	80.001	20.009	100.252	19.580	162.549	0.507
575.500	352.035	80.001	20.009	100.244	19.574	164.576	0.466
576.000	352.305	80.002	20.009	100.243	19.574	164.708	0.495
576.500	352.545	80.000	20.009	100.246	19.571	165.546	0.516
577.000	352.765	80.003	20.008	100.258	19.566	166.964	0.485
577.500	353.035	80.003	20.010	100.266	19.562	168.249	0.475
578.000	353.303	80.000	20.008	100.273	19.559	169.331	0.514
578.500	353.529	80.001	20.009	100.271	19.555	170.602	0.516
579.000	353.749	80.000	20.010	100.267	19.553	171.039	0.470
579.500	354.000	80.002	20.009	100.260	19.547	172.991	0.459
580.000	354.260	80.002	20.009	100.262	19.543	174.140	0.491
580.500	354.498	80.000	20.009	100.269	19.541	175.077	0.504
581.000	354.776	80.003	20.008	100.279	19.538	175.880	0.507
581.500	355.016	80.000	20.008	100.282	19.535	176.960	0.517
582.000	355.289	80.001	20.009	100.282	19.535	176.706	0.516
582.500	355.533	80.000	20.009	100.280	19.528	179.097	0.515
583.000	355.798	80.000	20.010	100.274	19.525	180.106	0.513
583.500	356.015	80.002	20.008	100.273	19.521	181.138	0.495
584.001	356.274	80.001	20.008	100.280	19.516	182.867	0.479
584.500	356.554	80.002	20.009	100.287	19.510	184.690	0.508
585.000	356.847	80.002	20.009	100.294	19.503	186.927	0.556
585.500	357.075	80.002	20.009	100.295	19.499	188.061	0.547
586.000	357.319	80.002	20.009	100.293	19.494	189.841	0.497
586.500	357.563	80.001	20.009	100.293	19.492	190.404	0.480
587.000	357.802	80.002	20.009	100.295	19.486	192.351	0.485
587.500	358.065	80.002	20.009	100.302	19.486	192.432	0.492
588.000	358.314	80.001	20.009	100.310	19.481	193.899	0.507
588.500	358.581	80.001	20.009	100.311	19.483	193.428	0.514
589.000	358.838	80.002	20.009	100.307	19.481	194.090	0.520
589.500	359.130	80.001	20.009	100.296	19.482	193.729	0.537
590.000	359.343	80.002	20.010	100.282	19.477	195.374	0.528
590.500	359.601	80.001	20.010	100.271	19.478	194.840	0.488
591.000	359.891	80.001	20.009	100.263	19.475	195.929	0.509
591.500	360.108	80.001	20.009	100.261	19.472	196.626	0.527
592.000	360.391	80.001	20.009	100.263	19.468	198.146	0.503
592.500	360.664	80.001	20.009	100.264	19.467	198.257	0.528
593.000	360.885	80.002	20.009	100.264	19.464	199.391	0.525
593.500	361.170	80.001	20.010	100.261	19.461	200.128	0.500
594.000	361.395	80.000	20.009	100.258	19.459	200.943	0.509
594.500	361.637	80.001	20.009	100.257	19.456	201.878	0.489
595.001	361.895	80.001	20.009	100.258	19.451	203.513	0.483
595.501	362.114	80.001	20.008	100.261	19.451	203.548	0.488
596.000	362.400	80.002	20.009	100.269	19.445	205.160	0.491
596.500	362.631	80.002	20.009	100.275	19.445	205.150	0.510
597.000	362.870	80.001	20.009	100.275	19.443	205.995	0.494
597.500	363.144	80.002	20.009	100.275	19.438	207.408	0.492
598.000	363.455	80.001	20.010	100.271	19.436	208.300	0.549
598.500	363.684	80.002	20.009	100.274	19.433	209.051	0.563
599.000	363.918	80.002	20.009	100.283	19.430	210.012	0.501
599.500	364.207	80.000	20.009	100.298	19.426	211.409	0.493
600.000	364.427	80.001	20.009	100.307	19.426	211.267	0.516
600.500	364.689	80.001	20.009	100.314	19.427	210.973	0.495
601.001	364.926	80.002	20.010	100.312	19.426	211.243	0.490
601.500	365.179	80.000	20.009	100.308	19.426	211.292	0.495
602.000	365.430	80.001	20.009	100.301	19.425	211.792	0.497
602.500	365.703	80.000	20.009	100.301	19.425	211.731	0.514
603.000	365.941	80.001	20.009	100.302	19.427	210.944	0.518
603.500	366.208	80.001	20.009	100.302	19.427	210.963	0.508
604.000	366.446	80.001	20.010	100.295	19.428	210.685	0.504
604.500	366.741	80.000	20.009	100.286	19.429	210.420	0.519
605.000	367.007	80.001	20.010	100.271	19.431	209.890	0.547
605.500	367.231	80.001	20.009	100.260	19.430	210.054	0.526
606.000	367.478	80.002	20.009	100.252	19.428	210.815	0.480
606.500	367.736	80.000	20.010	100.257	19.429	210.520	0.488
607.000	367.975	80.001	20.009	100.264	19.429	210.227	0.501
607.500	368.197	80.001	20.010	100.274	19.429	210.436	0.479
608.000	368.491	80.002	20.009	100.280	19.431	209.854	0.489
608.500	368.737	80.000	20.009	100.281	19.432	209.361	0.528
609.000	369.020	80.002	20.009	100.275	19.432	209.443	0.534
609.500	369.239	80.000	20.009	100.270	19.432	209.284	0.515
610.000	369.504	80.002	20.010	100.272	19.433	209.023	0.493
610.500	369.733	80.001	20.009	100.277	19.434	208.892	0.489
611.000	369.977	80.001	20.009	100.285	19.434	209.009	0.483
611.500	370.244	80.002	20.009	100.294	19.437	208.025	0.492
612.000	370.492	80.001	20.010	100.296	19.434	208.989	0.513
612.500	370.722	80.001	20.010	100.291	19.436	208.178	0.496
613.000	371.019	80.000	20.010	100.289	19.438	207.581	0.502
613.500	371.257	80.002	20.009	100.293	19.437	208.013	0.531
614.000	371.519	80.001	20.009	100.301	19.438	207.502	0.518
614.500	371.778	80.001	20.009	100.314	19.438	207.430	0.510
615.000	372.027	80.002	20.008	100.330	19.440	207.049	0.514
615.500	372.267	80.000	20.009	100.332	19.441	206.651	0.499
616.000	372.506	80.002	20.009	100.326	19.444	205.508	0.484
616.500	372.774	80.001	20.009	100.310	19.442	206.132	0.493
617.000	373.058	80.001	20.009	100.298	19.444	205.581	0.529
617.500	373.296	80.002	20.009	100.290	19.447	204.605	0.537
618.000	373.546	80.001	20.008	100.292	19.446	204.720	0.505
618.500	373.786	80.002	20.009	100.294	19.448	204.190	0.489
619.000	374.045	80.000	20.009	100.300	19.449	203.909	0.494
619.500	374.312	80.001	20.010	100.297	19.448	204.053	0.512
620.000	374.572	80.002	20.010	100.287	19.450	203.680	0.527
620.500	374.819	80.001	20.009	100.276	19.449	203.920	0.517
621.000	375.087	80.002	20.009	100.268	19.447	204.602	0.511
621.500	375.309	80.001	20.009	100.266	19.442	206.110	0.503
622.000	375.560	80.001	20.009	100.273	19.440	206.818	0.481
622.500	375.806	80.001	20.009	100.290	19.437	207.753	0.485
623.000	376.003	80.001	20.010	100.306	19.435	208.386	0.470
623.500	376.255	80.002	20.009	100.320	19.437	207.835	0.446
624.000	376.511	80.002	20.009	100.324	19.438	207.470	0.478
624.500	376.775	80.001	20.010	100.324	19.438	207.360	0.514
625.000	376.941	80.001	20.009	100.325	19.444	205.731	0.475
625.500	377.226	80.001	20.009	100.327	19.444	205.687	0.440
626.000	377.481	80.001	20.009	100.329	19.449	204.224	0.496
626.500	377.708	80.002	20.009	100.334	19.449	204.273	0.511
627.000	377.961	80.001	20.009	100.333	19.455	202.242	0.481
627.500	378.225	80.001	20.009	100.317	19.461	200.325	0.498
628.000	378.417	80.001	20.009	100.298	19.469	197.634	0.486
628.500	378.676	80.001	20.009	100.273	19.473	196.509	0.454
629.000	378.923	80.000	20.009	100.253	19.481	193.952	0.479
629.500	379.159	80.002	20.009	100.241	19.487	192.045	0.494
630.000	379.444	80.001	20.009	100.237	19.493	190.300	0.502
630.500	379.661	80.001	20.009	100.232	19.500	187.939	0.511
631.000	379.907	80.001	20.009	100.230	19.510	184.617	0.482
631.500	380.155	80.001	20.009	100.222	19.514	183.488	0.478
632.000	380.428	80.001	20.010	100.212	19.523	180.731	0.508
632.500	380.638	80.001	20.009	100.201	19.531	177.986	0.502
633.000	380.898	80.001	20.009	100.195	19.541	175.045	0.476
633.500	381.130	80.002	20.009	100.198	19.546	173.323	0.481
634.000	381.383	80.001	20.008	100.212	19.555	170.428	0.489
634.500	381.644	80.001	20.009	100.227	19.564	167.741	0.499
635.000	381.904	80.001	20.009	100.241	19.570	165.823	0.517
635.500	382.141	80.002	20.009	100.247	19.577	163.671	0.509
636.000	382.398	80.003	20.010	100.250	19.583	161.597	0.495
636.500	382.646	80.001	20.010	100.251	19.585	161.045	0.499
637.000	382.880	80.001	20.008	100.259	19.593	158.568	0.494
637.500	383.131	80.001	20.010	100.271	19.601	156.134	0.484
638.000	383.370	80.001	20.009	100.293	19.607	154.092	0.488
638.500	383.639	80.001	20.008	100.314	19.613	152.315	0.499
639.000	383.903	80.001	20.009	100.324	19.620	149.887	0.520
639.500	384.138	80.001	20.009	100.322	19.627	147.855	0.516
640.000	384.395	80.002	20.008	100.312	19.632	146.357	0.495
640.500	384.658	80.002	20.010	100.299	19.640	143.839	0.506
641.000	384.925	80.001	20.009	100.289	19.644	142.309	0.525
641.500	385.193	80.002	20.008	100.287	19.651	140.244	0.533
642.001	385.441	80.002	20.008	100.288	19.660	137.485	0.525
642.500	385.643	80.001	20.009	100.293	19.665	135.622	0.483
643.000	385.932	80.003	20.009	100.289	19.670	134.243	0.471
643.500	386.145	80.001	20.008	100.280	19.673	133.171	0.497
644.000	386.439	80.002	20.009	100.272	19.679	131.419	0.505
644.500	386.660	80.001	20.010	100.271	19.685	129.571	0.511
645.000	386.940	80.002	20.009	100.275	19.688	128.560	0.508
645.500	387.196	80.002	20.008	100.286	19.695	126.114	0.519
646.001	387.442	80.002	20.009	100.296	19.698	125.274	0.519
646.500	387.709	80.001	20.009	100.301	19.704	123.396	0.508
647.000	387.966	80.001	20.008	100.296	19.707	122.564	0.518
647.500	388.199	80.002	20.009	100.287	19.713	120.725	0.507
648.000	388.464	80.001	20.009	100.278	19.714	120.365	0.494
648.500	388.754	80.001	20.009	100.277	19.718	119.036	0.526
649.000	388.968	80.001	20.009	100.283	19.722	117.744	0.529
649.500	389.202	80.002	20.009	100.297	19.726	116.555	0.476
650.000	389.504	80.001	20.009	100.310	19.730	115.361	0.492
650.500	389.728	80.001	20.009	100.317	19.734	114.026	0.531
651.000	390.030	80.002	20.008	100.319	19.739	112.232	0.526
651.500	390.273	80.000	20.009	100.314	19.744	110.786	0.535
652.000	390.524	80.001	20.008	100.304	19.748	109.442	0.519
652.500	390.729	80.002	20.009	100.294	19.752	108.193	0.475
653.000	391.029	80.001	20.008	100.293	19.755	107.219	0.481
653.500	391.278	80.001	20.008	100.292	19.759	106.198	0.527
654.000	391.549	80.002	20.009	100.292	19.759	105.948	0.535
654.500	391.777	80.000	20.009	100.291	19.765	104.147	0.510
655.000	392.035	80.000	20.009	100.286	19.768	103.157	0.492
655.500	392.254	80.002	20.008	100.276	19.775	101.092	0.482
656.001	392.521	80.001	20.008	100.265	19.777	100.448	0.481
656.500	392.815	80.001	20.008	100.257	19.779	99.611	0.523
657.000	393.049	80.001	20.009	100.255	19.787	97.339	0.544
657.500	393.344	80.001	20.009	100.256	19.790	96.351	0.529
658.000	393.563	80.001	20.008	100.259	19.794	95.118	0.522
658.500	393.813	80.002	20.008	100.263	19.798	93.812	0.491
659.000	394.045	80.000	20.009	100.263	19.804	91.895	0.475
659.500	394.292	80.002	20.009	100.262	19.805	91.520	0.481
660.000	394.580	80.001	20.009	100.259	19.810	89.799	0.507
660.500	394.855	80.001	20.009	100.256	19.814	88.668	0.549
661.000	395.067	80.001	20.009	100.257	19.817	87.599	0.525
661.500	395.351	80.001	20.008	100.262	19.823	85.938	0.491
662.000	395.579	80.001	20.008	100.271	19.827	84.445	0.504
662.500	395.838	80.000	20.008	100.282	19.832	83.028	0.500
663.000	396.077	80.001	20.008	100.289	19.833	82.568	0.493
663.500	396.362	80.001	20.009	100.290	19.838	80.992	0.511
664.000	396.558	80.001	20.008	100.286	19.841	80.233	0.502
664.500	396.815	80.003	20.009	100.277	19.849	77.513	0.467
665.000	397.070	80.001	20.009	100.269	19.853	76.371	0.483
665.500	397.306	80.000	20.008	100.270	19.854	75.880	0.502
666.000	397.553	80.002	20.009	100.276	19.862	73.591	0.487
666.500	397.827	80.002	20.010	100.284	19.863	73.181	0.502
667.000	398.030	80.001	20.009	100.293	19.869	71.257	0.499
667.500	398.303	80.002	20.009	100.296	19.872	70.343	0.476
668.000	398.608	80.001	20.009	100.288	19.878	68.532	0.527
668.500	398.841	80.001	20.008	100.280	19.879	68.266	0.558
669.000	399.067	80.002	20.009	100.270	19.884	66.534	0.498
669.500	399.334	80.002	20.009	100.261	19.887	65.540	0.476
670.000	399.549	80.001	20.009	100.259	19.891	64.212	0.488
670.500	399.826	80.001	20.008	100.260	19.892	64.097	0.487
671.000	400.084	80.000	20.009	100.263	19.898	62.212	0.513
671.501	400.311	80.001	20.009	100.265	19.899	61.729	0.510
672.001	400.540	80.002	20.008	100.265	19.906	59.487	0.471
672.500	400.841	80.002	20.008	100.257	19.907	59.241	0.493
673.000	401.060	80.002	20.008	100.251	19.911	57.917	0.525
673.501	401.328	80.001	20.008	100.247	19.916	56.289	0.503
674.000	401.633	80.003	20.009	100.246	19.920	55.186	0.529
674.500	401.821	80.002	20.008	100.248	19.926	53.168	0.533
675.000	402.108	80.002	20.009	100.259	19.928	52.631	0.485
675.500	402.334	80.001	20.010	100.265	19.931	51.774	0.494
676.001	402.615	80.001	20.009	100.266	19.936	50.221	0.510
676.500	402.875	80.002	20.009	100.266	19.937	49.823	0.524
677.000	403.092	80.002	20.008	100.260	19.942	48.083	0.509
677.500	403.348	80.000	20.009	100.249	19.944	47.430	0.475
678.000	403.574	80.002	20.009	100.240	19.948	46.277	0.478
678.500	403.785	80.000	20.009	100.234	19.950	45.787	0.460
679.000	404.015	80.002	20.009	100.236	19.951	45.529	0.439
679.500	404.258	80.001	20.009	100.241	19.953	44.714	0.457
680.000	404.489	80.003	20.009	100.248	19.957	43.596	0.474
680.500	404.792	80.001	20.009	100.249	19.960	42.530	0.504
681.000	404.994	80.002	20.009	100.247	19.962	42.006	0.519
681.501	405.267	80.000	20.008	100.238	19.967	40.309	0.490
682.001	405.491	80.001	20.008	100.234	19.969	39.737	0.486
682.500	405.743	80.001	20.009	100.236	19.969	39.598	0.487
683.000	405.987	80.001	20.009	100.246	19.973	38.370	0.487
683.500	406.251	80.001	20.009	100.255	19.976	37.535	0.502
684.000	406.475	80.001	20.008	100.261	19.976	37.472	0.497
684.500	406.760	80.002	20.009	100.258	19.982	35.586	0.498
685.000	406.985	80.001	20.009	100.250	19.984	35.024	0.510
685.500	407.228	80.002	20.009	100.239	19.988	33.690	0.489
686.000	407.489	80.000	20.008	100.235	19.992	32.451	0.486
686.500	407.708	80.002	20.009	100.238	19.990	32.990	0.492
687.000	407.974	80.001	20.009	100.247	19.994	31.863	0.482
687.500	408.227	80.001	20.009	100.256	19.997	30.922	0.502
688.000	408.440	80.001	20.009	100.263	19.998	30.574	0.493
688.500	408.705	80.002	20.009	100.260	19.998	30.371	0.472
689.000	408.938	80.002	20.009	100.251	20.004	28.656	0.488
689.500	409.204	80.002	20.009	100.243	20.004	28.685	0.499
690.000	409.456	80.001	20.008	100.235	20.009	27.024	0.509
690.501	409.709	80.001	20.008	100.236	20.010	26.832	0.511
691.000	409.983	80.002	20.009	100.241	20.013	25.932	0.516
691.500	410.193	80.001	20.009	100.250	20.014	25.403	0.506
692.000	410.454	80.001	20.008	100.254	20.017	24.633	0.477
692.500	410.649	80.001	20.009	100.254	20.018	24.291	0.463
693.000	410.926	80.001	20.008	100.246	20.021	23.342	0.464
693.500	411.172	80.001	20.008	100.237	20.023	22.608	0.497
694.000	411.409	80.001	20.009	100.229	20.024	22.215	0.503
694.500	411.661	80.001	20.009	100.224	20.028	21.120	0.486
695.000	411.881	80.002	20.009	100.229	20.027	21.454	0.480
695.500	412.134	80.001	20.009	100.233	20.029	20.573	0.472
696.000	412.368	80.001	20.009	100.234	20.034	19.290	0.480
696.500	412.574	80.001	20.009	100.233	20.032	19.650	0.464
697.000	412.839	80.001	20.008	100.225	20.033	19.592	0.456
697.500	413.093	80.001	20.010	100.214	20.035	18.679	0.495
698.000	413.322	80.001	20.009	100.210	20.035	18.960	0.500
698.500	413.554	80.000	20.008	100.212	20.036	18.486	0.472
699.000	413.736	80.002	20.008	100.220	20.039	17.437	0.438
699.500	413.979	80.001	20.009	100.234	20.041	16.907	0.420
700.000	414.248	80.002	20.008	100.239	20.042	16.478	0.468
700.500	414.432	80.001	20.009	100.239	20.046	15.396	0.482
701.000	414.727	80.001	20.009	100.236	20.049	14.442	0.466
701.500	414.978	80.001	20.009	100.228	20.049	14.542	0.513
702.001	415.196	80.002	20.008	100.229	20.049	14.530	0.508
702.500	415.442	80.002	20.008	100.236	20.049	14.390	0.467
703.000	415.675	80.000	20.009	100.241	20.052	13.535	0.471
703.500	415.903	80.001	20.008	100.248	20.052	13.441	0.470
704.000	416.130	80.002	20.009	100.252	20.054	12.733	0.458
704.500	416.386	80.000	20.009	100.244	20.056	12.079	0.469
705.000	416.631	80.001	20.008	100.237	20.059	11.292	0.492
705.500	416.868	80.001	20.008	100.232	20.057	12.028	0.492
706.000	417.124	80.000	20.009	100.225	20.058	11.428	0.487
706.500	417.343	80.001	20.009	100.227	20.059	11.374	0.484
707.000	417.630	80.002	20.008	100.230	20.060	11.021	0.491
707.500	417.861	80.001	20.009	100.230	20.062	10.233	0.512
708.000	418.101	80.001	20.009	100.230	20.064	9.806	0.494
708.500	418.344	80.002	20.008	100.230	20.064	9.573	0.477
709.000	418.599	80.000	20.008	100.224	20.063	10.000	0.490
709.500	418.849	80.003	20.009	100.223	20.064	9.781	0.502
710.000	419.099	80.000	20.009	100.231	20.067	8.592	0.503
710.500	419.368	80.001	20.009	100.238	20.066	9.099	0.509
711.000	419.597	80.002	20.008	100.244	20.067	8.778	0.509
711.500	419.807	80.002	20.009	100.244	20.067	8.597	0.469
712.000	420.055	80.000	20.009	100.240	20.068	8.464	0.448
712.500	420.322	80.001	20.009	100.226	20.069	8.118	0.486
713.000	420.534	80.002	20.009	100.212	20.069	8.212	0.497
713.500	420.775	80.000	20.009	100.207	20.068	8.459	0.466
714.000	421.008	80.001	20.010	100.207	20.069	8.131	0.463
714.500	421.237	80.002	20.008	100.209	20.069	7.943	0.468
715.000	421.529	80.001	20.009	100.216	20.071	7.515	0.492
715.500	421.747	80.000	20.009	100.218	20.071	7.601	0.516
716.000	422.021	80.002	20.008	100.214	20.071	7.435	0.501
716.500	422.296	80.001	20.009	100.209	20.073	6.841	0.521
717.000	422.512	80.001	20.009	100.208	20.075	6.255	0.520
717.500	422.769	80.002	20.009	100.208	20.075	6.229	0.482
718.000	422.982	80.001	20.009	100.213	20.075	6.269	0.471
718.500	423.253	79.999	20.009	100.222	20.076	5.828	0.477
719.000	423.544	80.002	20.008	100.228	20.079	4.979	0.523
719.500	423.722	80.000	20.009	100.229	20.079	4.965	0.516
720.000	424.003	80.003	20.008	100.230	20.083	3.717	0.464
720.500	424.217	80.001	20.009	100.229	20.080	4.465	0.477
721.000	424.502	80.001	20.008	100.228	20.080	4.478	0.497
721.500	424.696	80.001	20.008	100.234	20.082	4.091	0.489
722.001	424.945	80.001	20.009	100.241	20.083	3.618	0.461
722.500	425.191	80.001	20.008	100.246	20.081	4.191	0.469
723.000	425.459	80.000	20.008	100.247	20.080	4.632	0.504
723.501	425.683	80.002	20.008	100.242	20.078	5.099	0.503
724.000	425.955	80.000	20.009	100.233	20.081	4.218	0.494
724.500	426.217	80.001	20.008	100.228	20.081	4.425	0.515
725.000	426.419	80.002	20.008	100.230	20.084	3.397	0.499
725.501	426.668	80.002	20.008	100.237	20.086	2.870	0.457
726.000	426.915	80.001	20.008	100.244	20.085	3.137	0.474
726.500	427.200	80.001	20.008	100.245	20.083	3.678	0.514
727.000	427.441	80.001	20.008	100.242	20.082	3.824	0.529
727.500	427.677	80.001	20.008	100.228	20.086	2.603	0.501
728.000	427.936	80.001	20.008	100.216	20.086	2.576	0.486
728.500	428.172	80.001	20.008	100.210	20.085	3.143	0.495
729.000	428.433	80.001	20.008	100.211	20.088	2.189	0.496
729.500	428.640	80.001	20.008	100.216	20.086	2.850	0.482
730.000	428.939	80.002	20.007	100.231	20.086	2.610	0.487
730.500	429.159	80.001	20.009	100.242	20.086	2.730	0.513
731.000	429.414	80.002	20.009	100.241	20.088	2.229	0.497
731.500	429.657	80.002	20.008	100.237	20.088	2.189	0.487
732.000	429.901	80.001	20.008	100.226	20.089	1.669	0.492
732.500	430.162	80.002	20.010	100.211	20.088	1.942	0.496
733.000	430.446	80.001	20.009	100.204	20.090	1.442	0.525
733.500	430.663	80.002	20.009	100.205	20.090	1.522	0.523
734.000	430.923	80.001	20.007	100.209	20.088	2.103	0.489
734.500	431.206	80.001	20.008	100.217	20.088	2.056	0.510
735.000	431.413	80.001	20.009	100.222	20.091	1.295	0.516
735.500	431.694	80.002	20.008	100.216	20.090	1.315	0.489
736.000	431.966	80.002	20.008	100.211	20.091	1.281	0.521
736.501	432.154	80.002	20.008	100.208	20.090	1.568	0.507
737.001	432.429	80.001	20.009	100.208	20.093	0.574	0.461
737.501	432.697	80.002	20.009	100.213	20.092	0.881	0.503
738.001	432.908	80.001	20.008	100.224	20.092	0.908	0.511
738.501	433.189	80.002	20.009	100.229	20.092	0.941	0.486
739.000	433.423	80.001	20.009	100.231	20.092	0.861	0.504
739.500	433.658	80.002	20.008	100.224	20.092	0.687	0.492
740.000	433.876	80.002	20.009	100.214	20.095	-0.087	0.461
740.500	434.155	80.002	20.009	100.205	20.094	0.260	0.474
741.000	434.379	80.002	20.008	100.201	20.094	0.334	0.500
741.500	434.656	80.003	20.008	100.202	20.097	-0.647	0.503
742.000	434.892	80.001	20.008	100.210	20.097	-0.874	0.507
742.500	435.173	80.002	20.008	100.217	20.098	-1.115	0.515
743.000	435.387	80.001	20.009	100.222	20.100	-1.775	0.506
743.500	435.646	80.003	20.008	100.226	20.099	-1.321	0.484
744.000	435.873	80.002	20.009	100.226	20.100	-1.548	0.480
744.500	436.100	80.002	20.008	100.224	20.098	-1.135	0.470
745.000	436.379	80.002	20.008	100.225	20.101	-1.969	0.480
745.500	436.612	80.002	20.008	100.225	20.099	-1.495	0.509
746.000	436.883	80.001	20.008	100.225	20.101	-1.996	0.508
746.500	437.115	80.002	20.008	100.226	20.100	-1.815	0.504
747.000	437.385	80.003	20.009	100.226	20.099	-1.301	0.503
747.500	437.635	80.001	20.008	100.225	20.100	-1.728	0.511
748.000	437.852	80.000	20.008	100.222	20.102	-2.449	0.493
748.500	438.101	80.001	20.008	100.214	20.102	-2.289	0.466
749.000	438.367	80.003	20.009	100.208	20.102	-2.202	0.491
749.501	438.589	80.000	20.008	100.208	20.100	-1.682	0.501
750.000	438.850	80.002	20.008	100.209	20.101	-1.956	0.486
750.500	439.122	80.002	20.008	100.212	20.101	-1.949	0.508
751.000	439.379	80.001	20.008	100.219	20.100	-1.742	0.531
751.500	439.580	80.002	20.009	100.225	20.099	-1.468	0.493
752.000	439.824	80.001	20.008	100.224	20.099	-1.355	0.452
752.500	440.108	80.002	20.008	100.217	20.103	-2.649	0.487
753.000	440.324	80.002	20.008	100.216	20.103	-2.583	0.513
753.500	440.571	80.001	20.008	100.218	20.103	-2.656	0.481
754.000	440.836	80.003	20.008	100.224	20.102	-2.243	0.488
754.500	441.099	80.001	20.007	100.224	20.098	-1.168	0.520
755.000	441.336	80.001	20.008	100.229	20.103	-2.536	0.514
755.500	441.561	80.003	20.008	100.228	20.100	-1.708	0.481
756.000	441.815	80.001	20.008	100.222	20.100	-1.822	0.470
756.500	442.065	80.002	20.009	100.211	20.103	-2.783	0.491
757.000	442.307	80.001	20.009	100.211	20.103	-2.623	0.499
757.500	442.591	80.003	20.008	100.214	20.101	-1.962	0.509
758.000	442.805	80.000	20.008	100.217	20.101	-2.062	0.512
758.500	443.060	80.001	20.008	100.222	20.102	-2.416	0.483
759.000	443.315	80.002	20.008	100.223	20.102	-2.309	0.489
759.500	443.582	80.001	20.008	100.215	20.103	-2.649	0.516
760.000	443.831	80.002	20.009	100.206	20.104	-2.909	0.519
760.500	444.050	80.002	20.008	100.203	20.105	-3.196	0.492
761.000	444.288	80.001	20.008	100.202	20.101	-2.096	0.462
761.500	444.532	80.003	20.008	100.206	20.100	-1.835	0.470
762.000	444.809	80.002	20.008	100.212	20.101	-1.889	0.502
762.500	445.038	80.002	20.008	100.218	20.099	-1.295	0.513
763.000	445.287	80.002	20.009	100.214	20.101	-2.102	0.492
763.500	445.525	80.001	20.009	100.207	20.101	-2.029	0.483
764.000	445.822	80.001	20.008	100.200	20.104	-2.930	0.511
764.500	446.047	80.003	20.008	100.198	20.101	-1.935	0.528
765.000	446.320	80.002	20.009	100.198	20.103	-2.583	0.510
765.500	446.506	80.001	20.008	100.205	20.105	-3.197	0.478
766.000	446.764	80.001	20.008	100.213	20.104	-2.970	0.452
766.500	447.013	80.000	20.009	100.219	20.103	-2.730	0.476
767.000	447.284	80.000	20.008	100.222	20.105	-3.277	0.513
767.500	447.491	80.002	20.009	100.218	20.104	-3.090	0.499
768.000	447.764	80.001	20.008	100.211	20.105	-3.190	0.479
768.500	448.035	80.001	20.009	100.202	20.104	-2.876	0.512
769.000	448.305	80.002	20.008	100.201	20.104	-2.990	0.542
769.500	448.555	80.002	20.009	100.202	20.102	-2.430	0.531
770.000	448.806	80.001	20.008	100.207	20.103	-2.550	0.511
770.500	449.018	80.001	20.008	100.215	20.100	-1.695	0.483
771.000	449.234	80.001	20.008	100.219	20.103	-2.696	0.446
771.500	449.487	80.002	20.009	100.213	20.102	-2.216	0.448
772.000	449.740	80.001	20.008	100.204	20.101	-2.136	0.487
772.500	449.995	80.001	20.008	100.197	20.103	-2.596	0.507
773.000	450.237	80.001	20.008	100.197	20.102	-2.303	0.502
773.500	450.476	80.000	20.008	100.201	20.101	-2.009	0.489
774.000	450.743	80.001	20.008	100.209	20.102	-2.376	0.494
774.500	450.968	80.001	20.008	100.217	20.103	-2.690	0.499
775.000	451.216	80.002	20.008	100.222	20.103	-2.583	0.482
775.500	451.488	80.001	20.009	100.218	20.101	-2.176	0.496
776.000	451.735	80.002	20.009	100.211	20.102	-2.416	0.519
776.500	452.032	80.001	20.009	100.204	20.102	-2.349	0.531
777.000	452.236	80.001	20.008	100.205	20.101	-2.022	0.522
777.500	452.491	80.001	20.008	100.206	20.100	-1.842	0.480
778.000	452.669	80.001	20.008	100.210	20.103	-2.549	0.446
778.500	452.938	80.000	20.008	100.215	20.100	-1.755	0.440
779.000	453.199	80.001	20.008	100.216	20.099	-1.388	0.489
779.500	453.434	80.000	20.008	100.208	20.098	-1.181	0.513
780.000	453.718	80.002	20.009	100.201	20.100	-1.795	0.507
780.500	453.962	80.002	20.008	100.196	20.101	-1.949	0.523
781.000	454.182	80.001	20.008	100.198	20.102	-2.243	0.496
781.500	454.416	80.000	20.008	100.204	20.102	-2.409	0.459
782.000	454.735	80.001	20.007	100.213	20.102	-2.456	0.503
782.500	454.957	80.002	20.008	100.220	20.102	-2.469	0.547
783.000	455.223	80.001	20.008	100.220	20.100	-1.842	0.515
783.500	455.467	80.001	20.009	100.215	20.101	-2.108	0.499
784.000	455.729	80.001	20.009	100.207	20.100	-1.702	0.508
784.500	455.949	80.001	20.008	100.204	20.102	-2.236	0.494
785.000	456.177	80.001	20.008	100.208	20.103	-2.563	0.466
785.500	456.448	80.002	20.008	100.214	20.102	-2.429	0.474
786.000	456.665	80.001	20.008	100.221	20.103	-2.643	0.493
786.500	456.892	80.001	20.009	100.229	20.104	-3.083	0.466
787.000	457.185	80.001	20.008	100.222	20.106	-3.677	0.482
787.500	457.424	80.001	20.009	100.211	20.105	-3.257	0.526
788.000	457.663	80.000	20.009	100.207	20.104	-2.923	0.505
788.500	457.914	80.001	20.009	100.207	20.105	-3.150	0.484
789.000	458.186	80.001	20.009	100.208	20.104	-2.963	0.506
789.500	458.403	80.001	20.008	100.215	20.105	-3.130	0.505
790.000	458.664	80.000	20.008	100.221	20.104	-2.863	0.483
790.500	458.900	80.001	20.008	100.222	20.103	-2.696	0.488
791.000	459.143	80.001	20.009	100.212	20.103	-2.643	0.488
791.500	459.398	80.002	20.009	100.203	20.103	-2.689	0.488
792.000	459.668	80.001	20.008	100.194	20.104	-3.003	0.511
792.500	459.925	80.001	20.008	100.193	20.104	-2.883	0.526
793.000	460.130	80.000	20.008	100.195	20.104	-2.884	0.494
793.500	460.374	80.001	20.008	100.205	20.101	-2.149	0.455
794.000	460.621	80.001	20.008	100.214	20.102	-2.263	0.470
794.500	460.861	80.001	20.008	100.216	20.101	-2.143	0.489
795.000	461.059	80.001	20.008	100.209	20.101	-2.163	0.463
795.501	461.318	80.001	20.009	100.201	20.105	-3.411	0.447
796.001	461.558	80.003	20.009	100.192	20.104	-2.864	0.478
796.500	461.803	80.000	20.009	100.185	20.104	-3.031	0.492
797.000	462.031	80.002	20.009	100.193	20.104	-2.931	0.479
797.500	462.314	80.002	20.008	100.201	20.105	-3.225	0.492
798.000	462.547	80.002	20.008	100.209	20.103	-2.717	0.514
798.500	462.834	80.003	20.009	100.216	20.102	-2.463	0.519
799.000	463.034	80.001	20.009	100.214	20.102	-2.470	0.504
799.500	463.250	80.002	20.009	100.206	20.102	-2.256	0.451
800.000	463.488	80.001	20.008	100.201	20.104	-2.950	0.435
800.500	463.744	80.002	20.008	100.201	20.103	-2.636	0.474
801.000	464.023	80.001	20.008	100.203	20.100	-1.669	0.514
801.500	464.274	80.001	20.009	100.211	20.099	-1.375	0.532
802.000	464.473	80.002	20.008	100.218	20.099	-1.395	0.490
802.500	464.722	80.002	20.008	100.219	20.102	-2.469	0.450
803.000	465.024	80.000	20.008	100.212	20.103	-2.716	0.500
803.500	465.233	80.002	20.008	100.204	20.102	-2.422	0.531
804.000	465.495	80.002	20.009	100.199	20.103	-2.629	0.491
804.500	465.692	80.000	20.009	100.199	20.103	-2.556	0.465
805.000	465.969	80.002	20.009	100.205	20.100	-1.548	0.466
805.500	466.194	80.001	20.008	100.217	20.101	-2.082	0.488
806.000	466.438	80.002	20.008	100.226	20.102	-2.269	0.485
806.500	466.712	80.000	20.008	100.232	20.101	-2.142	0.493
807.000	466.951	80.002	20.007	100.232	20.103	-2.696	0.515
807.500	467.198	80.000	20.008	100.233	20.102	-2.396	0.500
808.000	467.433	80.002	20.008	100.227	20.100	-1.835	0.484
808.500	467.687	80.001	20.008	100.227	20.099	-1.315	0.485
809.000	467.984	80.002	20.008	100.234	20.102	-2.469	0.520
809.500	468.148	80.001	20.008	100.241	20.099	-1.542	0.506
810.000	468.413	80.000	20.007	100.244	20.101	-2.122	0.445
810.500	468.736	80.001	20.008	100.244	20.100	-1.829	0.509
811.000	468.945	80.002	20.008	100.243	20.101	-2.015	0.560
811.500	469.151	80.002	20.008	100.231	20.099	-1.348	0.474
812.000	469.424	80.001	20.008	100.221	20.101	-2.042	0.447
812.500	469.658	80.001	20.008	100.218	20.100	-1.836	0.493
813.000	469.964	80.000	20.008	100.218	20.100	-1.642	0.523
813.500	470.200	80.002	20.008	100.220	20.097	-0.741	0.541
814.000	470.425	80.001	20.008	100.222	20.103	-2.590	0.501
814.500	470.662	80.001	20.008	100.224	20.102	-2.410	0.461
815.000	470.902	80.002	20.008	100.217	20.102	-2.483	0.469
815.500	471.176	80.001	20.009	100.208	20.101	-1.962	0.496
816.000	471.404	80.000	20.008	100.201	20.104	-2.903	0.508
816.500	471.669	80.002	20.008	100.201	20.102	-2.256	0.497
817.000	471.899	80.001	20.008	100.201	20.103	-2.703	0.494
817.500	472.091	80.002	20.008	100.208	20.102	-2.303	0.459
818.000	472.379	80.001	20.008	100.216	20.103	-2.683	0.451
818.500	472.645	80.001	20.008	100.221	20.102	-2.223	0.517
819.000	472.896	80.000	20.008	100.215	20.103	-2.530	0.536
819.500	473.172	80.002	20.008	100.208	20.103	-2.610	0.522
820.000	473.441	80.001	20.008	100.203	20.102	-2.210	0.535
820.500	473.632	80.001	20.008	100.202	20.103	-2.770	0.503
821.000	473.847	80.001	20.008	100.203	20.101	-1.869	0.434
821.500	474.097	80.001	20.008	100.210	20.103	-2.797	0.436
822.000	474.376	80.000	20.008	100.218	20.103	-2.697	0.497
822.500	474.635	80.000	20.008	100.221	20.103	-2.604	0.534
823.000	474.872	80.002	20.008	100.214	20.103	-2.517	0.517
823.501	475.121	80.002	20.009	100.209	20.103	-2.763	0.491
824.000	475.324	80.001	20.008	100.208	20.104	-2.937	0.469
824.500	475.597	80.000	20.008	100.208	20.103	-2.704	0.464
825.000	475.875	80.001	20.008	100.214	20.103	-2.730	0.513
825.500	476.105	80.001	20.008	100.225	20.102	-2.283	0.529
826.001	476.341	80.000	20.008	100.231	20.102	-2.350	0.487
826.500	476.604	80.001	20.008	100.232	20.099	-1.435	0.482
827.000	476.856	80.001	20.008	100.230	20.102	-2.262	0.507
827.500	477.107	80.001	20.008	100.225	20.101	-2.155	0.509
828.000	477.319	80.000	20.009	100.222	20.104	-3.083	0.483
828.500	477.605	80.001	20.008	100.220	20.106	-3.464	0.480
829.000	477.838	80.001	20.008	100.222	20.104	-3.123	0.508
829.500	478.094	80.001	20.008	100.230	20.106	-3.644	0.504
830.000	478.367	80.000	20.008	100.231	20.107	-3.878	0.509
830.500	478.598	80.000	20.008	100.232	20.109	-4.472	0.516
831.000	478.830	80.000	20.008	100.232	20.108	-4.358	0.484
831.500	479.099	80.001	20.008	100.229	20.111	-5.192	0.483
832.000	479.349	80.000	20.008	100.222	20.111	-5.052	0.510
832.500	479.623	80.001	20.008	100.227	20.107	-4.045	0.521
833.000	479.859	80.000	20.008	100.234	20.107	-3.898	0.516
833.500	480.086	80.001	20.007	100.241	20.109	-4.453	0.486
834.000	480.398	80.000	20.008	100.250	20.108	-4.200	0.501
834.501	480.605	80.001	20.009	100.252	20.108	-4.079	0.529
835.000	480.845	80.001	20.008	100.246	20.108	-4.092	0.483
835.500	481.069	79.999	20.009	100.238	20.109	-4.506	0.456
836.000	481.369	80.001	20.009	100.231	20.108	-4.185	0.494
836.500	481.596	80.001	20.009	100.222	20.110	-4.800	0.525
837.000	481.838	80.001	20.008	100.229	20.108	-4.299	0.498
837.500	482.096	80.000	20.009	100.237	20.109	-4.419	0.484
838.000	482.348	80.000	20.009	100.240	20.106	-3.698	0.505
838.500	482.594	80.000	20.008	100.239	20.106	-3.752	0.505
839.000	482.892	80.001	20.008	100.233	20.106	-3.571	0.521
839.500	483.136	80.001	20.009	100.218	20.106	-3.531	0.542
840.000	483.326	80.000	20.008	100.203	20.103	-2.770	0.487
840.500	483.621	80.000	20.008	100.199	20.105	-3.350	0.459
841.000	483.899	80.001	20.008	100.199	20.102	-2.443	0.529
841.500	484.110	80.000	20.008	100.206	20.104	-2.950	0.531
842.000	484.388	80.000	20.008	100.213	20.105	-3.251	0.489
842.500	484.589	80.001	20.008	100.220	20.105	-3.311	0.484
843.000	484.864	80.000	20.008	100.219	20.103	-2.643	0.478
843.500	485.122	80.001	20.008	100.213	20.103	-2.696	0.504
844.000	485.349	80.001	20.008	100.208	20.103	-2.736	0.509
844.500	485.672	80.000	20.008	100.208	20.100	-1.742	0.518
845.000	485.874	80.000	20.008	100.210	20.104	-2.996	0.537
845.500	486.174	80.001	20.008	100.220	20.103	-2.596	0.513
846.000	486.377	80.000	20.008	100.235	20.105	-3.317	0.503
846.500	486.653	80.000	20.008	100.247	20.103	-2.676	0.491
847.000	486.897	80.000	20.009	100.253	20.105	-3.270	0.499
847.500	487.171	80.001	20.008	100.251	20.105	-3.370	0.519
848.000	487.432	80.002	20.009	100.243	20.105	-3.330	0.527
848.500	487.643	80.001	20.008	100.235	20.104	-3.030	0.504
849.000	487.928	80.002	20.009	100.232	20.105	-3.243	0.484
849.500	488.166	80.002	20.008	100.235	20.105	-3.130	0.510
850.000	488.396	80.001	20.008	100.240	20.105	-3.277	0.495
850.500	488.639	80.000	20.008	100.242	20.107	-3.818	0.470
851.000	488.884	80.001	20.008	100.242	20.107	-3.911	0.480
851.500	489.163	80.000	20.008	100.238	20.106	-3.543	0.506
852.000	489.383	80.001	20.008	100.227	20.106	-3.690	0.512
852.500	489.648	80.002	20.009	100.218	20.105	-3.150	0.492
853.000	489.890	80.001	20.008	100.214	20.104	-3.070	0.496
853.500	490.169	80.000	20.008	100.215	20.106	-3.544	0.514
854.000	490.414	80.001	20.009	100.215	20.104	-2.883	0.522
854.501	490.650	80.001	20.009	100.219	20.106	-3.451	0.503
855.001	490.905	80.000	20.009	100.223	20.105	-3.270	0.486
855.500	491.134	80.001	20.008	100.220	20.106	-3.697	0.487
856.000	491.374	80.001	20.009	100.213	20.106	-3.490	0.476
856.501	491.635	80.002	20.008	100.205	20.107	-3.817	0.485
857.000	491.818	80.002	20.008	100.201	20.104	-2.876	0.473
857.500	492.098	80.000	20.009	100.202	20.106	-3.578	0.453
858.000	492.372	80.002	20.009	100.206	20.105	-3.224	0.508
858.500	492.560	80.001	20.008	100.213	20.104	-2.937	0.508
859.000	492.774	80.001	20.008	100.220	20.104	-2.816	0.432
859.500	493.077	80.002	20.008	100.218	20.105	-3.216	0.459
860.000	493.327	79.999	20.008	100.211	20.103	-2.763	0.535
860.500	493.511	80.002	20.009	100.202	20.104	-3.070	0.494
861.000	493.762	80.001	20.008	100.197	20.101	-2.042	0.435
861.500	493.993	80.001	20.008	100.199	20.105	-3.190	0.458
862.000	494.282	80.000	20.009	100.205	20.104	-3.037	0.501
862.500	494.502	80.000	20.008	100.212	20.104	-2.876	0.515
863.000	494.790	80.001	20.009	100.217	20.103	-2.803	0.508
863.500	495.058	80.002	20.009	100.214	20.104	-3.043	0.531
864.000	495.312	80.000	20.009	100.206	20.103	-2.709	0.539
864.500	495.503	80.000	20.009	100.198	20.103	-2.616	0.484
865.000	495.739	80.001	20.009	100.192	20.102	-2.462	0.436
865.500	496.005	80.002	20.009	100.195	20.104	-3.063	0.465
866.000	496.259	80.001	20.008	100.202	20.103	-2.596	0.511
866.500	496.547	80.000	20.008	100.210	20.104	-2.876	0.531
867.000	496.785	80.001	20.009	100.216	20.100	-1.615	0.534
867.500	497.006	80.002	20.008	100.216	20.102	-2.222	0.493
868.000	497.275	80.002	20.009	100.208	20.103	-2.669	0.475
868.500	497.481	80.000	20.009	100.203	20.103	-2.756	0.482
869.000	497.715	80.001	20.009	100.202	20.102	-2.249	0.457
869.500	497.997	80.001	20.009	100.204	20.102	-2.396	0.478
870.000	498.236	79.999	20.009	100.212	20.105	-3.237	0.518
870.500	498.513	80.000	20.009	100.220	20.105	-3.150	0.519
871.000	498.742	80.001	20.008	100.224	20.103	-2.702	0.511
871.500	498.963	80.000	20.009	100.217	20.103	-2.689	0.477
872.000	499.183	80.000	20.009	100.209	20.102	-2.442	0.445
872.500	499.461	80.002	20.009	100.200	20.104	-2.816	0.470
873.000	499.733	80.002	20.009	100.199	20.103	-2.616	0.524
873.500	500.020	80.000	20.009	100.200	20.106	-3.550	0.555
874.000	500.212	80.002	20.008	100.207	20.104	-2.916	0.519
874.501	500.463	79.999	20.009	100.213	20.104	-2.909	0.461
875.000	500.736	80.002	20.009	100.215	20.104	-2.996	0.483
875.500	500.971	80.001	20.009	100.207	20.104	-3.036	0.516
876.000	501.200	80.001	20.009	100.200	20.101	-2.169	0.486
876.500	501.476	80.000	20.008	100.192	20.104	-2.956	0.485
877.000	501.691	80.001	20.008	100.192	20.104	-3.016	0.498
877.500	501.950	80.000	20.008	100.197	20.106	-3.597	0.482
878.000	502.214	80.001	20.009	100.204	20.104	-2.936	0.499
878.500	502.450	79.999	20.008	100.204	20.104	-3.056	0.512
879.000	502.679	80.002	20.010	100.204	20.106	-3.443	0.482
879.500	502.935	80.001	20.009	100.195	20.107	-3.823	0.475
880.000	503.200	80.000	20.009	100.188	20.106	-3.637	0.503
880.500	503.404	80.001	20.009	100.184	20.106	-3.657	0.495
881.000	503.654	80.001	20.009	100.191	20.105	-3.304	0.461
881.500	503.912	80.001	20.008	100.198	20.106	-3.584	0.481
882.000	504.138	80.000	20.009	100.206	20.105	-3.210	0.496
882.500	504.400	80.002	20.008	100.208	20.105	-3.230	0.486
883.000	504.617	80.001	20.009	100.205	20.105	-3.250	0.484
883.500	504.896	80.001	20.009	100.198	20.106	-3.617	0.488
884.000	505.125	80.001	20.008	100.191	20.105	-3.177	0.502
884.501	505.347	80.002	20.008	100.185	20.106	-3.497	0.479
885.000	505.601	80.001	20.009	100.188	20.105	-3.277	0.463
885.500	505.800	80.001	20.008	100.196	20.105	-3.177	0.465
886.000	506.093	80.001	20.008	100.203	20.104	-3.076	0.473
886.500	506.328	80.001	20.008	100.202	20.104	-2.956	0.510
887.000	506.579	80.002	20.008	100.202	20.104	-3.056	0.507
887.500	506.846	80.001	20.008	100.198	20.102	-2.236	0.502
888.000	507.073	80.002	20.008	100.190	20.103	-2.683	0.505
888.500	507.283	80.001	20.008	100.190	20.103	-2.770	0.465
889.000	507.534	80.002	20.008	100.199	20.103	-2.736	0.449
889.500	507.797	80.000	20.008	100.206	20.102	-2.389	0.488
890.000	508.065	79.999	20.008	100.206	20.103	-2.776	0.523
890.500	508.312	80.001	20.008	100.206	20.102	-2.449	0.522
891.000	508.530	80.002	20.008	100.197	20.104	-2.983	0.490
891.500	508.772	80.002	20.008	100.188	20.104	-2.856	0.462
892.000	508.983	80.002	20.008	100.182	20.101	-2.176	0.456
892.500	509.236	80.002	20.008	100.188	20.103	-2.736	0.459
893.000	509.464	80.000	20.008	100.197	20.103	-2.703	0.473
893.500	509.769	80.002	20.007	100.207	20.100	-1.768	0.507
894.000	510.003	80.002	20.008	100.216	20.101	-1.949	0.536
894.500	510.234	80.001	20.008	100.220	20.101	-2.015	0.502
895.000	510.490	80.001	20.009	100.215	20.102	-2.322	0.476
895.500	510.760	80.003	20.008	100.213	20.102	-2.403	0.507
896.000	510.997	80.000	20.008	100.211	20.103	-2.703	0.517
896.500	511.258	80.001	20.008	100.211	20.100	-1.802	0.502
897.000	511.491	80.001	20.008	100.214	20.100	-1.628	0.496
897.500	511.726	80.002	20.008	100.217	20.100	-1.648	0.481
898.000	511.966	80.001	20.008	100.210	20.099	-1.341	0.472
898.500	512.231	80.002	20.009	100.203	20.099	-1.388	0.490
899.000	512.432	80.001	20.008	100.195	20.099	-1.482	0.486
899.500	512.684	80.001	20.008	100.191	20.097	-0.828	0.459
900.001	512.954	80.001	20.008	100.194	20.100	-1.815	0.487
900.501	513.176	80.001	20.008	100.202	20.100	-1.595	0.507
901.000	513.396	80.001	20.008	100.208	20.101	-2.002	0.467
901.500	513.649	80.001	20.008	100.208	20.100	-1.595	0.457
902.000	513.896	80.000	20.008	100.205	20.098	-1.074	0.487
902.500	514.172	80.001	20.008	100.193	20.100	-1.662	0.512
903.000	514.404	80.001	20.008	100.184	20.096	-0.541	0.516
903.500	514.648	80.000	20.008	100.182	20.099	-1.435	0.492
904.000	514.923	80.003	20.008	100.190	20.098	-1.001	0.497
904.500	515.174	80.000	20.007	100.199	20.097	-0.868	0.522
905.000	515.413	80.000	20.008	100.212	20.098	-1.128	0.508
905.500	515.670	80.002	20.008	100.217	20.097	-0.888	0.493
906.000	515.932	80.002	20.008	100.213	20.097	-0.707	0.508
906.500	516.135	80.001	20.009	100.205	20.097	-0.814	0.492
907.000	516.420	80.001	20.008	100.201	20.097	-0.801	0.476
907.500	516.620	80.001	20.008	100.201	20.098	-1.155	0.486
908.000	516.881	80.000	20.008	100.207	20.097	-0.714	0.473
908.500	517.176	80.001	20.008	100.215	20.099	-1.288	0.509
909.000	517.439	80.002	20.008	100.221	20.099	-1.442	0.557
909.500	517.674	80.001	20.008	100.219	20.099	-1.395	0.528
910.001	517.905	80.001	20.008	100.211	20.099	-1.461	0.482
910.501	518.101	80.001	20.008	100.203	20.101	-1.882	0.447
911.001	518.435	80.000	20.008	100.203	20.099	-1.255	0.479
911.500	518.651	80.001	20.008	100.205	20.099	-1.248	0.540
912.000	518.914	80.001	20.008	100.212	20.100	-1.815	0.514
912.500	519.131	80.001	20.007	100.220	20.101	-2.062	0.479
913.000	519.388	80.002	20.008	100.219	20.099	-1.268	0.477
913.500	519.658	80.001	20.008	100.212	20.098	-1.001	0.501
914.000	519.912	80.002	20.009	100.204	20.101	-2.155	0.526
914.500	520.178	80.000	20.008	100.196	20.101	-2.029	0.522
915.000	520.384	80.000	20.008	100.193	20.101	-2.089	0.495
915.500	520.652	80.002	20.008	100.199	20.100	-1.602	0.473
916.000	520.940	80.002	20.008	100.207	20.100	-1.582	0.515
916.500	521.160	80.001	20.008	100.214	20.100	-1.749	0.532
917.000	521.397	80.000	20.008	100.220	20.098	-1.155	0.483
917.500	521.663	80.001	20.008	100.216	20.099	-1.468	0.480
918.001	521.914	80.000	20.008	100.208	20.099	-1.341	0.509
918.500	522.171	80.001	20.008	100.201	20.101	-1.868	0.512
919.000	522.356	80.003	20.008	100.200	20.100	-1.622	0.475
919.500	522.641	79.999	20.008	100.201	20.100	-1.755	0.456
920.000	522.891	80.001	20.008	100.209	20.101	-1.875	0.503
920.500	523.137	80.001	20.008	100.216	20.101	-2.102	0.516
921.001	523.400	80.001	20.008	100.223	20.101	-2.035	0.502
921.501	523.596	80.001	20.008	100.216	20.104	-2.989	0.484
922.000	523.851	80.001	20.008	100.208	20.101	-1.982	0.455
922.500	524.144	79.999	20.008	100.200	20.103	-2.503	0.499
923.000	524.405	80.001	20.008	100.198	20.100	-1.782	0.551
923.500	524.605	80.000	20.008	100.198	20.103	-2.616	0.508
924.000	524.870	80.001	20.008	100.206	20.103	-2.529	0.463
924.500	525.096	80.002	20.008	100.214	20.101	-2.082	0.478
925.000	525.376	80.000	20.008	100.219	20.101	-1.955	0.498
925.500	525.631	80.001	20.008	100.215	20.103	-2.595	0.520
926.000	525.895	80.001	20.008	100.208	20.104	-2.902	0.527
926.500	526.115	80.001	20.008	100.203	20.105	-3.316	0.501
927.000	526.334	80.001	20.008	100.203	20.102	-2.182	0.461
927.500	526.566	80.001	20.008	100.208	20.102	-2.363	0.445
928.000	526.878	80.000	20.008	100.218	20.102	-2.383	0.498
928.500	527.099	80.000	20.008	100.227	20.102	-2.236	0.539
929.000	527.320	80.002	20.008	100.224	20.102	-2.269	0.487
929.500	527.531	80.000	20.008	100.216	20.102	-2.389	0.437
930.001	527.821	80.001	20.008	100.206	20.102	-2.389	0.466
930.500	528.050	80.001	20.008	100.193	20.101	-2.009	0.510
931.000	528.288	80.001	20.008	100.189	20.103	-2.576	0.493
931.500	528.546	80.000	20.008	100.195	20.102	-2.183	0.482
932.000	528.775	80.000	20.008	100.202	20.100	-1.602	0.492
932.500	529.038	80.003	20.008	100.206	20.101	-2.115	0.489
933.000	529.261	80.000	20.008	100.205	20.103	-2.676	0.489
933.500	529.496	80.001	20.008	100.201	20.100	-1.722	0.472
934.001	529.725	80.001	20.008	100.193	20.103	-2.589	0.461
934.500	529.967	80.001	20.008	100.191	20.103	-2.636	0.467
935.000	530.276	80.001	20.009	100.195	20.100	-1.849	0.511
935.500	530.550	80.000	20.008	100.204	20.101	-2.022	0.567
936.000	530.760	80.003	20.008	100.211	20.102	-2.482	0.534
936.500	531.038	79.999	20.008	100.215	20.099	-1.315	0.486
937.000	531.274	80.001	20.008	100.209	20.098	-1.061	0.501
937.501	531.520	80.001	20.008	100.198	20.099	-1.468	0.498
938.000	531.759	80.001	20.008	100.188	20.101	-2.082	0.484
938.500	532.025	80.001	20.008	100.181	20.099	-1.355	0.495
939.000	532.197	80.001	20.008	100.184	20.098	-1.208	0.472
939.500	532.507	80.001	20.008	100.192	20.098	-1.195	0.460
940.000	532.705	80.002	20.008	100.202	20.099	-1.368	0.495
940.500	532.984	80.000	20.008	100.211	20.098	-1.174	0.492
941.000	533.211	80.002	20.008	100.214	20.098	-1.101	0.492
941.501	533.475	80.000	20.008	100.208	20.099	-1.395	0.498
942.000	533.747	80.001	20.008	100.206	20.098	-1.175	0.513
942.500	533.998	80.000	20.009	100.206	20.100	-1.755	0.530
943.000	534.267	80.002	20.009	100.206	20.103	-2.609	0.522
943.500	534.486	80.001	20.008	100.211	20.102	-2.369	0.504
944.000	534.762	80.000	20.008	100.219	20.103	-2.722	0.491
944.500	534.991	80.001	20.008	100.218	20.101	-2.155	0.500
945.000	535.247	80.001	20.008	100.211	20.101	-2.109	0.495
945.500	535.496	80.000	20.008	100.204	20.101	-1.982	0.495
946.000	535.759	80.001	20.008	100.204	20.100	-1.622	0.509
946.500	535.980	80.000	20.008	100.204	20.098	-1.108	0.498
947.000	536.276	80.000	20.008	100.207	20.096	-0.587	0.500
947.500	536.521	80.001	20.008	100.216	20.096	-0.500	0.529
948.000	536.762	80.002	20.008	100.217	20.100	-1.568	0.514
948.500	537.051	80.001	20.008	100.211	20.099	-1.381	0.508
949.000	537.281	80.001	20.008	100.203	20.100	-1.815	0.524
949.501	537.546	80.001	20.008	100.201	20.099	-1.348	0.507
950.000	537.795	80.001	20.008	100.200	20.100	-1.809	0.505
950.500	538.076	80.000	20.008	100.205	20.097	-0.854	0.522
951.000	538.311	80.001	20.008	100.211	20.099	-1.268	0.523
951.500	538.529	80.002	20.008	100.217	20.100	-1.768	0.484
952.000	538.795	80.000	20.008	100.211	20.099	-1.281	0.469
952.500	539.033	80.001	20.008	100.204	20.099	-1.248	0.494
953.000	539.317	80.002	20.009	100.196	20.100	-1.608	0.513
953.501	539.591	80.000	20.008	100.192	20.097	-0.787	0.540
954.001	539.845	80.001	20.008	100.194	20.098	-1.041	0.543
954.500	540.084	80.001	20.008	100.202	20.098	-1.128	0.510
955.000	540.362	80.002	20.008	100.209	20.100	-1.775	0.505
955.500	540.568	79.999	20.009	100.210	20.099	-1.234	0.500
956.000	540.798	80.002	20.008	100.207	20.100	-1.835	0.460
956.500	541.064	80.001	20.008	100.199	20.099	-1.288	0.466
957.000	541.326	80.002	20.008	100.193	20.100	-1.628	0.512
957.500	541.608	80.002	20.008	100.190	20.099	-1.381	0.536
958.000	541.851	80.001	20.008	100.196	20.098	-1.135	0.535
958.500	542.083	80.001	20.008	100.204	20.099	-1.275	0.500
959.000	542.366	80.001	20.009	100.207	20.100	-1.555	0.494
959.500	542.601	80.001	20.008	100.207	20.102	-2.275	0.516
960.000	542.908	80.001	20.009	100.203	20.097	-0.867	0.530
960.500	543.158	80.002	20.009	100.195	20.095	-0.227	0.550
961.000	543.416	80.000	20.009	100.189	20.098	-1.061	0.533
961.500	543.642	80.001	20.008	100.193	20.099	-1.328	0.496
962.000	543.852	80.000	20.008	100.201	20.100	-1.802	0.460
962.500	544.109	80.001	20.010	100.206	20.100	-1.782	0.452
963.000	544.385	80.001	20.008	100.206	20.101	-2.115	0.499
963.500	544.614	80.001	20.009	100.204	20.099	-1.375	0.519
964.000	544.865	80.001	20.009	100.196	20.102	-2.215	0.493
964.500	545.139	80.001	20.008	100.188	20.100	-1.595	0.503
965.000	545.361	80.002	20.009	100.184	20.102	-2.189	0.511
965.501	545.637	80.000	20.008	100.188	20.101	-2.009	0.497
966.001	545.892	80.001	20.009	100.194	20.103	-2.536	0.514
966.501	546.128	80.000	20.008	100.195	20.100	-1.762	0.511
967.001	546.376	80.001	20.009	100.196	20.102	-2.235	0.488
967.500	546.671	80.002	20.008	100.195	20.101	-2.002	0.513
968.000	546.900	80.000	20.010	100.192	20.104	-2.823	0.533
968.500	547.105	80.001	20.009	100.186	20.101	-1.982	0.479
969.000	547.384	80.002	20.008	100.185	20.103	-2.716	0.459
969.500	547.610	80.001	20.008	100.191	20.104	-3.050	0.495
970.000	547.874	80.001	20.008	100.199	20.103	-2.770	0.498
970.500	548.112	80.001	20.008	100.207	20.103	-2.523	0.496
971.000	548.400	80.001	20.008	100.210	20.106	-3.617	0.514
971.500	548.592	80.001	20.008	100.209	20.103	-2.556	0.503
972.000	548.864	80.002	20.008	100.203	20.107	-3.944	0.472
972.500	549.135	80.000	20.008	100.197	20.105	-3.170	0.504
973.000	549.358	80.001	20.008	100.196	20.104	-3.037	0.519
973.500	549.618	79.999	20.008	100.201	20.103	-2.797	0.488
974.000	549.828	80.002	20.008	100.210	20.104	-3.023	0.476
974.500	550.123	80.001	20.009	100.217	20.104	-2.883	0.487
975.000	550.392	80.001	20.008	100.218	20.104	-3.063	0.534
975.500	550.610	80.000	20.009	100.210	20.104	-2.903	0.526
976.000	550.810	80.002	20.008	100.202	20.103	-2.683	0.453
976.500	551.115	80.001	20.008	100.194	20.105	-3.317	0.462
977.000	551.336	80.000	20.009	100.191	20.106	-3.745	0.516
977.500	551.573	80.001	20.008	100.195	20.106	-3.451	0.492
978.000	551.876	80.001	20.008	100.199	20.105	-3.285	0.499
978.500	552.118	80.001	20.008	100.200	20.107	-3.952	0.542
979.000	552.382	80.001	20.008	100.200	20.103	-2.803	0.525
979.500	552.591	80.001	20.009	100.195	20.106	-3.524	0.490
980.000	552.823	80.000	20.008	100.189	20.107	-3.984	0.457
980.500	553.071	80.002	20.008	100.192	20.106	-3.664	0.461
981.000	553.337	80.000	20.008	100.198	20.105	-3.217	0.497
981.500	553.582	80.001	20.008	100.206	20.105	-3.378	0.513
982.000	553.811	80.001	20.008	100.214	20.105	-3.324	0.493
982.500	554.056	80.000	20.008	100.219	20.104	-3.037	0.474
983.000	554.303	80.002	20.008	100.213	20.106	-3.590	0.483
983.501	554.496	80.001	20.009	100.207	20.107	-3.824	0.466
984.000	554.801	80.001	20.009	100.199	20.107	-3.917	0.469
984.500	555.057	80.001	20.008	100.197	20.106	-3.504	0.530
985.000	555.299	80.002	20.008	100.199	20.107	-3.978	0.529
985.500	555.571	80.000	20.008	100.208	20.105	-3.217	0.506
986.000	555.829	80.000	20.008	100.215	20.104	-3.110	0.522
986.500	556.079	80.001	20.008	100.220	20.104	-2.843	0.519
987.000	556.305	80.001	20.008	100.216	20.104	-2.823	0.492
987.501	556.544	80.002	20.008	100.208	20.104	-2.823	0.471
988.000	556.811	80.000	20.008	100.201	20.106	-3.570	0.485
988.500	557.058	80.002	20.008	100.199	20.107	-4.064	0.509
989.000	557.287	80.002	20.008	100.202	20.106	-3.664	0.495
989.500	557.544	80.000	20.008	100.214	20.109	-4.485	0.481
990.000	557.825	80.001	20.008	100.230	20.106	-3.490	0.512
990.500	558.074	80.001	20.008	100.239	20.106	-3.504	0.534
991.000	558.278	80.001	20.008	100.240	20.107	-3.884	0.491
991.500	558.522	80.002	20.009	100.236	20.107	-3.850	0.450
992.000	558.775	80.000	20.008	100.226	20.106	-3.563	0.473
992.500	559.034	80.001	20.008	100.217	20.106	-3.524	0.505
993.000	559.290	80.001	20.008	100.214	20.108	-4.338	0.513
993.500	559.512	80.001	20.008	100.219	20.107	-3.951	0.497
994.000	559.774	80.001	20.009	100.224	20.106	-3.524	0.481
994.500	560.016	80.001	20.008	100.228	20.108	-4.372	0.494
995.000	560.292	80.001	20.008	100.225	20.107	-3.764	0.511
995.500	560.551	80.000	20.008	100.217	20.107	-3.971	0.526
996.000	560.760	80.000	20.008	100.205	20.108	-4.324	0.501
996.500	561.015	80.002	20.008	100.202	20.108	-4.164	0.466
997.000	561.248	80.001	20.008	100.203	20.106	-3.731	0.476
997.500	561.503	80.001	20.008	100.208	20.107	-3.804	0.488
998.000	561.786	80.000	20.008	100.216	20.108	-4.211	0.513
998.500	562.069	80.001	20.008	100.221	20.105	-3.423	0.552
999.000	562.343	80.001	20.008	100.215	20.106	-3.630	0.562
999.500	562.593	80.002	20.008	100.207	20.105	-3.423	0.541
1000.000	562.806	80.000	20.008	100.198	20.106	-3.584	0.494
1000.500	563.074	80.001	20.008	100.192	20.106	-3.504	0.472
1001.000	563.330	80.001	20.008	100.191	20.107	-3.832	0.503
1001.500	563.527	80.001	20.008	100.199	20.108	-4.099	0.488
1002.000	563.792	80.000	20.008	100.206	20.103	-2.750	0.457
1002.500	564.074	80.001	20.008	100.213	20.106	-3.624	0.505
1003.000	564.326	80.001	20.008	100.210	20.105	-3.190	0.541
1003.500	564.555	80.001	20.008	100.204	20.106	-3.677	0.508
1004.000	564.828	80.001	20.008	100.196	20.104	-2.963	0.491
1004.500	565.109	80.001	20.008	100.191	20.105	-3.431	0.528
1005.000	565.313	80.001	20.008	100.193	20.102	-2.423	0.520
1005.500	565.614	80.002	20.008	100.203	20.106	-3.611	0.495
1006.000	565.840	80.001	20.008	100.213	20.104	-3.070	0.516
1006.500	566.097	80.001	20.008	100.220	20.106	-3.590	0.505
1007.000	566.362	80.001	20.008	100.221	20.105	-3.303	0.503
1007.500	566.613	80.002	20.008	100.214	20.103	-2.542	0.519
1008.000	566.847	80.001	20.008	100.204	20.103	-2.776	0.501
1008.500	567.082	80.001	20.008	100.200	20.106	-3.524	0.478
1009.001	567.362	80.001	20.008	100.201	20.106	-3.624	0.492
1009.500	567.640	80.001	20.008	100.206	20.106	-3.718	0.536
1010.000	567.897	80.001	20.008	100.213	20.106	-3.711	0.547
1010.500	568.137	80.001	20.008	100.215	20.106	-3.537	0.516
1011.000	568.365	80.002	20.008	100.210	20.106	-3.597	0.482
1011.500	568.582	80.001	20.008	100.202	20.105	-3.310	0.457
1012.000	568.846	80.002	20.008	100.201	20.108	-4.365	0.464
1012.500	569.099	80.001	20.008	100.203	20.107	-3.778	0.499
1013.000	569.379	80.000	20.008	100.214	20.105	-3.311	0.525
1013.500	569.619	80.001	20.008	100.224	20.105	-3.250	0.526
1014.000	569.849	80.001	20.007	100.231	20.104	-2.976	0.495
1014.500	570.126	80.002	20.008	100.231	20.104	-2.909	0.489
1015.000	570.391	80.000	20.008	100.224	20.106	-3.476	0.524
1015.500	570.622	80.001	20.009	100.212	20.105	-3.363	0.519
1016.000	570.859	80.001	20.008	100.207	20.106	-3.450	0.482
1016.500	571.125	80.001	20.008	100.208	20.108	-4.338	0.485
1017.000	571.381	80.001	20.008	100.209	20.107	-3.978	0.512
1017.500	571.610	80.000	20.008	100.215	20.107	-4.025	0.503
1018.000	571.856	80.001	20.008	100.219	20.105	-3.203	0.480
1018.500	572.112	80.000	20.008	100.214	20.105	-3.157	0.489
1019.000	572.323	79.999	20.008	100.206	20.104	-3.063	0.484
1019.500	572.582	80.002	20.008	100.199	20.103	-2.523	0.468
1020.000	572.848	80.001	20.008	100.192	20.105	-3.190	0.498
1020.500	573.084	80.000	20.008	100.195	20.104	-3.023	0.513
1021.000	573.342	80.000	20.008	100.201	20.104	-2.857	0.498
1021.500	573.618	80.002	20.009	100.210	20.105	-3.357	0.514
1022.000	573.852	80.001	20.009	100.216	20.102	-2.249	0.522
1022.500	574.072	80.001	20.008	100.221	20.103	-2.629	0.482
1023.000	574.274	80.002	20.008	100.214	20.105	-3.270	0.438
1023.501	574.565	80.001	20.008	100.212	20.105	-3.217	0.457
1024.001	574.814	80.001	20.008	100.212	20.105	-3.424	0.516
1024.500	575.098	80.001	20.008	100.214	20.104	-2.963	0.536
1025.000	575.330	80.001	20.008	100.215	20.104	-2.977	0.525
1025.500	575.596	80.001	20.008	100.222	20.102	-2.416	0.507
1026.000	575.838	80.001	20.008	100.220	20.102	-2.376	0.503
1026.500	576.084	80.001	20.008	100.211	20.104	-3.029	0.498
1027.000	576.315	80.002	20.009	100.203	20.102	-2.335	0.482
1027.500	576.621	80.002	20.008	100.196	20.106	-3.497	0.507
1028.000	576.851	80.000	20.008	100.193	20.107	-3.871	0.537
1028.500	577.092	80.000	20.008	100.197	20.106	-3.631	0.503
1029.000	577.318	80.001	20.008	100.206	20.103	-2.757	0.469
1029.500	577.572	80.001	20.008	100.214	20.103	-2.723	0.474
1030.000	577.805	80.001	20.008	100.221	20.101	-1.902	0.484
1030.500	578.055	80.001	20.008	100.219	20.106	-3.730	0.485
1031.000	578.285	80.001	20.008	100.212	20.107	-3.977	0.482
1031.500	578.543	80.001	20.008	100.205	20.105	-3.263	0.484
1032.000	578.789	80.001	20.008	100.204	20.106	-3.530	0.495
1032.500	579.028	80.001	20.008	100.205	20.105	-3.217	0.494
1033.000	579.271	80.001	20.008	100.211	20.104	-2.923	0.484
1033.500	579.513	80.001	20.008	100.219	20.103	-2.723	0.484
1034.000	579.755	80.001	20.008	100.224	20.104	-3.110	0.484
1034.500	579.987	80.001	20.008	100.220	20.103	-2.736	0.479
1035.000	580.220	80.001	20.008	100.211	20.105	-3.244	0.469
1035.500	580.474	80.000	20.008	100.202	20.107	-3.971	0.476
1036.000	580.731	80.003	20.008	100.200	20.103	-2.550	0.499
1036.500	581.004	80.000	20.008	100.201	20.104	-3.010	0.521
1037.000	581.180	80.000	20.008	100.206	20.101	-2.163	0.490
1037.500	581.434	80.001	20.008	100.214	20.104	-2.917	0.440
1038.000	581.662	80.001	20.008	100.219	20.101	-2.102	0.456
1038.500	581.900	80.000	20.008	100.213	20.102	-2.276	0.474
1039.000	582.167	80.002	20.008	100.204	20.102	-2.422	0.485
1039.500	582.372	80.001	20.008	100.195	20.102	-2.302	0.488
1040.000	582.679	80.000	20.008	100.193	20.101	-2.056	0.492
1040.500	582.881	80.001	20.008	100.196	20.103	-2.523	0.511
1041.000	583.136	80.000	20.008	100.204	20.101	-2.069	0.483
1041.500	583.332	80.001	20.008	100.214	20.101	-2.002	0.454
1042.000	583.623	80.001	20.008	100.219	20.104	-2.963	0.469
1042.500	583.880	80.002	20.008	100.213	20.102	-2.275	0.517
1043.000	584.111	80.001	20.008	100.204	20.100	-1.602	0.518
1043.500	584.357	80.000	20.008	100.196	20.101	-1.869	0.482
1044.000	584.615	80.002	20.008	100.194	20.101	-1.962	0.491
1044.500	584.860	80.000	20.008	100.199	20.101	-2.096	0.504
1045.000	585.084	80.001	20.008	100.207	20.104	-2.883	0.486
1045.500	585.316	80.001	20.008	100.217	20.103	-2.643	0.463
1046.000	585.579	80.001	20.008	100.222	20.102	-2.209	0.475
1046.500	585.820	80.001	20.008	100.217	20.103	-2.803	0.500
1047.000	586.096	80.001	20.008	100.215	20.104	-2.923	0.511
1047.500	586.335	80.002	20.008	100.214	20.104	-2.943	0.516
1048.000	586.595	80.001	20.008	100.213	20.103	-2.603	0.507
1048.500	586.797	79.999	20.008	100.216	20.105	-3.384	0.480
1049.000	587.039	80.001	20.008	100.222	20.105	-3.197	0.453
1049.500	587.274	80.001	20.008	100.224	20.106	-3.504	0.461
1050.000	587.538	80.001	20.008	100.222	20.103	-2.790	0.488
1050.501	587.780	80.000	20.008	100.215	20.103	-2.596	0.502
1051.001	588.050	80.002	20.008	100.208	20.101	-2.036	0.509
1051.501	588.280	80.002	20.008	100.205	20.104	-2.970	0.506
1052.000	588.526	80.000	20.008	100.204	20.105	-3.404	0.488
1052.500	588.773	80.000	20.008	100.207	20.105	-3.371	0.484
1053.000	588.991	80.001	20.008	100.215	20.106	-3.577	0.479
1053.500	589.257	80.001	20.008	100.220	20.106	-3.644	0.475
1054.000	589.485	80.002	20.009	100.215	20.103	-2.810	0.489
1054.500	589.746	80.001	20.008	100.208	20.103	-2.589	0.492
1055.000	589.998	80.001	20.009	100.200	20.103	-2.763	0.501
1055.500	590.231	80.000	20.009	100.198	20.104	-2.977	0.499
1056.000	590.471	80.002	20.009	100.200	20.105	-3.371	0.479
1056.500	590.711	80.000	20.009	100.210	20.106	-3.450	0.476
1057.000	591.006	80.000	20.008	100.220	20.107	-3.771	0.507
1057.500	591.229	80.001	20.008	100.226	20.104	-2.876	0.526
1058.000	591.499	80.001	20.008	100.224	20.107	-4.057	0.506
1058.500	591.685	80.001	20.008	100.216	20.106	-3.557	0.474
1059.000	591.956	80.002	20.008	100.204	20.106	-3.711	0.457
1059.500	592.235	79.999	20.008	100.200	20.105	-3.370	0.504
1060.000	592.485	80.000	20.008	100.200	20.107	-3.878	0.540
1060.500	592.759	80.002	20.008	100.204	20.104	-2.917	0.527
1061.000	593.005	80.000	20.008	100.212	20.105	-3.230	0.522
1061.500	593.274	80.002	20.008	100.220	20.104	-3.056	0.518
1062.000	593.501	80.001	20.008	100.215	20.104	-2.930	0.506
1062.501	593.741	80.000	20.008	100.212	20.106	-3.624	0.482
1063.000	594.014	80.000	20.009	100.212	20.105	-3.244	0.490
1063.500	594.275	80.001	20.008	100.212	20.105	-3.224	0.523
1064.001	594.555	80.001	20.009	100.212	20.104	-3.010	0.537
1064.500	594.824	80.000	20.008	100.219	20.105	-3.431	0.545
1065.000	595.040	80.001	20.009	100.222	20.105	-3.217	0.517
1065.500	595.302	80.001	20.008	100.218	20.105	-3.383	0.481
1066.000	595.578	80.000	20.009	100.212	20.104	-2.856	0.508
1066.500	595.814	80.001	20.009	100.206	20.103	-2.789	0.526
1067.000	596.044	80.001	20.008	100.205	20.104	-3.017	0.490
1067.500	596.305	80.001	20.009	100.204	20.106	-3.751	0.478
1068.000	596.632	80.002	20.008	100.208	20.104	-2.917	0.539
1068.500	596.811	80.000	20.009	100.215	20.105	-3.170	0.547
1069.000	597.073	80.001	20.009	100.219	20.103	-2.542	0.473
1069.500	597.384	80.001	20.009	100.213	20.105	-3.276	0.507
1070.001	597.593	80.001	20.008	100.205	20.103	-2.649	0.546
1070.500	597.809	80.001	20.008	100.200	20.107	-3.837	0.472
1071.000	598.101	80.001	20.008	100.199	20.105	-3.310	0.466
1071.500	598.345	80.000	20.008	100.201	20.105	-3.370	0.522
1072.000	598.640	80.001	20.008	100.208	20.105	-3.424	0.538
1072.500	598.865	80.000	20.008	100.216	20.106	-3.678	0.530
1073.000	599.131	80.001	20.008	100.218	20.109	-4.499	0.505
1073.500	599.374	80.001	20.008	100.212	20.105	-3.264	0.500
1074.000	599.631	80.001	20.008	100.204	20.108	-4.205	0.505
1074.500	599.840	80.000	20.008	100.201	20.109	-4.606	0.483
1075.000	600.136	80.001	20.008	100.202	20.106	-3.624	0.486
1075.501	600.387	80.000	20.008	100.206	20.107	-3.918	0.526
1076.000	600.658	80.001	20.007	100.213	20.106	-3.598	0.534
1076.500	600.892	80.001	20.008	100.221	20.105	-3.317	0.514
1077.000	601.132	80.001	20.008	100.223	20.106	-3.670	0.490
1077.500	601.409	80.001	20.008	100.217	20.104	-2.963	0.495
1078.000	601.622	80.001	20.008	100.209	20.104	-3.116	0.503
1078.500	601.897	80.001	20.009	100.203	20.105	-3.363	0.489
1079.001	602.130	80.001	20.008	100.203	20.104	-3.116	0.498
1079.501	602.366	80.001	20.009	100.203	20.104	-3.070	0.488
1080.000	602.612	80.001	20.008	100.209	20.104	-2.950	0.476
1080.500	602.888	80.002	20.008	100.215	20.104	-3.010	0.502
1081.000	603.128	80.000	20.009	100.214	20.105	-3.150	0.519
1081.500	603.396	80.002	20.009	100.206	20.104	-2.923	0.512
1082.000	603.635	80.002	20.008	100.199	20.104	-2.817	0.507
1082.500	603.929	80.001	20.008	100.193	20.107	-3.784	0.520
1083.000	604.135	80.001	20.008	100.195	20.108	-4.091	0.517
1083.500	604.423	80.001	20.008	100.203	20.105	-3.197	0.497
1084.000	604.681	80.001	20.008	100.209	20.107	-3.904	0.520
1084.500	604.921	80.001	20.008	100.217	20.104	-2.956	0.522
1085.000	605.187	80.001	20.008	100.222	20.107	-3.964	0.502
1085.500	605.440	80.001	20.008	100.221	20.105	-3.297	0.512
1086.000	605.677	80.001	20.008	100.220	20.105	-3.437	0.504
1086.500	605.953	80.000	20.008	100.221	20.106	-3.677	0.502
1087.000	606.179	80.001	20.008	100.222	20.106	-3.491	0.508
1087.500	606.468	80.000	20.008	100.223	20.105	-3.344	0.508
1088.000	606.728	80.001	20.008	100.224	20.105	-3.364	0.531
1088.500	606.936	80.000	20.008	100.225	20.106	-3.644	0.509
1089.000	607.193	79.999	20.009	100.221	20.105	-3.223	0.467
1089.500	607.507	80.001	20.008	100.214	20.105	-3.136	0.518
1090.000	607.754	80.002	20.008	100.206	20.106	-3.457	0.566
1090.500	608.014	80.000	20.008	100.200	20.105	-3.357	0.534
1091.000	608.253	80.002	20.008	100.195	20.103	-2.583	0.503
1091.500	608.475	80.000	20.008	100.198	20.105	-3.137	0.480
1092.000	608.729	80.001	20.008	100.200	20.103	-2.563	0.468
1092.500	608.978	80.000	20.008	100.200	20.105	-3.150	0.489
1093.000	609.229	80.001	20.008	100.207	20.104	-3.023	0.502
1093.500	609.486	80.001	20.008	100.210	20.104	-2.916	0.504
1094.000	609.768	80.000	20.008	100.206	20.103	-2.776	0.524
1094.500	609.973	80.000	20.008	100.211	20.102	-2.316	0.513
1095.000	610.259	80.000	20.008	100.219	20.103	-2.756	0.489
1095.500	610.488	80.000	20.008	100.218	20.106	-3.584	0.503
1096.000	610.743	80.001	20.009	100.220	20.105	-3.257	0.500
1096.500	611.003	80.001	20.008	100.224	20.105	-3.130	0.500
1097.000	611.250	80.000	20.008	100.216	20.107	-3.770	0.511
1097.500	611.521	80.001	20.009	100.208	20.104	-3.070	0.512
1098.000	611.785	80.000	20.009	100.201	20.105	-3.330	0.527
1098.500	611.998	80.001	20.008	100.201	20.105	-3.277	0.506
1099.000	612.267	80.000	20.008	100.202	20.102	-2.349	0.479
1099.500	612.502	80.000	20.008	100.209	20.104	-2.823	0.493
1100.000	612.798	80.000	20.008	100.217	20.104	-3.010	0.518
1100.500	613.015	80.001	20.009	100.221	20.104	-2.909	0.523
1101.000	613.272	80.000	20.008	100.213	20.106	-3.683	0.494
1101.500	613.508	80.001	20.008	100.206	20.105	-3.396	0.483
1102.000	613.779	80.000	20.009	100.202	20.107	-3.864	0.500
1102.500	614.036	80.000	20.008	100.202	20.108	-4.278	0.518
1103.000	614.283	80.000	20.008	100.206	20.104	-3.050	0.516
1103.500	614.524	80.001	20.008	100.213	20.104	-3.070	0.496
1104.000	614.809	80.001	20.008	100.221	20.104	-2.856	0.507
1104.500	615.025	80.000	20.008	100.222	20.104	-2.890	0.514
1105.000	615.294	80.001	20.009	100.216	20.107	-3.930	0.493
1105.500	615.549	80.001	20.008	100.208	20.105	-3.337	0.505
1106.000	615.821	80.000	20.008	100.201	20.106	-3.670	0.526
1106.500	616.053	80.000	20.008	100.199	20.105	-3.163	0.516
1107.000	616.283	80.001	20.008	100.203	20.106	-3.464	0.483
1107.500	616.529	80.000	20.008	100.209	20.106	-3.471	0.468
1108.000	616.763	80.000	20.008	100.215	20.106	-3.484	0.478
1108.500	617.034	80.000	20.008	100.219	20.107	-3.791	0.493
1109.000	617.307	80.002	20.008	100.215	20.107	-4.024	0.525
1109.500	617.532	80.000	20.008	100.205	20.106	-3.711	0.521
1110.000	617.755	80.003	20.009	100.202	20.109	-4.679	0.473
1110.500	618.015	80.001	20.008	100.201	20.108	-4.278	0.466
1111.000	618.278	80.000	20.008	100.204	20.110	-4.779	0.503
1111.500	618.528	80.002	20.009	100.211	20.111	-5.126	0.518
1112.000	618.768	80.000	20.008	100.219	20.111	-5.299	0.501
1112.500	619.050	80.000	20.009	100.217	20.107	-3.990	0.506
1113.000	619.266	80.002	20.008	100.209	20.108	-4.104	0.510
1113.500	619.492	79.999	20.009	100.200	20.107	-4.044	0.470
1114.000	619.723	80.002	20.008	100.194	20.108	-4.338	0.449
1114.500	619.971	80.000	20.009	100.195	20.110	-4.812	0.468
1115.000	620.177	80.000	20.009	100.200	20.108	-4.191	0.466
1115.500	620.410	80.001	20.008	100.208	20.109	-4.618	0.447
1116.000	620.674	80.000	20.008	100.217	20.108	-4.118	0.468
1116.500	620.940	80.000	20.009	100.219	20.107	-4.051	0.514
1117.001	621.154	80.001	20.008	100.212	20.109	-4.458	0.505
1117.501	621.420	80.001	20.009	100.204	20.106	-3.744	0.480
1118.000	621.665	80.000	20.008	100.199	20.111	-5.106	0.495
1118.500	621.916	80.000	20.008	100.199	20.109	-4.652	0.504
1119.000	622.149	80.001	20.008	100.202	20.108	-4.172	0.490
1119.500	622.384	80.002	20.008	100.210	20.108	-4.278	0.476
1120.000	622.644	80.000	20.009	100.216	20.109	-4.451	0.482
1120.500	622.877	80.001	20.008	100.216	20.108	-4.351	0.494
1121.000	623.126	80.001	20.009	100.212	20.108	-4.218	0.487
1121.500	623.350	80.001	20.008	100.208	20.108	-4.104	0.478
1122.000	623.616	80.002	20.009	100.208	20.106	-3.751	0.482
1122.500	623.865	79.999	20.008	100.210	20.108	-4.171	0.503
1123.000	624.095	80.002	20.008	100.215	20.106	-3.490	0.497
1123.500	624.349	79.999	20.009	100.218	20.106	-3.697	0.481
1124.000	624.623	80.001	20.009	100.219	20.105	-3.176	0.506
1124.500	624.844	80.002	20.009	100.210	20.105	-3.350	0.512
1125.000	625.125	80.000	20.009	100.201	20.107	-3.804	0.498
1125.500	625.310	80.001	20.009	100.194	20.108	-4.285	0.484
1126.000	625.628	79.999	20.008	100.193	20.107	-3.905	0.485
1126.500	625.834	80.002	20.008	100.196	20.107	-3.798	0.514
1127.000	626.117	80.000	20.009	100.204	20.107	-3.978	0.506
1127.500	626.367	80.001	20.008	100.213	20.105	-3.364	0.511
1128.001	626.615	80.001	20.009	100.215	20.106	-3.751	0.516
1128.501	626.826	80.001	20.008	100.209	20.109	-4.625	0.478
1129.000	627.085	80.002	20.010	100.206	20.108	-4.131	0.464
1129.500	627.346	80.002	20.009	100.206	20.109	-4.632	0.495
1130.000	627.576	80.000	20.009	100.205	20.111	-5.306	0.506
1130.500	627.856	80.001	20.008	100.214	20.108	-4.372	0.501
1131.000	628.101	80.001	20.009	100.222	20.110	-4.899	0.518
1131.500	628.354	80.001	20.008	100.226	20.107	-4.044	0.512
1132.000	628.597	80.001	20.008	100.222	20.109	-4.645	0.497
1132.500	628.795	80.002	20.009	100.215	20.110	-4.705	0.468
1133.000	629.074	80.000	20.009	100.207	20.109	-4.592	0.459
1133.500	629.308	80.000	20.008	100.206	20.108	-4.199	0.495
1134.000	629.584	80.001	20.008	100.206	20.109	-4.419	0.511
1134.500	629.840	80.002	20.009	100.209	20.106	-3.745	0.521
1135.000	630.036	80.000	20.008	100.213	20.107	-3.778	0.492
1135.500	630.282	80.001	20.008	100.211	20.107	-3.851	0.447
1136.000	630.548	80.000	20.009	100.204	20.103	-2.683	0.477
1136.500	630.787	80.001	20.008	100.196	20.106	-3.524	0.508
1137.000	631.050	80.001	20.009	100.190	20.105	-3.284	0.504
1137.500	631.275	80.001	20.008	100.194	20.105	-3.291	0.495
1138.000	631.546	80.000	20.008	100.205	20.103	-2.750	0.492
1138.500	631.775	80.001	20.008	100.214	20.109	-4.638	0.498
1139.000	632.031	80.000	20.008	100.221	20.108	-4.231	0.493
1139.500	632.303	80.001	20.008	100.224	20.107	-3.758	0.507
1140.000	632.505	80.001	20.009	100.216	20.107	-3.918	0.501
1140.500	632.789	80.001	20.008	100.211	20.108	-4.339	0.479
1141.000	633.048	80.001	20.009	100.210	20.109	-4.660	0.514
1141.500	633.309	79.999	20.008	100.211	20.110	-4.920	0.532
1142.000	633.564	80.002	20.009	100.217	20.109	-4.453	0.518
1142.500	633.826	80.000	20.009	100.227	20.110	-4.733	0.516
1143.000	634.038	80.000	20.009	100.224	20.107	-3.918	0.495
1143.500	634.318	80.001	20.009	100.218	20.110	-4.932	0.484
1144.000	634.576	80.001	20.009	100.211	20.112	-5.433	0.515
1144.500	634.886	80.000	20.008	100.206	20.110	-4.799	0.553
1145.000	635.074	80.000	20.008	100.205	20.111	-5.320	0.533
1145.501	635.360	80.002	20.009	100.214	20.108	-4.365	0.486
1146.001	635.632	80.001	20.009	100.221	20.110	-4.919	0.516
1146.500	635.927	80.000	20.009	100.227	20.106	-3.704	0.563
1147.000	636.104	80.000	20.009	100.228	20.110	-4.792	0.520
1147.500	636.372	80.001	20.009	100.223	20.109	-4.585	0.458
1148.000	636.601	80.001	20.008	100.215	20.108	-4.205	0.471
1148.500	636.868	80.000	20.009	100.216	20.109	-4.512	0.496
1149.001	637.144	80.000	20.009	100.214	20.108	-4.138	0.520
1149.501	637.367	80.001	20.009	100.216	20.108	-4.212	0.521
1150.000	637.608	80.001	20.008	100.221	20.106	-3.724	0.481
1150.500	637.858	80.001	20.009	100.225	20.107	-3.918	0.478
1151.001	638.074	80.002	20.009	100.219	20.106	-3.564	0.479
1151.500	638.368	79.999	20.008	100.211	20.107	-3.918	0.488
1152.000	638.626	80.002	20.009	100.212	20.108	-4.098	0.531
1152.500	638.865	80.000	20.009	100.214	20.106	-3.491	0.525
1153.000	639.105	80.000	20.009	100.222	20.106	-3.624	0.488
1153.500	639.328	80.002	20.009	100.234	20.105	-3.150	0.471
1154.000	639.603	80.001	20.008	100.248	20.105	-3.223	0.481
1154.500	639.920	80.002	20.009	100.248	20.105	-3.183	0.545
1155.000	640.136	79.999	20.009	100.243	20.105	-3.310	0.562
1155.500	640.400	80.002	20.009	100.229	20.103	-2.763	0.506
1156.000	640.677	80.000	20.009	100.218	20.103	-2.650	0.511
1156.500	640.935	80.000	20.009	100.217	20.102	-2.390	0.538
1157.001	641.214	80.002	20.009	100.222	20.102	-2.410	0.536
1157.500	641.457	80.000	20.009	100.225	20.102	-2.443	0.529
1158.000	641.701	80.000	20.009	100.231	20.102	-2.383	0.504
1158.500	641.951	80.001	20.009	100.227	20.105	-3.364	0.491
1159.000	642.209	80.000	20.008	100.216	20.105	-3.224	0.501
1159.500	642.469	80.001	20.009	100.207	20.104	-3.110	0.513
1160.000	642.736	80.001	20.009	100.207	20.105	-3.230	0.523
1160.500	642.977	80.000	20.009	100.206	20.106	-3.644	0.517
1161.000	643.205	80.001	20.009	100.214	20.105	-3.350	0.489
1161.500	643.497	80.000	20.009	100.222	20.102	-2.296	0.494
1162.000	643.756	80.002	20.009	100.225	20.106	-3.677	0.535
1162.500	644.021	80.001	20.009	100.220	20.106	-3.664	0.537
1163.000	644.282	80.001	20.009	100.220	20.104	-3.117	0.525
1163.500	644.504	80.000	20.009	100.219	20.106	-3.551	0.505
1164.000	644.785	80.001	20.009	100.218	20.107	-3.885	0.493
1164.500	645.085	80.001	20.009	100.219	20.106	-3.571	0.542
1165.000	645.308	80.000	20.008	100.224	20.105	-3.343	0.552
1165.500	645.549	80.001	20.010	100.224	20.107	-3.797	0.493
1166.000	645.807	80.001	20.009	100.220	20.105	-3.410	0.482
1166.500	646.037	80.001	20.010	100.212	20.106	-3.577	0.494
1167.001	646.261	80.000	20.009	100.206	20.107	-3.764	0.471
1167.500	646.529	80.000	20.009	100.206	20.106	-3.637	0.472
1168.000	646.758	80.002	20.009	100.207	20.105	-3.157	0.494
1168.500	646.998	80.000	20.008	100.211	20.103	-2.750	0.483
1169.000	647.243	80.001	20.010	100.218	20.106	-3.597	0.477
1169.500	647.450	80.001	20.009	100.223	20.109	-4.558	0.469
1170.000	647.717	80.000	20.009	100.221	20.108	-4.145	0.463
1170.500	648.012	80.001	20.009	100.215	20.109	-4.605	0.518
1171.000	648.223	80.000	20.010	100.214	20.105	-3.431	0.534
1171.500	648.436	80.001	20.009	100.214	20.105	-3.437	0.465
1172.000	648.681	80.001	20.009	100.214	20.105	-3.397	0.441
1172.500	648.925	80.000	20.009	100.215	20.109	-4.458	0.473
1173.000	649.207	80.000	20.009	100.221	20.107	-4.031	0.508
1173.500	649.399	80.001	20.009	100.218	20.110	-4.745	0.500
1174.000	649.703	80.001	20.009	100.214	20.105	-3.403	0.485
1174.500	649.957	80.001	20.009	100.214	20.107	-3.824	0.527
1175.000	650.214	80.001	20.009	100.215	20.107	-3.918	0.535
1175.500	650.418	80.000	20.009	100.216	20.105	-3.237	0.486
1176.000	650.678	80.000	20.009	100.220	20.109	-4.485	0.462
1176.500	650.915	80.001	20.009	100.225	20.107	-3.764	0.480
1177.000	651.157	80.000	20.009	100.222	20.107	-3.897	0.488
1177.500	651.369	80.001	20.009	100.215	20.108	-4.338	0.467
1178.000	651.650	80.001	20.009	100.205	20.109	-4.485	0.473
1178.500	651.869	80.001	20.009	100.199	20.107	-3.931	0.496
1179.000	652.107	80.000	20.009	100.199	20.107	-3.878	0.478
1179.500	652.380	80.002	20.009	100.202	20.109	-4.445	0.484
1180.000	652.618	80.000	20.009	100.209	20.106	-3.750	0.511
1180.500	652.825	80.001	20.009	100.217	20.107	-3.830	0.478
1181.000	653.089	80.002	20.009	100.221	20.108	-4.371	0.458
1181.500	653.342	80.001	20.010	100.213	20.111	-5.132	0.494
1182.000	653.563	80.001	20.009	100.212	20.111	-5.233	0.495
1182.500	653.835	80.000	20.009	100.212	20.107	-4.018	0.483
1183.000	654.081	80.001	20.009	100.216	20.109	-4.519	0.505
1183.500	654.311	80.002	20.009	100.219	20.106	-3.638	0.497
1184.000	654.526	80.001	20.009	100.224	20.110	-4.739	0.460
1184.500	654.766	80.000	20.008	100.223	20.107	-4.058	0.450
1185.000	655.054	80.000	20.009	100.216	20.110	-4.919	0.491
1185.500	655.291	80.000	20.009	100.205	20.109	-4.399	0.527
1186.000	655.558	80.001	20.009	100.199	20.107	-4.032	0.515
1186.501	655.805	80.001	20.009	100.200	20.109	-4.519	0.509
1187.000	656.020	80.000	20.009	100.204	20.106	-3.705	0.488
1187.500	656.253	80.002	20.009	100.211	20.107	-4.045	0.455
1188.000	656.495	80.002	20.009	100.219	20.106	-3.698	0.462
1188.500	656.787	80.000	20.009	100.221	20.109	-4.525	0.504
1189.000	657.030	80.001	20.009	100.214	20.109	-4.526	0.535
1189.500	657.230	80.002	20.010	100.209	20.105	-3.144	0.489
1190.000	657.509	80.000	20.009	100.208	20.107	-3.892	0.461
1190.500	657.767	80.002	20.008	100.209	20.106	-3.491	0.508
1191.000	658.002	80.001	20.010	100.210	20.104	-3.097	0.515
1191.500	658.206	80.002	20.009	100.215	20.107	-4.071	0.466
1192.000	658.514	80.001	20.009	100.214	20.106	-3.744	0.476
1192.500	658.756	80.002	20.009	100.206	20.105	-3.404	0.531
1193.000	659.017	80.002	20.010	100.197	20.106	-3.544	0.527
1193.500	659.259	80.000	20.009	100.194	20.105	-3.371	0.503
1194.000	659.518	80.001	20.009	100.196	20.107	-3.891	0.502
1194.500	659.739	80.001	20.008	100.205	20.108	-4.144	0.490
1195.000	659.989	80.002	20.009	100.218	20.110	-4.985	0.476
1195.500	660.276	80.001	20.009	100.227	20.108	-4.244	0.504
1196.000	660.499	80.002	20.010	100.230	20.108	-4.184	0.523
1196.500	660.746	80.001	20.009	100.224	20.108	-4.258	0.490
1197.000	661.008	80.002	20.009	100.222	20.108	-4.145	0.490
1197.500	661.291	80.002	20.009	100.218	20.108	-4.145	0.527
1198.000	661.540	80.001	20.009	100.223	20.109	-4.605	0.538
1198.500	661.710	80.000	20.009	100.233	20.107	-4.004	0.476
1199.000	661.976	80.001	20.008	100.240	20.108	-4.231	0.428
1199.500	662.234	80.001	20.008	100.239	20.110	-4.852	0.480
1200.001	662.487	80.001	20.009	100.234	20.110	-4.879	0.517
1200.501	662.749	80.001	20.009	100.227	20.109	-4.672	0.513
1201.000	663.036	80.001	20.009	100.219	20.110	-4.926	0.532
1201.500	663.293	80.001	20.008	100.222	20.111	-5.133	0.546
1202.000	663.545	80.001	20.009	100.226	20.109	-4.472	0.526
1202.500	663.788	80.001	20.008	100.230	20.109	-4.565	0.502
1203.000	664.029	80.002	20.008	100.231	20.108	-4.091	0.490
1203.500	664.328	80.000	20.008	100.229	20.107	-3.877	0.512
1204.000	664.582	80.001	20.008	100.222	20.108	-4.198	0.546
1204.500	664.778	80.001	20.008	100.219	20.108	-4.118	0.502
1205.001	664.988	80.001	20.008	100.219	20.105	-3.431	0.428
1205.501	665.312	80.002	20.010	100.220	20.106	-3.584	0.470
1206.001	665.565	80.001	20.009	100.222	20.109	-4.678	0.556
1206.500	665.822	80.001	20.008	100.224	20.107	-3.864	0.544
1207.000	666.076	80.001	20.008	100.216	20.103	-2.670	0.511
1207.500	666.357	80.001	20.008	100.208	20.105	-3.150	0.523
1208.000	666.606	80.002	20.008	100.200	20.102	-2.483	0.532
1208.500	666.822	79.999	20.008	100.199	20.105	-3.150	0.497
1209.000	667.099	80.001	20.008	100.201	20.103	-2.810	0.479
1209.500	667.358	80.000	20.008	100.209	20.105	-3.217	0.514
1210.000	667.616	80.001	20.007	100.216	20.102	-2.436	0.526
1210.500	667.884	80.001	20.008	100.223	20.098	-1.095	0.522
1211.000	668.173	80.001	20.008	100.222	20.101	-2.136	0.542
1211.500	668.430	80.000	20.008	100.214	20.099	-1.342	0.552
1212.000	668.680	80.001	20.008	100.215	20.099	-1.422	0.526
1212.500	668.914	80.000	20.008	100.215	20.102	-2.470	0.495
1213.000	669.245	80.001	20.008	100.216	20.100	-1.729	0.524
1213.501	669.478	80.000	20.008	100.219	20.101	-2.122	0.564
1214.000	669.729	80.002	20.008	100.225	20.103	-2.803	0.524
1214.500	670.007	80.001	20.008	100.219	20.105	-3.163	0.507
1215.000	670.310	80.001	20.008	100.212	20.101	-2.169	0.555
1215.500	670.503	80.002	20.008	100.206	20.101	-2.143	0.539
1216.000	670.753	80.001	20.008	100.206	20.101	-2.089	0.469
1216.500	671.013	80.000	20.008	100.206	20.103	-2.590	0.476
1217.000	671.280	80.000	20.008	100.213	20.102	-2.369	0.519
1217.500	671.538	80.001	20.008	100.220	20.100	-1.715	0.526
1218.001	671.792	80.001	20.008	100.223	20.098	-0.961	0.518
1218.501	672.029	80.001	20.008	100.215	20.100	-1.702	0.501
1219.000	672.239	80.001	20.008	100.213	20.101	-1.969	0.469
1219.500	672.554	80.001	20.008	100.213	20.100	-1.762	0.486
1220.001	672.786	80.000	20.008	100.212	20.101	-1.996	0.536
1220.500	673.039	80.001	20.008	100.215	20.102	-2.469	0.516
1221.000	673.260	80.001	20.008	100.222	20.103	-2.603	0.480
1221.500	673.520	80.002	20.008	100.223	20.103	-2.576	0.477
1222.000	673.838	80.001	20.008	100.216	20.103	-2.763	0.529
1222.500	674.074	80.001	20.008	100.213	20.104	-2.870	0.566
1223.000	674.259	80.001	20.008	100.214	20.103	-2.783	0.488
1223.500	674.546	80.001	20.008	100.219	20.102	-2.196	0.447
1224.000	674.786	80.001	20.008	100.226	20.100	-1.635	0.499
1224.500	675.083	80.002	20.008	100.232	20.103	-2.636	0.532
1225.000	675.317	80.001	20.008	100.232	20.103	-2.796	0.534
1225.500	675.580	80.002	20.008	100.224	20.105	-3.277	0.514
1226.000	675.793	80.002	20.008	100.212	20.101	-2.109	0.487
1226.500	676.018	80.002	20.009	100.199	20.101	-2.029	0.457
1227.000	676.321	80.001	20.008	100.200	20.102	-2.196	0.483
1227.500	676.571	80.000	20.008	100.210	20.103	-2.736	0.540
1228.000	676.789	80.001	20.008	100.225	20.105	-3.377	0.511
1228.501	677.065	80.001	20.008	100.235	20.103	-2.563	0.481
1229.001	677.346	80.002	20.009	100.238	20.103	-2.576	0.526
1229.501	677.579	80.000	20.008	100.231	20.103	-2.656	0.535
1230.001	677.826	80.001	20.008	100.222	20.106	-3.711	0.497
1230.500	678.124	80.002	20.008	100.213	20.105	-3.317	0.512
1231.000	678.371	80.000	20.007	100.210	20.106	-3.624	0.545
1231.500	678.618	80.002	20.008	100.215	20.107	-3.777	0.519
1232.000	678.883	80.001	20.008	100.219	20.105	-3.363	0.503
1232.500	679.131	80.001	20.008	100.217	20.107	-3.884	0.512
1233.000	679.400	80.000	20.009	100.212	20.107	-4.058	0.515
1233.500	679.609	80.001	20.008	100.205	20.106	-3.618	0.498
1234.000	679.891	80.001	20.008	100.203	20.110	-4.779	0.484
1234.500	680.122	80.001	20.008	100.204	20.106	-3.444	0.502
1235.000	680.380	80.000	20.008	100.209	20.106	-3.711	0.501
1235.500	680.615	79.999	20.007	100.215	20.106	-3.524	0.491
1236.000	680.866	80.002	20.008	100.222	20.109	-4.498	0.489
1236.501	681.161	80.001	20.008	100.217	20.108	-4.238	0.516
1237.001	681.376	80.001	20.008	100.210	20.108	-4.138	0.528
1237.500	681.606	80.001	20.008	100.204	20.107	-3.878	0.477
1238.000	681.915	80.001	20.008	100.205	20.106	-3.731	0.492
1238.500	682.153	80.001	20.008	100.207	20.106	-3.744	0.544
1239.000	682.399	80.000	20.008	100.212	20.108	-4.225	0.516
1239.500	682.638	80.001	20.008	100.219	20.108	-4.204	0.484
1240.000	682.862	80.001	20.008	100.223	20.109	-4.391	0.474
1240.500	683.187	80.001	20.008	100.218	20.106	-3.664	0.506
1241.000	683.368	80.001	20.008	100.213	20.106	-3.711	0.527
1241.500	683.644	80.002	20.008	100.215	20.106	-3.725	0.482
1242.000	683.857	80.001	20.008	100.218	20.107	-3.898	0.473
1242.500	684.074	80.001	20.008	100.220	20.107	-4.045	0.459
1243.000	684.342	80.001	20.008	100.225	20.106	-3.524	0.457
1243.500	684.636	80.001	20.008	100.224	20.109	-4.405	0.524
1244.000	684.896	80.001	20.008	100.214	20.104	-2.964	0.558
1244.501	685.085	80.003	20.008	100.205	20.107	-3.952	0.501
1245.000	685.320	80.001	20.008	100.201	20.107	-3.985	0.436
1245.500	685.550	80.001	20.008	100.203	20.106	-3.665	0.444
1246.000	685.827	80.001	20.008	100.215	20.105	-3.371	0.486
1246.500	686.123	80.002	20.008	100.223	20.107	-3.791	0.540
1247.000	686.361	80.000	20.008	100.230	20.107	-3.898	0.554
1247.500	686.589	80.001	20.008	100.230	20.107	-3.858	0.501
1248.000	686.844	80.001	20.008	100.220	20.107	-3.831	0.474
1248.501	687.105	80.002	20.008	100.211	20.108	-4.145	0.499
1249.001	687.341	80.001	20.008	100.211	20.109	-4.405	0.507
1249.501	687.599	80.001	20.008	100.217	20.108	-4.132	0.495
1250.000	687.907	80.001	20.008	100.221	20.107	-3.971	0.530
1250.500	688.118	80.001	20.008	100.227	20.105	-3.184	0.543
1251.001	688.396	80.001	20.008	100.229	20.107	-3.864	0.504
1251.500	688.635	80.002	20.008	100.222	20.104	-3.064	0.503
1252.000	688.907	80.001	20.009	100.210	20.105	-3.171	0.514
1252.501	689.126	80.003	20.008	100.207	20.104	-2.924	0.501
1253.000	689.393	80.001	20.008	100.209	20.104	-2.843	0.488
1253.500	689.645	80.002	20.008	100.211	20.104	-2.830	0.502
1254.000	689.874	80.001	20.008	100.217	20.105	-3.343	0.501
1254.500	690.108	80.001	20.008	100.224	20.105	-3.310	0.472
1255.000	690.363	80.002	20.008	100.225	20.103	-2.703	0.475
1255.500	690.610	80.001	20.008	100.223	20.101	-1.955	0.496
1256.000	690.889	80.003	20.008	100.223	20.101	-2.022	0.514
1256.500	691.106	80.001	20.008	100.226	20.102	-2.229	0.511
1257.000	691.370	80.002	20.008	100.231	20.103	-2.710	0.488
1257.500	691.611	80.001	20.008	100.232	20.103	-2.809	0.493
1258.000	691.863	80.002	20.008	100.233	20.103	-2.529	0.499
1258.500	692.099	80.001	20.008	100.228	20.107	-3.890	0.491
1259.000	692.402	80.002	20.008	100.222	20.106	-3.584	0.514
1259.500	692.595	80.001	20.008	100.217	20.107	-3.804	0.518
1260.000	692.859	80.002	20.008	100.217	20.106	-3.477	0.476
1260.500	693.101	80.002	20.008	100.219	20.104	-2.843	0.481
1261.000	693.400	80.000	20.008	100.223	20.104	-2.816	0.523
1261.500	693.616	80.001	20.008	100.227	20.102	-2.289	0.527
1262.000	693.914	80.001	20.008	100.227	20.103	-2.696	0.514
1262.500	694.141	80.001	20.008	100.223	20.105	-3.250	0.520
1263.000	694.424	80.002	20.008	100.216	20.104	-2.850	0.518
1263.501	694.625	80.000	20.008	100.216	20.106	-3.484	0.497
1264.001	694.948	80.002	20.008	100.217	20.105	-3.251	0.504
1264.500	695.208	80.002	20.008	100.220	20.109	-4.398	0.554
1265.000	695.419	80.001	20.008	100.224	20.104	-3.057	0.527
1265.500	695.688	80.001	20.008	100.225	20.107	-3.937	0.475
1266.000	695.937	80.002	20.009	100.217	20.103	-2.623	0.499
1266.500	696.160	80.001	20.009	100.208	20.105	-3.317	0.495
1267.000	696.400	80.003	20.008	100.201	20.103	-2.690	0.468
1267.500	696.672	80.000	20.008	100.201	20.106	-3.651	0.488
1268.000	696.903	80.001	20.008	100.206	20.104	-2.917	0.507
1268.500	697.122	80.001	20.008	100.213	20.104	-2.963	0.476
1269.001	697.426	80.002	20.008	100.221	20.102	-2.222	0.486
1269.501	697.643	80.000	20.008	100.218	20.106	-3.584	0.522
1270.000	697.931	80.002	20.009	100.211	20.103	-2.563	0.513
1270.500	698.174	80.001	20.008	100.203	20.104	-2.937	0.518
1271.000	698.401	80.002	20.008	100.200	20.105	-3.277	0.501
1271.500	698.636	80.001	20.008	100.198	20.107	-3.878	0.466
1272.000	698.929	80.000	20.008	100.204	20.105	-3.264	0.495
1272.500	699.185	80.001	20.009	100.211	20.105	-3.364	0.538
1273.000	699.429	80.000	20.008	100.216	20.103	-2.757	0.525
1273.500	699.704	80.001	20.008	100.212	20.107	-3.925	0.510
1274.000	699.956	80.001	20.008	100.208	20.107	-3.845	0.523
1274.500	700.255	80.001	20.008	100.200	20.107	-4.019	0.539
1275.000	700.524	80.000	20.008	100.198	20.105	-3.177	0.560
1275.500	700.723	80.001	20.008	100.203	20.104	-3.064	0.518
1276.000	701.025	80.001	20.008	100.213	20.106	-3.664	0.485
1276.500	701.264	80.000	20.008	100.218	20.108	-4.285	0.521
1277.000	701.491	80.002	20.008	100.223	20.106	-3.457	0.504
1277.500	701.758	80.001	20.008	100.217	20.105	-3.224	0.480
1278.000	702.020	80.001	20.008	100.209	20.103	-2.750	0.511
1278.501	702.271	80.001	20.008	100.204	20.103	-2.810	0.520
1279.000	702.488	80.001	20.008	100.205	20.105	-3.150	0.491
1279.500	702.789	80.001	20.008	100.216	20.102	-2.483	0.493
1280.000	703.047	80.001	20.007	100.226	20.102	-2.182	0.539
1280.500	703.363	80.001	20.008	100.232	20.104	-2.876	0.566
1281.001	703.589	80.000	20.008	100.227	20.103	-2.696	0.558
1281.500	703.913	80.001	20.008	100.219	20.103	-2.583	0.545
1282.000	704.117	80.001	20.008	100.207	20.102	-2.249	0.539
1282.500	704.371	80.002	20.008	100.206	20.102	-2.263	0.493
1283.000	704.615	80.001	20.008	100.209	20.104	-3.051	0.478
1283.500	704.897	80.000	20.007	100.216	20.101	-2.069	0.512
1284.000	705.133	80.001	20.008	100.224	20.105	-3.391	0.522
1284.500	705.476	80.001	20.008	100.226	20.104	-2.843	0.548
1285.000	705.696	80.002	20.009	100.224	20.101	-1.962	0.571
1285.500	705.930	80.001	20.008	100.222	20.100	-1.836	0.508
1286.000	706.149	80.001	20.008	100.221	20.102	-2.183	0.454
1286.500	706.421	80.000	20.007	100.225	20.103	-2.556	0.472
1287.000	706.720	79.999	20.007	100.232	20.099	-1.442	0.531
1287.500	706.956	80.001	20.008	100.233	20.101	-2.109	0.554
1288.000	707.227	80.000	20.008	100.233	20.102	-2.463	0.521
1288.500	707.452	79.999	20.007	100.230	20.101	-2.149	0.501
1289.000	707.702	80.002	20.007	100.225	20.101	-2.083	0.485
1289.501	707.976	80.001	20.008	100.219	20.101	-1.943	0.499
1290.000	708.279	80.000	20.008	100.219	20.101	-1.990	0.551
1290.500	708.498	80.002	20.008	100.221	20.100	-1.656	0.550
1291.000	708.784	80.000	20.008	100.224	20.100	-1.696	0.514
1291.500	709.023	80.000	20.007	100.224	20.099	-1.328	0.514
1292.000	709.270	80.000	20.008	100.220	20.096	-0.581	0.505
1292.500	709.555	80.000	20.008	100.212	20.096	-0.340	0.509
1293.000	709.804	80.002	20.008	100.206	20.099	-1.362	0.533
1293.500	710.077	80.002	20.008	100.206	20.097	-0.854	0.528
1294.000	710.278	80.000	20.008	100.209	20.097	-0.808	0.498
1294.500	710.552	80.000	20.007	100.219	20.098	-0.921	0.475
1295.000	710.816	80.001	20.008	100.228	20.097	-0.654	0.506
1295.500	711.061	80.000	20.008	100.233	20.097	-0.841	0.523
1296.000	711.318	80.001	20.008	100.229	20.098	-1.228	0.505
1296.500	711.568	80.000	20.008	100.224	20.098	-1.048	0.504
1297.000	711.820	80.001	20.008	100.218	20.097	-0.754	0.504
1297.500	712.073	80.000	20.008	100.217	20.096	-0.581	0.503
1298.000	712.324	80.002	20.008	100.219	20.095	-0.113	0.504
1298.500	712.628	80.001	20.008	100.224	20.097	-0.714	0.530
1299.000	712.871	80.001	20.008	100.225	20.098	-1.101	0.551
1299.501	713.106	80.000	20.008	100.224	20.096	-0.441	0.512
1300.001	713.405	80.001	20.008	100.223	20.098	-0.981	0.506
1300.500	713.662	80.001	20.008	100.220	20.098	-0.921	0.545
1301.000	713.883	80.000	20.007	100.223	20.098	-0.961	0.517
1301.500	714.156	80.002	20.008	100.231	20.099	-1.268	0.486
1302.000	714.404	80.001	20.008	100.239	20.098	-1.155	0.508
1302.500	714.681	80.001	20.008	100.245	20.097	-0.828	0.523
1303.000	714.914	80.000	20.008	100.246	20.099	-1.282	0.517
1303.500	715.175	80.002	20.008	100.242	20.098	-1.015	0.502
1304.000	715.454	80.000	20.008	100.234	20.098	-1.222	0.517
1304.500	715.698	80.002	20.008	100.226	20.098	-1.188	0.531
1305.000	715.957	80.000	20.008	100.224	20.099	-1.369	0.513
1305.500	716.189	80.001	20.008	100.224	20.100	-1.816	0.497
1306.000	716.491	80.001	20.008	100.225	20.099	-1.382	0.513
1306.500	716.692	80.001	20.009	100.225	20.100	-1.696	0.518
1307.001	716.973	80.001	20.008	100.226	20.099	-1.502	0.492
1307.500	717.233	80.002	20.008	100.225	20.099	-1.429	0.511
1308.000	717.448	79.999	20.008	100.231	20.098	-1.175	0.508
1308.500	717.693	80.002	20.008	100.238	20.099	-1.362	0.467
1309.001	717.992	80.001	20.008	100.247	20.100	-1.575	0.502
1309.501	718.232	80.000	20.008	100.253	20.098	-0.948	0.542
1310.000	718.473	80.001	20.008	100.255	20.102	-2.423	0.511
1310.500	718.772	80.001	20.007	100.248	20.102	-2.237	0.510
1311.000	719.002	80.001	20.008	100.240	20.099	-1.469	0.534
1311.500	719.241	80.002	20.008	100.237	20.102	-2.410	0.499
1312.000	719.517	80.000	20.008	100.237	20.103	-2.570	0.492
1312.500	719.769	80.001	20.007	100.242	20.104	-2.877	0.522
1313.000	719.995	79.999	20.008	100.250	20.102	-2.356	0.502
1313.500	720.234	80.001	20.008	100.254	20.102	-2.190	0.471
1314.001	720.473	80.000	20.008	100.249	20.101	-2.130	0.472
1314.500	720.711	80.002	20.008	100.241	20.104	-2.817	0.478
1315.000	720.943	80.001	20.008	100.235	20.100	-1.589	0.473
1315.500	721.154	80.001	20.008	100.236	20.101	-1.896	0.456
1316.000	721.417	80.000	20.008	100.239	20.103	-2.564	0.459
1316.500	721.677	80.001	20.008	100.247	20.100	-1.816	0.499
1317.000	721.932	80.000	20.008	100.249	20.102	-2.336	0.519
1317.500	722.206	80.001	20.008	100.247	20.103	-2.543	0.522
1318.000	722.454	80.002	20.008	100.240	20.100	-1.716	0.526
1318.500	722.687	80.002	20.008	100.232	20.103	-2.811	0.501
1319.000	722.965	80.001	20.008	100.230	20.101	-1.876	0.496
1319.500	723.202	80.000	20.008	100.236	20.100	-1.729	0.513
1320.000	723.474	80.000	20.008	100.244	20.101	-2.023	0.512
1320.500	723.663	80.000	20.008	100.244	20.102	-2.243	0.485
1321.000	723.972	80.001	20.008	100.246	20.101	-1.909	0.479
1321.500	724.226	80.000	20.007	100.240	20.099	-1.362	0.530
1322.000	724.471	80.002	20.008	100.234	20.100	-1.656	0.531
1322.500	724.716	80.001	20.008	100.232	20.100	-1.569	0.494
1323.000	725.009	80.000	20.008	100.239	20.100	-1.696	0.514
1323.500	725.206	80.000	20.008	100.246	20.102	-2.270	0.514
1324.000	725.468	80.000	20.008	100.253	20.102	-2.350	0.475
1324.500	725.782	80.001	20.008	100.257	20.102	-2.430	0.517
1325.000	726.023	80.001	20.008	100.250	20.101	-2.049	0.565
1325.500	726.288	80.001	20.008	100.242	20.100	-1.555	0.530
1326.000	726.543	80.000	20.008	100.234	20.103	-2.664	0.514
1326.500	726.760	79.999	20.008	100.233	20.101	-1.963	0.496
1327.000	727.040	80.001	20.007	100.237	20.101	-1.996	0.484
1327.500	727.293	80.001	20.008	100.245	20.101	-1.909	0.515
1328.000	727.613	80.000	20.008	100.247	20.102	-2.456	0.553
1328.500	727.864	80.000	20.008	100.247	20.101	-1.916	0.572
1329.000	728.081	80.000	20.008	100.241	20.104	-3.104	0.520
1329.500	728.325	80.000	20.008	100.232	20.103	-2.664	0.464
1330.000	728.600	80.001	20.008	100.227	20.102	-2.263	0.490
1330.500	728.853	80.001	20.008	100.231	20.101	-1.949	0.524
1331.000	729.060	80.000	20.008	100.237	20.101	-2.016	0.495
1331.500	729.314	80.001	20.008	100.245	20.099	-1.482	0.461
1332.000	729.583	80.001	20.008	100.246	20.102	-2.336	0.492
1332.500	729.815	80.001	20.008	100.243	20.102	-2.343	0.512
1333.000	730.096	80.001	20.008	100.236	20.102	-2.336	0.506
1333.500	730.334	80.001	20.008	100.228	20.098	-1.041	0.516
1334.000	730.573	80.001	20.008	100.228	20.101	-1.989	0.499
1334.500	730.861	80.001	20.008	100.235	20.103	-2.717	0.502
1335.000	731.025	79.999	20.008	100.243	20.105	-3.271	0.489
1335.500	731.308	80.002	20.008	100.251	20.103	-2.556	0.449
1336.000	731.554	80.000	20.008	100.252	20.101	-1.876	0.487
1336.500	731.798	80.002	20.008	100.243	20.103	-2.516	0.510
1337.000	732.065	80.000	20.008	100.236	20.100	-1.762	0.501
1337.500	732.312	80.001	20.008	100.231	20.103	-2.570	0.512
1338.000	732.578	80.000	20.008	100.231	20.101	-1.869	0.513
1338.500	732.844	80.000	20.008	100.239	20.101	-1.976	0.522
1339.000	733.063	80.000	20.008	100.246	20.100	-1.615	0.508
1339.500	733.362	80.000	20.008	100.247	20.100	-1.762	0.501
1340.000	733.589	80.001	20.008	100.245	20.101	-1.916	0.522
1340.500	733.836	80.002	20.008	100.238	20.099	-1.302	0.500
1341.000	734.101	80.000	20.008	100.231	20.098	-1.102	0.494
1341.500	734.335	80.001	20.008	100.233	20.099	-1.329	0.506
1342.000	734.604	80.001	20.008	100.241	20.100	-1.629	0.501
1342.500	734.857	80.000	20.008	100.245	20.100	-1.696	0.512
1343.000	735.117	80.002	20.008	100.245	20.098	-1.188	0.517
1343.500	735.360	80.002	20.008	100.243	20.099	-1.369	0.508
1344.000	735.632	80.000	20.009	100.236	20.101	-2.123	0.509
1344.500	735.890	80.001	20.008	100.228	20.103	-2.657	0.522
1345.000	736.151	80.001	20.008	100.224	20.103	-2.677	0.524
1345.500	736.389	80.001	20.008	100.224	20.100	-1.822	0.509
1346.000	736.635	80.001	20.008	100.225	20.100	-1.856	0.492
1346.500	736.860	80.001	20.008	100.225	20.100	-1.669	0.477
1347.001	737.163	80.001	20.009	100.222	20.100	-1.635	0.499
1347.500	737.366	80.001	20.008	100.222	20.100	-1.736	0.517
1348.000	737.671	80.000	20.008	100.221	20.101	-1.956	0.507
1348.500	737.942	80.001	20.008	100.224	20.100	-1.615	0.542
1349.000	738.195	80.001	20.008	100.225	20.099	-1.348	0.550
1349.500	738.434	80.001	20.008	100.227	20.101	-1.902	0.508
1350.000	738.626	80.001	20.008	100.227	20.104	-2.944	0.462
1350.500	738.986	80.001	20.008	100.226	20.102	-2.230	0.492
1351.000	739.227	80.001	20.008	100.223	20.104	-3.031	0.576
1351.501	739.453	80.000	20.008	100.221	20.102	-2.443	0.534
1352.001	739.712	80.002	20.008	100.223	20.102	-2.430	0.476
1352.500	739.917	80.000	20.008	100.231	20.100	-1.682	0.475
1353.000	740.219	80.001	20.008	100.240	20.101	-1.936	0.486
1353.500	740.478	80.001	20.008	100.243	20.102	-2.470	0.534
1354.000	740.701	80.000	20.008	100.244	20.100	-1.642	0.521
1354.500	740.947	80.002	20.008	100.242	20.100	-1.749	0.475
1355.000	741.186	80.001	20.008	100.236	20.099	-1.435	0.477
1355.500	741.437	79.999	20.008	100.234	20.100	-1.749	0.487
1356.000	741.721	80.001	20.008	100.240	20.100	-1.756	0.512
1356.501	741.959	80.001	20.008	100.243	20.101	-1.956	0.529
1357.000	742.176	80.001	20.008	100.244	20.098	-1.068	0.489
1357.500	742.468	80.001	20.008	100.241	20.100	-1.849	0.482
1358.000	742.736	80.001	20.008	100.233	20.098	-1.048	0.534
